#lambda/nm	C1
208.295	472.4
208.67	440.9
209.045	401.4
209.419	408.9
209.794	564.2
210.169	537.9
210.544	645.5
210.919	556.7
211.295	543.9
211.67	557
212.045	546
212.421	545.6
212.796	578
213.172	542.3
213.547	551.6
213.923	545.9
214.299	546.8
214.675	557.1
215.051	560.7
215.427	552.3
215.803	566.2
216.179	556.5
216.555	545.2
216.932	553.9
217.308	552.6
217.684	554.6
218.061	557.6
218.438	559.8
218.814	551
219.191	555.3
219.568	541.3
219.945	550.7
220.322	559.9
220.699	554.4
221.076	559.8
221.453	553.1
221.83	548.4
222.208	545.6
222.585	544.9
222.962	547.6
223.34	551
223.717	551
224.095	549.8
224.473	554
224.851	546.6
225.229	540.2
225.607	561.7
225.985	541.1
226.363	553.6
226.741	553.3
227.119	552
227.497	562.2
227.876	541.1
228.254	561.5
228.633	556
229.011	554.1
229.39	552.4
229.769	550.5
230.148	558.2
230.527	570.5
230.905	556.5
231.284	554.9
231.664	541.9
232.043	562.1
232.422	556.7
232.801	546.3
233.181	556.2
233.56	554.4
233.94	553.3
234.319	541.6
234.699	547.9
235.079	590.8
235.458	584.7
235.838	565.8
236.218	546.1
236.598	540.5
236.978	552.1
237.358	551.9
237.738	551.6
238.119	561.7
238.499	537.8
238.88	554.6
239.26	566.2
239.641	535.2
240.021	546.2
240.402	554.9
240.783	547.9
241.163	554.8
241.544	552.3
241.925	554.3
242.306	568.6
242.687	546.9
243.069	551.1
243.45	564.1
243.831	549.7
244.212	553
244.594	580.6
244.975	563
245.357	553.7
245.739	551.3
246.12	553.8
246.502	564.8
246.884	550.7
247.266	545.8
247.648	555.1
248.03	564.8
248.412	557.4
248.794	557
249.176	549.2
249.559	560.9
249.941	548.4
250.323	542.6
250.706	543.2
251.089	552.5
251.471	559.2
251.854	552.8
252.237	554.5
252.62	552.5
253.002	548.6
253.385	551.5
253.769	566.8
254.152	549.9
254.535	554.4
254.918	549.9
255.301	552.8
255.685	550.8
256.068	546.3
256.452	571.5
256.835	559.8
257.219	554.6
257.603	562.7
257.986	552.1
258.37	555.1
258.754	545.3
259.138	559.5
259.522	563.1
259.906	546.5
260.29	555.7
260.675	551.1
261.059	549.4
261.443	547.3
261.828	557.2
262.212	558.2
262.597	545
262.981	547.2
263.366	556.4
263.751	551
264.136	550.6
264.521	551.4
264.906	548.1
265.291	558.7
265.676	548.9
266.061	553.3
266.446	570
266.831	552.9
267.217	572.7
267.602	555.6
267.987	554.9
268.373	551
268.759	559.9
269.144	552
269.53	549.5
269.916	542.8
270.302	546.8
270.688	555.6
271.074	553.4
271.46	560.4
271.846	581.9
272.232	548.1
272.618	546.4
273.004	549.9
273.391	558
273.777	562.7
274.164	555
274.55	564.2
274.937	553
275.324	550.4
275.71	558.2
276.097	554.6
276.484	541.7
276.871	554.4
277.258	554.7
277.645	544.1
278.032	550.9
278.419	553.5
278.807	552.8
279.194	544.7
279.581	545.2
279.969	558
280.356	553.3
280.744	553.7
281.131	571.7
281.519	560.5
281.907	550.5
282.295	551.5
282.682	563.2
283.07	554
283.458	559.2
283.846	564.3
284.235	560.6
284.623	557.9
285.011	544.7
285.399	548.4
285.788	553.5
286.176	536.7
286.565	563.6
286.953	545.1
287.342	546.9
287.731	545.6
288.119	543.9
288.508	550.7
288.897	549.4
289.286	539.8
289.675	552
290.064	558.4
290.453	546.6
290.821	548.6
291.21	567.3
291.599	548.3
291.989	552.3
292.378	555.3
292.768	565.7
293.157	554.1
293.547	559.3
293.936	548.1
294.326	553
294.716	551.2
295.106	550
295.496	558.8
295.886	558.5
296.276	547.1
296.666	545.1
297.056	546.6
297.446	548.2
297.836	573
298.227	547.7
298.617	553.5
299.008	567.3
299.398	551.4
299.789	547.6
300.179	552.6
300.57	566.1
300.961	551.4
301.352	553
301.742	561.5
302.133	558.7
302.524	554.6
302.915	557.2
303.307	550.6
303.698	558.9
304.089	556.8
304.48	553.3
304.872	559.4
305.263	551.5
305.655	551.9
306.046	557.4
306.438	554.7
306.829	553.8
307.221	563.9
307.613	566
308.005	560.5
308.397	556.6
308.789	572.5
309.181	573.1
309.573	568.6
309.965	562.5
310.357	549.4
310.749	557.1
311.142	546.9
311.534	542.2
311.926	560.3
312.319	553.4
312.711	551.1
313.104	563.3
313.497	551.3
313.889	586.9
314.282	565.8
314.675	572.5
315.068	553.9
315.461	556
315.854	578.3
316.247	563.4
316.64	554.8
317.033	556.5
317.405	563.6
317.798	551.6
318.192	553.1
318.585	552.5
318.979	553.5
319.372	546.6
319.766	548.7
320.16	557.8
320.553	566.1
320.947	570.3
321.341	548.1
321.735	550.7
322.129	542
322.523	567
322.917	551.8
323.311	562.3
323.705	557.1
324.099	554.4
324.494	568.8
324.888	566.7
325.282	552.5
325.677	559.9
326.071	561.9
326.466	567.5
326.861	556.4
327.255	567.4
327.65	563.2
328.045	568
328.44	558.6
328.835	557.1
329.23	549.8
329.625	577.7
330.02	550.2
330.415	570.7
330.81	555.1
331.206	554.2
331.601	546.6
331.996	559.2
332.37	561.5
332.766	544.3
333.161	569.7
333.557	547.5
333.953	552.5
334.348	855.6
334.744	554.8
335.14	552
335.536	544.9
335.932	560.1
336.328	548.2
336.724	563.4
337.12	554.5
337.516	557.6
337.913	552.5
338.309	564
338.705	552.7
339.102	562.5
339.498	549.4
339.895	565.1
340.291	553.7
340.688	563.1
341.085	552.9
341.481	551.2
341.878	553.6
342.275	568.1
342.672	543.3
343.069	546.8
343.466	542.3
343.842	560.5
344.239	540.6
344.636	549
345.033	542.4
345.431	546.6
345.828	551.6
346.225	544.9
346.623	558.6
347.02	554
347.418	563.6
347.816	560.4
348.213	540.9
348.611	558.6
349.009	546.4
349.407	566
349.805	540.1
350.203	542.6
350.601	555.2
350.999	548.1
351.397	542.9
351.795	554.4
352.193	550.9
352.57	558.4
352.969	560.1
353.367	540.2
353.766	543.1
354.164	545.9
354.563	555.4
354.961	548
355.36	546.1
355.759	546.8
356.158	542.9
356.557	543.3
356.956	542.8
357.355	538.5
357.754	559.3
358.153	553.6
358.552	571.3
358.951	548.7
359.35	557.2
359.75	541.4
360.149	540.3
360.527	539.2
360.926	537.2
361.326	548.2
361.726	553
362.125	544.7
362.525	559.3
362.925	549
363.325	547.3
363.724	546.8
364.124	538.2
364.524	536.7
364.924	542.2
365.324	557.2
365.725	538.6
366.125	554
366.525	544.2
366.904	540.7
367.304	531.8
367.705	558.2
368.105	553.6
368.506	542.6
368.906	547.8
369.307	540.4
369.708	550.4
370.108	535.3
370.509	556.6
370.91	543.8
371.311	549.1
371.712	547.4
372.113	543.1
372.514	535.1
372.894	541.4
373.295	540.9
373.696	557.9
374.097	550.4
374.499	567.5
374.9	550.7
375.301	541.1
375.703	548.6
376.105	534.7
376.506	549.1
376.908	551.3
377.309	545.2
377.711	541.3
378.113	540.5
378.493	546.5
378.895	540.5
379.297	551
379.699	536.2
380.102	549.5
380.504	546.5
380.906	537.8
381.308	568.7
381.71	546
382.113	549.3
382.515	542.7
382.918	549.1
383.299	539.3
383.701	547.4
384.104	547.4
384.507	526
384.909	541.8
385.312	537.4
385.715	536.5
386.118	540.8
386.521	531.5
386.924	555.7
387.327	535.7
387.709	531.7
388.112	530.2
388.515	538.9
388.918	539.6
389.322	544
389.725	536.2
390.129	568.1
390.532	548.9
390.936	543.8
391.339	537.2
391.743	547.4
392.125	544.5
392.529	552
392.933	557.9
393.337	544.7
393.74	539.6
394.144	542
394.548	540.7
394.953	540.5
395.357	546.2
395.761	543.7
396.144	537.7
396.548	549.2
396.952	542.6
397.357	550.6
397.761	541
398.166	538.5
398.57	548.1
398.975	539.9
399.379	546.4
399.763	590.7
400.168	539.7
400.572	550
400.977	542
401.382	561.7
401.787	551.9
402.192	563
402.597	560.1
403.002	534.4
403.386	557.9
403.791	553.5
404.197	537.6
404.602	539.7
405.007	547.4
405.413	537.2
405.818	533.1
406.224	539.6
406.608	545.1
407.014	538.5
407.42	557.5
407.825	544
408.231	555.3
408.637	548.1
409.043	556.6
409.449	538.8
409.834	541.2
410.24	550.5
410.646	558
411.052	549.7
411.458	553.7
411.865	550.7
412.271	554.1
412.677	547.1
413.062	550.6
413.469	535.1
413.875	570.2
414.282	556.9
414.689	545.8
415.095	548.6
415.502	541.1
415.888	543.6
416.294	536
416.701	585
417.108	537.9
417.515	556.9
417.923	544.4
418.33	560.1
418.715	556.3
419.123	543.7
419.53	541.1
419.937	546.6
420.345	554.1
420.752	543.2
421.16	556.9
421.546	549
421.953	552.4
422.361	534.6
422.769	546.1
423.177	538.3
423.585	567.6
423.992	559.8
424.379	558
424.787	554
425.195	563.1
425.603	552.5
426.011	559.8
426.419	557.3
426.806	552.8
427.214	550.3
427.623	555.2
428.031	556.5
428.44	546.1
428.848	556.1
429.235	567.8
429.644	549.9
430.053	549.7
430.461	556.7
430.87	567.9
431.279	559.5
431.666	538.3
432.075	547.4
432.484	558.8
432.893	544.7
433.302	563.7
433.711	581.7
434.099	556.2
434.508	548.8
434.918	538.5
435.327	554.7
435.737	555.5
436.125	551.4
436.534	550.1
436.944	551
437.353	552.6
437.763	560.6
438.173	541.7
438.561	553.8
438.971	536.4
439.381	544
439.791	552.8
440.201	526.7
440.589	544
440.999	548.9
441.409	544
441.819	533.6
442.23	553.9
442.619	550.6
443.029	546.3
443.439	548.9
443.85	555.9
444.26	554.8
444.649	551.1
445.06	545.6
445.471	540.9
445.881	546.9
446.292	559.4
446.682	561.5
447.092	530.2
447.503	585.8
447.914	543.6
448.325	545.5
448.715	544.4
449.126	536.8
449.537	542.3
449.948	543.9
450.338	545.7
450.75	551.3
451.161	547.1
451.572	548.1
451.984	541.4
452.374	527.6
452.786	543.2
453.197	545.3
453.609	548.7
453.999	529.8
454.411	535.1
454.823	549.6
455.235	545.4
455.647	545.7
456.037	546.6
456.449	530.1
456.862	541.7
457.274	540
457.665	537.1
458.077	544.1
458.489	554.9
458.902	534.7
459.293	545.2
459.705	548.5
460.118	543.9
460.53	544.8
460.921	541.4
461.334	542.9
461.747	536
462.16	553.8
462.551	550.7
462.964	552.3
463.377	525.4
463.79	531
464.182	548
464.595	531
465.008	545.1
465.421	543.2
465.813	533.7
466.226	547.5
466.64	536.7
467.053	577.6
467.445	544.7
467.859	540.8
468.272	546.7
468.686	551.6
469.078	537.9
469.492	526.4
469.906	538.8
470.298	541
470.712	535.1
471.126	564.5
471.54	526.6
471.933	537.2
472.347	536.5
472.761	536.7
473.175	525.9
473.568	535.2
473.982	523.1
474.397	537.5
474.79	538.8
475.204	545.4
475.619	536.7
476.033	538.4
476.426	536.1
476.841	532.4
477.256	557.1
477.649	535.7
478.064	533.6
478.479	532.4
478.872	528.6
479.287	526.2
479.702	530.1
480.118	537
480.511	533.9
480.927	528.1
481.342	535.9
481.736	535.5
482.151	530.4
482.566	547.2
482.96	536.5
483.376	547.4
483.792	531.3
484.186	539.9
484.602	537.8
485.017	542.6
485.412	535.9
485.827	540.3
486.243	536.5
486.638	555.2
487.054	546.9
487.47	549.5
487.865	532.7
488.281	532.6
488.697	536.2
489.092	537.9
489.508	531.3
489.925	540.9
490.32	525.8
490.736	536.6
491.153	538.1
491.548	543.2
491.964	547.9
492.381	527.7
492.776	542.9
493.193	535.8
493.61	543.8
494.006	537.6
494.422	543
494.84	529.9
495.235	545.5
495.652	541.2
496.069	536.6
496.465	526.6
496.883	535.5
497.3	560
497.696	532.4
498.113	547.5
498.509	524.7
498.927	527.2
499.344	526.7
499.741	535.6
500.158	542.3
500.576	545
500.973	535.9
501.39	530.4
501.787	526.9
502.205	540.7
502.623	531.5
503.02	526.9
503.438	529.2
503.856	534.3
504.253	539.8
504.671	533.1
505.068	533.8
505.486	535.3
505.905	552.3
506.302	538.2
506.72	543.6
507.118	527
507.536	533.2
507.955	532.5
508.352	538.2
508.771	539.9
509.169	541.5
509.587	527
510.006	534.2
510.404	525.5
510.823	531.6
511.221	526.2
511.64	532
512.038	545.9
512.457	533.4
512.877	537.7
513.275	527.3
513.694	535.3
514.092	530.1
514.512	536.5
514.91	532.7
515.33	532
515.749	534.3
516.148	538.5
516.568	538.9
516.966	534.6
517.386	532.6
517.785	535.4
518.205	532.9
518.603	533.7
519.024	533.1
519.444	532.7
519.843	540.6
520.263	541.8
520.662	539.7
521.082	536.4
521.481	535.3
521.902	538.2
522.301	536.3
522.722	541.8
523.121	536.4
523.542	531.6
523.963	530.2
524.362	531
524.783	534.7
525.183	533.1
525.604	535.4
526.003	534.7
526.425	528.9
526.824	537.7
527.246	544
527.646	549.5
528.067	536.4
528.467	537.2
528.888	539.4
529.289	533.1
529.71	531.7
530.11	533.3
530.532	530.1
530.932	525.2
531.354	529.6
531.755	563.5
532.176	542.4
532.577	530.4
532.999	536.6
533.4	533
533.822	540.2
534.223	530.3
534.645	536.5
535.046	532.7
535.468	531.1
535.869	546.7
536.292	528.2
536.693	531.8
537.115	534.1
537.516	526.2
537.939	534.7
538.34	550.4
538.742	540.9
539.165	537.4
539.566	531.6
539.989	524.8
540.391	532.6
540.814	528.2
541.216	533.8
541.639	531.2
542.041	539
542.464	524.4
542.866	529.5
543.268	520.8
543.691	537.7
544.093	538.1
544.517	547.2
544.919	522
545.343	551.1
545.745	520.6
546.147	529.2
546.571	528.7
546.974	519.5
547.398	531.8
547.8	542.7
548.224	533.6
548.627	527.7
549.03	535.3
549.454	529
549.857	522.9
550.281	527.5
550.684	526.5
551.087	538.1
551.512	534.8
551.915	538.1
552.34	537.7
552.743	530.4
553.146	532.8
553.571	532.1
553.975	546.9
554.399	527
554.803	568.2
555.207	531.6
555.632	527.3
556.036	536.3
556.461	525.7
556.865	524.1
557.268	520.5
557.694	532.5
558.098	537.1
558.502	530.4
558.927	523.8
559.332	529.2
559.736	528.8
560.162	531.2
560.566	528.1
560.992	539.7
561.396	523.5
561.801	525.9
562.227	532.1
562.631	530.2
563.036	531.6
563.462	540
563.867	534.4
564.272	521.2
564.698	533.9
565.103	521.8
565.508	544.3
565.935	532
566.34	526
566.745	532.9
567.172	529.8
567.577	541.7
567.982	539.5
568.409	534.1
568.815	525.6
569.22	528.4
569.626	534.5
570.053	522.5
570.459	531.8
570.865	535.1
571.292	536.6
571.698	536.7
572.104	518.4
572.531	529.7
572.937	539.4
573.343	528.6
573.75	529.2
574.177	532.2
574.583	534.4
574.99	533.8
575.396	535.9
575.824	525.3
576.231	536.9
576.637	526.2
577.065	550.5
577.472	527.6
577.879	525.1
578.286	538.1
578.714	520.5
579.121	526.6
579.528	529.3
579.935	535.9
580.364	525.6
580.771	512
581.178	526.3
581.585	533.2
582.014	532.8
582.421	523.3
582.829	530.5
583.236	535.7
583.644	524.5
584.073	525
584.481	529.3
584.889	527.3
585.296	534.3
585.726	530.3
586.134	527.4
586.542	520.2
586.95	546.7
587.358	519.2
587.787	530.4
588.196	520
588.604	526.8
589.012	528.9
589.421	521.5
589.851	522.7
590.259	529.7
590.668	522.6
591.076	561.7
591.485	530
591.894	523.6
592.324	543.7
592.733	539.3
593.142	520.2
593.551	528.1
593.96	554.4
594.369	513
594.8	522.3
595.209	529.4
595.618	519.8
596.028	523
596.437	517.6
596.847	525.9
597.256	535.9
597.687	532.3
598.097	526.7
598.507	517
598.917	531.6
599.327	535.7
599.736	534.7
600.146	533.6
600.556	528.6
600.988	540.5
601.398	529.1
601.808	537.9
602.219	516.5
602.629	528.2
603.039	533.5
603.45	554.8
603.86	523.9
604.271	541
604.703	525.2
605.114	527.8
605.525	526.3
605.935	535.7
606.346	542.4
606.757	533.2
607.168	532.4
607.579	527.7
607.99	537
608.402	527
608.813	533.5
609.224	525.9
609.636	518.1
610.047	520.7
610.48	530.2
610.892	530.7
611.303	539.7
611.715	530.7
612.127	519.1
612.539	531.3
612.95	527.8
613.362	519.7
613.774	523
614.186	519.7
614.599	523.1
615.011	536.9
615.423	514.7
615.835	521.6
616.248	520.7
616.66	532.9
617.073	522.5
617.485	525.5
617.898	534.9
618.311	526.6
618.723	526.5
619.136	549.4
619.549	545.2
619.962	545.8
620.375	523.5
620.788	525.7
621.201	525.8
621.614	534.5
622.028	524.4
622.441	527.3
622.854	538.3
623.268	522.8
623.681	526.9
624.095	532.1
624.509	532.9
624.922	537.2
625.336	521.7
625.728	532.5
626.142	539
626.556	542.2
626.97	530.8
627.384	528.7
627.799	531.2
628.213	538.6
628.627	526.3
629.041	524.4
629.456	524.5
629.87	528.1
630.285	533.4
630.699	533
631.093	523.2
631.507	530.2
631.922	530.9
632.337	538.1
632.752	520.5
633.167	524.4
633.582	522.7
633.997	523.5
634.412	524.8
634.806	530.6
635.221	519.8
635.637	534.9
636.052	519.9
636.468	530.4
636.883	543.3
637.299	525.7
637.715	515.9
638.109	528.4
638.525	512.9
638.941	535.3
639.357	529.9
639.773	536.1
640.189	522.7
640.584	527.2
641	526.3
641.416	520.2
641.832	532.1
642.249	524.2
642.665	528.2
643.06	534.3
643.477	531.4
643.894	516.7
644.31	524.7
644.727	529.1
645.123	525.1
645.54	524
645.957	528.9
646.374	535
646.77	524.5
647.187	546.4
647.604	533
648.021	517.1
648.439	519.7
648.835	524.8
649.252	528
649.67	526.2
650.088	526.4
650.484	526.6
650.902	532.1
651.32	530.6
651.738	523.7
652.134	525.5
652.552	541
652.971	534.1
653.389	526.7
653.786	535.4
654.204	527.4
654.622	514.6
655.019	523.8
655.438	522.2
655.857	527.3
656.275	532.4
656.673	514.1
657.091	587.3
657.51	520.9
657.908	532.1
658.327	536.4
658.746	518.3
659.144	525.2
659.563	541.3
659.982	527.9
660.38	515.9
660.8	526
661.219	536.2
661.617	527.7
662.037	527.3
662.457	531
662.855	512.7
663.275	557
663.695	531.4
664.094	524.5
664.514	528.2
664.934	518.5
665.333	529.6
665.753	521.1
666.152	518.8
666.572	522.7
666.993	533
667.392	519.2
667.812	527.3
668.212	521.4
668.632	533.7
669.053	522.4
669.453	529
669.874	524
670.273	522.5
670.694	519.7
671.116	532.3
671.515	534.8
671.937	522.5
672.337	515.9
672.758	518.4
673.158	530.5
673.58	513.4
673.98	516.5
674.402	535.4
674.824	521.5
675.224	522
675.646	517.9
676.047	516.6
676.469	523.2
676.869	528.2
677.292	522.7
677.693	522
678.115	516.7
678.516	534.4
678.939	523.2
679.34	519.9
679.762	537.5
680.164	535.7
680.586	514.8
680.988	531.5
681.411	545
681.812	522.8
682.236	518
682.637	516.7
683.061	515.8
683.462	531.1
683.864	525
684.288	525.8
684.69	522.1
685.114	532.8
685.516	535.1
685.94	515.3
686.342	529.8
686.766	519.8
687.168	518.6
687.571	536.3
687.995	530.2
688.398	518
688.822	523.6
689.225	538.3
689.628	541.1
690.052	518.9
690.456	531.5
690.88	526.9
691.284	511.5
691.687	529.3
692.112	517.8
692.515	512.8
692.919	524
693.344	528.9
693.747	521.6
694.173	519.3
694.577	535.1
694.98	523.6
695.406	520.4
695.81	529.2
696.214	529.1
696.64	528.4
697.044	525.9
697.448	528.4
697.874	527.5
698.279	520.2
698.684	516.1
699.11	522.8
699.514	521.4
699.919	526.4
700.324	514.6
700.75	522
701.156	525.6
701.561	536.1
701.987	529.7
702.393	529.9
702.798	535.4
703.203	529.5
703.63	517.3
704.036	519.6
704.442	532.3
704.847	512.2
705.274	529
705.68	527.7
706.086	535.6
706.492	517.2
706.92	523.7
707.326	530.5
707.732	520.6
708.139	518.5
708.545	519.4
708.973	520
709.38	522.7
709.786	514.5
710.193	539.6
710.6	525.6
711.028	515.7
711.435	524.8
711.842	527.7
712.249	520.6
712.656	522.5
713.064	536.1
713.492	515.2
713.9	517.8
714.307	526.9
714.715	519.4
715.123	527.3
715.53	527.4
715.938	528.2
716.367	524.4
716.775	521.6
717.184	520
717.592	523.6
718	535.3
718.408	549.5
718.816	558.3
719.225	529.9
719.633	523.6
720.042	519.6
720.472	523.8
720.881	546.8
721.29	525
721.699	513
722.108	529.4
722.517	525.7
722.926	521.8
723.335	531
723.744	524
724.154	519.2
724.563	523.3
724.973	528.9
725.382	519.4
725.792	520.9
726.202	512.5
726.612	529.7
727.022	522.8
727.432	514.9
779.813	518.4
780.223	558.9
780.634	520.7
781.044	518.9
781.454	521.1
781.865	533.6
782.276	518.3
782.686	530.5
783.097	520.3
783.508	521.1
783.919	525.4
784.33	533.1
784.741	529.5
785.152	522.7
785.563	508.4
785.974	517.9
786.386	532.8
786.776	524.8
787.188	522.6
787.599	519.5
788.011	525.8
788.423	522.5
788.835	517.7
789.247	515.1
789.659	522
790.071	517.1
790.483	557
790.874	523.1
791.286	523.8
791.699	519.3
792.111	522.3
792.524	528
792.937	518.5
793.349	511.9
793.741	516.1
794.154	519.5
794.567	542.4
794.98	518.3
795.393	511.7
795.785	534.8
796.198	516.4
796.612	518.9
797.026	515.5
797.439	505.3
797.831	517.9
798.245	512.6
798.659	520.5
799.073	514.2
799.487	512.9
799.88	521
800.294	520.5
800.708	519.7
801.123	515.9
801.516	537.4
801.93	506.6
802.345	508.4
802.76	516.5
803.153	533.6
803.568	529.8
803.983	526.3
804.377	521.9
804.792	514.7
805.207	508.8
805.601	524
806.016	550.9
806.432	515.2
806.826	549
807.242	532.3
807.658	523.8
808.052	520.7
808.468	519.3
808.884	512
809.279	521.8
809.695	530.5
810.111	536.2
810.506	520.8
810.922	539.7
811.339	511.2
811.734	529.3
812.151	513.6
812.546	512.1
812.963	511.4
813.38	524
813.776	521
814.193	538.4
814.589	517.8
815.006	520.7
815.402	519.7
815.82	519.9
816.237	515.3
816.633	523.9
817.051	514.8
817.448	522.1
817.866	510.3
818.262	533.8
818.68	518.7
819.077	511.9
819.495	519.8
819.892	551.6
820.311	510.7
820.708	516.6
821.127	515
821.524	528.8
821.943	517.5
822.34	536
822.759	525.5
823.157	514.6
823.576	530.7
823.974	526.8
824.393	527.6
824.791	516.2
825.189	513.2
825.609	520.4
826.007	523.3
826.427	512.4
826.826	519.9
827.246	526.5
827.644	504.9
828.043	523.5
828.463	521.1
828.862	528.2
829.261	524
829.682	515.8
830.081	527.7
830.502	512.8
830.901	526
831.301	516.6
831.722	511.4
832.121	520.1
832.521	515
832.943	519.6
833.342	519.9
833.742	516.1
834.164	517.7
834.564	508.2
834.965	525.6
835.386	511.1
835.787	516.7
836.188	522
836.588	517.2
837.01	521
837.411	508.7
837.812	522.4
838.213	518.2
838.636	516.7
839.037	574.7
839.438	521.9
839.84	521
840.263	531.2
840.664	521.1
841.066	513.2
841.468	519.8
841.891	518.5
842.293	530.7
842.695	519.8
843.098	526.4
843.5	521.4
843.902	524.9
844.326	528.5
844.729	520.3
845.131	526.5
845.534	520.2
845.937	526.7
846.34	536.1
846.764	512
847.167	516.7
847.571	508.2
