#lambda/nm	C1
208.295	480.4
208.67	442.1
209.045	400.4
209.419	407.2
209.794	556.7
210.169	538.3
210.544	642.1
210.919	552.7
211.295	540.3
211.67	546.1
212.045	547
212.421	546
212.796	575.8
213.172	544.9
213.547	547.2
213.923	544.9
214.299	544.3
214.675	557.7
215.051	552.2
215.427	554.6
215.803	564.4
216.179	556.5
216.555	545.5
216.932	554.2
217.308	548.1
217.684	546.5
218.061	553.5
218.438	551.6
218.814	544.4
219.191	557.4
219.568	539.1
219.945	548.9
220.322	554.1
220.699	559
221.076	552.1
221.453	555.4
221.83	541.5
222.208	548.5
222.585	546
222.962	551.4
223.34	552.5
223.717	548.3
224.095	551.1
224.473	556.2
224.851	540.5
225.229	539.7
225.607	562.6
225.985	545.3
226.363	554.6
226.741	549.6
227.119	548.1
227.497	563.3
227.876	538.8
228.254	554.8
228.633	550.1
229.011	553.2
229.39	552.4
229.769	553.8
230.148	556.6
230.527	567
230.905	559.8
231.284	550.1
231.664	545.3
232.043	560.1
232.422	557
232.801	545.6
233.181	555.9
233.56	549.2
233.94	549.8
234.319	542.4
234.699	546.7
235.079	582
235.458	582.4
235.838	562.1
236.218	546.9
236.598	546.3
236.978	549
237.358	553.1
237.738	548.3
238.119	555.5
238.499	537.1
238.88	555.4
239.26	568.6
239.641	547.7
240.021	547
240.402	551.4
240.783	550.8
241.163	557.4
241.544	556.7
241.925	554.5
242.306	567.9
242.687	548.7
243.069	558.5
243.45	563.2
243.831	550.4
244.212	547.8
244.594	581.3
244.975	558.1
245.357	557.5
245.739	548.2
246.12	556.2
246.502	560.9
246.884	554.5
247.266	548.1
247.648	551.5
248.03	570.8
248.412	552.2
248.794	555.4
249.176	545.3
249.559	562
249.941	550.2
250.323	541.7
250.706	546.5
251.089	556.1
251.471	555
251.854	554.4
252.237	552.3
252.62	558.6
253.002	552.4
253.385	552.6
253.769	560.3
254.152	554
254.535	556.1
254.918	545.7
255.301	550.8
255.685	542.4
256.068	546.2
256.452	568.7
256.835	551.5
257.219	557.4
257.603	560.6
257.986	541.7
258.37	553.3
258.754	535
259.138	557.7
259.522	559.5
259.906	548.8
260.29	554.1
260.675	550.2
261.059	547.9
261.443	543.1
261.828	558.6
262.212	552.1
262.597	537.1
262.981	541.8
263.366	551.4
263.751	550.7
264.136	548.9
264.521	548.4
264.906	545.5
265.291	563.7
265.676	547.7
266.061	556.4
266.446	564.4
266.831	547.8
267.217	562.5
267.602	558.3
267.987	550.5
268.373	547.8
268.759	556.2
269.144	556.9
269.53	550.1
269.916	545.6
270.302	546.5
270.688	547.1
271.074	548.2
271.46	559.4
271.846	572.1
272.232	545.4
272.618	541.1
273.004	544.3
273.391	553.6
273.777	558.3
274.164	551.7
274.55	559.9
274.937	550.4
275.324	545.3
275.71	558.5
276.097	555.5
276.484	548.1
276.871	556.7
277.258	551.2
277.645	539
278.032	550.4
278.419	548
278.807	551.3
279.194	541.1
279.581	543.9
279.969	554.6
280.356	549.8
280.744	551.4
281.131	569.3
281.519	557.7
281.907	551.1
282.295	544
282.682	560.9
283.07	550.4
283.458	560.2
283.846	555.5
284.235	553.7
284.623	557.7
285.011	543.3
285.399	547.4
285.788	548.8
286.176	544.9
286.565	556.4
286.953	543.2
287.342	546.5
287.731	544.7
288.119	539.5
288.508	549.9
288.897	551.2
289.286	541.7
289.675	550.9
290.064	552.3
290.453	549.8
290.821	543.4
291.21	566.4
291.599	551.7
291.989	553.7
292.378	553.9
292.768	564
293.157	551.7
293.547	563.6
293.936	550.1
294.326	544.9
294.716	556.8
295.106	550.4
295.496	552.3
295.886	555.4
296.276	550.8
296.666	541.9
297.056	544.4
297.446	541.3
297.836	568.3
298.227	547.8
298.617	551.9
299.008	557.9
299.398	548.1
299.789	544.4
300.179	552.1
300.57	564.4
300.961	546.9
301.352	541.8
301.742	558.5
302.133	550.8
302.524	549.6
302.915	549.1
303.307	538.4
303.698	559.8
304.089	557.6
304.48	550.8
304.872	551.5
305.263	544.4
305.655	547.8
306.046	552.6
306.438	553.3
306.829	546.3
307.221	563.3
307.613	554.9
308.005	561.1
308.397	560.1
308.789	574.6
309.181	567.6
309.573	564.6
309.965	560.8
310.357	551.5
310.749	555
311.142	543.8
311.534	538.5
311.926	558.9
312.319	551.4
312.711	547
313.104	563.6
313.497	548.8
313.889	588.7
314.282	558.9
314.675	571.7
315.068	553.1
315.461	561.2
315.854	581
316.247	559.5
316.64	548.8
317.033	555.6
317.405	556.5
317.798	554.6
318.192	552.7
318.585	550.9
318.979	556.3
319.372	546.3
319.766	554.6
320.16	562.8
320.553	562.3
320.947	564.3
321.341	551.8
321.735	541.9
322.129	537.5
322.523	570.7
322.917	546.1
323.311	561.3
323.705	552.4
324.099	560.5
324.494	557.3
324.888	557.9
325.282	549.4
325.677	552
326.071	557.8
326.466	559.9
326.861	552.8
327.255	560.9
327.65	564.6
328.045	564.8
328.44	552.6
328.835	551.8
329.23	547.2
329.625	572.8
330.02	546.7
330.415	565
330.81	547.4
331.206	545.6
331.601	546.3
331.996	549.7
332.37	557.5
332.766	542.2
333.161	562.8
333.557	543.7
333.953	549.7
334.348	914.9
334.744	552.8
335.14	548.4
335.536	543.7
335.932	563.2
336.328	550.1
336.724	554.6
337.12	550.9
337.516	554.9
337.913	553.4
338.309	566.2
338.705	548.5
339.102	566.1
339.498	546.9
339.895	561.5
340.291	553.4
340.688	564.3
341.085	547.1
341.481	549.9
341.878	547.6
342.275	564.7
342.672	541.2
343.069	551.2
343.466	539.1
343.842	554.9
344.239	546.3
344.636	546.6
345.033	542.2
345.431	545.2
345.828	553.4
346.225	547.9
346.623	559.4
347.02	550.1
347.418	557.6
347.816	561.7
348.213	542
348.611	556
349.009	546.1
349.407	561.1
349.805	543.9
350.203	537.1
350.601	558.9
350.999	549.8
351.397	544.9
351.795	547.2
352.193	559.2
352.57	556.8
352.969	561.3
353.367	548.5
353.766	544.2
354.164	549.1
354.563	553.1
354.961	545.7
355.36	545.4
355.759	550.9
356.158	547.4
356.557	546.8
356.956	547.9
357.355	540
357.754	551.9
358.153	552.2
358.552	573.4
358.951	551.3
359.35	560.6
359.75	541.2
360.149	539.8
360.527	536.2
360.926	547.1
361.326	549.2
361.726	554.8
362.125	543.8
362.525	554.3
362.925	548.2
363.325	544.9
363.724	550.6
364.124	547.8
364.524	545
364.924	550.7
365.324	563.2
365.725	550.8
366.125	572.2
366.525	576.1
366.904	583.4
367.304	589.8
367.705	633.6
368.105	647.1
368.506	654.5
368.906	678.3
369.307	693.7
369.708	697.9
370.108	694.7
370.509	703.4
370.91	674.1
371.311	669
371.712	653.3
372.113	630
372.514	598
372.894	589.4
373.295	573.1
373.696	575.5
374.097	563.2
374.499	580.8
374.9	551
375.301	544.2
375.703	553.6
376.105	536.2
376.506	552.8
376.908	559.6
377.309	548.3
377.711	550.3
378.113	543.4
378.493	554.6
378.895	541.6
379.297	560.3
379.699	541.2
380.102	554.4
380.504	555.6
380.906	550.4
381.308	566
381.71	549.7
382.113	557.1
382.515	555.3
382.918	556.3
383.299	551.2
383.701	562.4
384.104	555.4
384.507	540.2
384.909	551.1
385.312	552.5
385.715	548.1
386.118	556.8
386.521	549.7
386.924	566.4
387.327	550.9
387.709	545.4
388.112	541.8
388.515	553.6
388.918	552.9
389.322	560.6
389.725	551.2
390.129	572.8
390.532	555.5
390.936	552.9
391.339	549.4
391.743	553
392.125	547.7
392.529	560.7
392.933	561.6
393.337	551.1
393.74	553.1
394.144	553
394.548	547.9
394.953	550.9
395.357	555.9
395.761	547.9
396.144	554.2
396.548	550.1
396.952	551
397.357	549.9
397.761	546.5
398.166	549.1
398.57	548.1
398.975	548.6
399.379	553.7
399.763	597.6
400.168	554.5
400.572	553.4
400.977	552.2
401.382	572.1
401.787	565.8
402.192	575.7
402.597	576.4
403.002	550.4
403.386	572.7
403.791	580.6
404.197	559.6
404.602	587.3
405.007	607.5
405.413	651.2
405.818	710.4
406.224	798.4
406.608	915.6
407.014	1025.7
407.42	1175.3
407.825	1286
408.231	1429.4
408.637	1525.2
409.043	1610.6
409.449	1609.1
409.834	1571.7
410.24	1512.7
410.646	1446.9
411.052	1342.5
411.458	1208.9
411.865	1078
412.271	961.5
412.677	852.1
413.062	784.2
413.469	731.5
413.875	740.4
414.282	701.4
414.689	684.6
415.095	684.5
415.502	669.3
415.888	673
416.294	667.1
416.701	700
417.108	673.5
417.515	687.9
417.923	684
418.33	720.1
418.715	712.6
419.123	712.1
419.53	716.5
419.937	723.4
420.345	748.1
420.752	735.6
421.16	762.7
421.546	765
421.953	767.4
422.361	768.9
422.769	790.1
423.177	781.9
423.585	815.8
423.992	813
424.379	822.8
424.787	824.8
425.195	833.9
425.603	822.3
426.011	851.8
426.419	854.9
426.806	862.7
427.214	871.8
427.623	873.7
428.031	906.7
428.44	904.2
428.848	920.5
429.235	951.6
429.644	943.7
430.053	962.7
430.461	1006.9
430.87	1017.3
431.279	1029.5
431.666	1034.4
432.075	1066.5
432.484	1096.2
432.893	1110.5
433.302	1151.1
433.711	1194.3
434.099	1196.3
434.508	1224.5
434.918	1252.5
435.327	1322.4
435.737	1396.9
436.125	1569.6
436.534	1824.1
436.944	2150.2
437.353	2573.9
437.763	3086.9
438.173	3552.6
438.561	4095.6
438.971	4648.4
439.381	5208.7
439.791	5639.8
440.201	5803.9
440.589	5798.8
440.999	5669.9
441.409	5378.1
441.819	5037.4
442.23	4567.1
442.619	3977
443.029	3446.5
443.439	2949.6
443.85	2583.8
444.26	2376.3
444.649	2209.2
445.06	2137.6
445.471	2135.1
445.881	2141.5
446.292	2167.4
446.682	2168.1
447.092	2176.3
447.503	2239
447.914	2215.8
448.325	2224.1
448.715	2251.4
449.126	2247.6
449.537	2263.8
449.948	2283.2
450.338	2282.1
450.75	2312.7
451.161	2326.5
451.572	2341.2
451.984	2341.9
452.374	2349.8
452.786	2374.6
453.197	2370
453.609	2382.2
453.999	2383.2
454.411	2382.6
454.823	2399.5
455.235	2403.7
455.647	2405
456.037	2430.4
456.449	2417.4
456.862	2420
457.274	2427
457.665	2425
458.077	2441.9
458.489	2441.5
458.902	2424.8
459.293	2415.8
459.705	2424.1
460.118	2404.9
460.53	2402.2
460.921	2414.4
461.334	2413.9
461.747	2414.5
462.16	2388.2
462.551	2402.8
462.964	2400.4
463.377	2350.2
463.79	2378.9
464.182	2366.3
464.595	2338
465.008	2352.6
465.421	2339.7
465.813	2327.7
466.226	2323.7
466.64	2308.5
467.053	2348.5
467.445	2310.7
467.859	2306.4
468.272	2279.1
468.686	2301
469.078	2287.9
469.492	2252.9
469.906	2263.4
470.298	2253.8
470.712	2237.8
471.126	2266.9
471.54	2210.1
471.933	2208
472.347	2200
472.761	2197.7
473.175	2181.3
473.568	2147.4
473.982	2145
474.397	2134.2
474.79	2120.2
475.204	2123.9
475.619	2099.9
476.033	2101
476.426	2088.6
476.841	2065.1
477.256	2076.8
477.649	2031.7
478.064	2038.6
478.479	2012.5
478.872	2012
479.287	1995.2
479.702	1991.7
480.118	1991
480.511	1966
480.927	1956.3
481.342	1952.3
481.736	1975.3
482.151	1956.1
482.566	1992
482.96	1999.3
483.376	2025.9
483.792	2065.9
484.186	2126.3
484.602	2151
485.017	2236.2
485.412	2324.9
485.827	2431.3
486.243	2564
486.638	2747.4
487.054	2893.8
487.47	3080.6
487.865	3233.5
488.281	3451.8
488.697	3622.5
489.092	3807
489.508	3967.9
489.925	4087
490.32	4151.9
490.736	4190.1
491.153	4231.3
491.548	4231.2
491.964	4202.6
492.381	4129.5
492.776	4078.6
493.193	4060.5
493.61	4019.3
494.006	3976
494.422	3948
494.84	3869.5
495.235	3812.3
495.652	3756.1
496.069	3695.5
496.465	3577.3
496.883	3450.7
497.3	3367.5
497.696	3265.5
498.113	3163.3
498.509	3048.1
498.927	2966.9
499.344	2877.9
499.741	2832.1
500.158	2775.9
500.576	2703.5
500.973	2649.6
501.39	2579
501.787	2514.1
502.205	2461.9
502.623	2394.6
503.02	2322.6
503.438	2241.4
503.856	2166.6
504.253	2107
504.671	2027.9
505.068	1955.9
505.486	1879.3
505.905	1837.9
506.302	1752.7
506.72	1707.2
507.118	1629.7
507.536	1569
507.955	1514.1
508.352	1474.4
508.771	1443
509.169	1396.6
509.587	1364.8
510.006	1336.4
510.404	1316.9
510.823	1293.3
511.221	1275.5
511.64	1259.6
512.038	1257.2
512.457	1230.9
512.877	1220
513.275	1197.6
513.694	1191.1
514.092	1188.9
514.512	1191.1
514.91	1168.8
515.33	1161.2
515.749	1158.1
516.148	1149.9
516.568	1136
516.966	1128.6
517.386	1118
517.785	1107.8
518.205	1091.8
518.603	1084.9
519.024	1079.2
519.444	1070.3
519.843	1075.1
520.263	1061.9
520.662	1059.8
521.082	1046.4
521.481	1039.8
521.902	1027.2
522.301	1028.6
522.722	1026.5
523.121	1015.4
523.542	1000.8
523.963	994.2
524.362	988.4
524.783	988.8
525.183	986.4
525.604	975.2
526.003	975.1
526.425	962.4
526.824	976.1
527.246	970.9
527.646	964.5
528.067	962
528.467	957.6
528.888	940.4
529.289	939.7
529.71	944.5
530.11	935
530.532	938.5
530.932	934.6
531.354	921.9
531.755	963.9
532.176	943.5
532.577	936.4
532.999	950.2
533.4	980.8
533.822	997.5
534.223	1006.1
534.645	1033.4
535.046	1060.5
535.468	1111
535.869	1173.2
536.292	1231.2
536.693	1288.6
537.115	1392.6
537.516	1496.6
537.939	1658.7
538.34	1861.8
538.742	2071.8
539.165	2305.3
539.566	2579.5
539.989	2884.1
540.391	3303.4
540.814	3840.1
541.216	4434.4
541.639	5084.6
542.041	5732.4
542.464	6402.7
542.866	7126.7
543.268	7962.9
543.691	8749.3
544.093	9409.7
544.517	10006.1
544.919	10481.1
545.343	11045.7
545.745	11571.5
546.147	12078.6
546.571	12474.5
546.974	12772.3
547.398	13087.9
547.8	13520
548.224	13871.6
548.627	14080.2
549.03	14144.7
549.454	13936.4
549.857	13627.6
550.281	13206.6
550.684	12641.1
551.087	11856.6
551.512	10932.6
551.915	9997.9
552.34	9031.9
552.743	8159
553.146	7296
553.571	6506.6
553.975	5800.7
554.399	5181.9
554.803	4644.7
555.207	4135.4
555.632	3742.9
556.036	3412.9
556.461	3116.4
556.865	2864.2
557.268	2621.2
557.694	2414.2
558.098	2225.6
558.502	2044
558.927	1869.1
559.332	1720.2
559.736	1592
560.162	1463.9
560.566	1355.9
560.992	1259.7
561.396	1187.4
561.801	1138.6
562.227	1083.2
562.631	1049.3
563.036	1021.2
563.462	999.2
563.867	985.1
564.272	944.5
564.698	949.6
565.103	925.5
565.508	945.7
565.935	919.8
566.34	901.9
566.745	897.1
567.172	881.6
567.577	893.6
567.982	877.5
568.409	867.5
568.815	849.6
569.22	857.1
569.626	850
570.053	835.5
570.459	836.4
570.865	833.1
571.292	828.9
571.698	824.3
572.104	808.2
572.531	803.8
572.937	811.4
573.343	801.4
573.75	793
574.177	800.3
574.583	800.3
574.99	824.3
575.396	868
575.824	912.5
576.231	998.1
576.637	1064.6
577.065	1191.2
577.472	1284.3
577.879	1453.9
578.286	1640.6
578.714	1807
579.121	1975.6
579.528	2149.1
579.935	2315.7
580.364	2476.2
580.771	2633.8
581.178	2789
581.585	2895.3
582.014	2994.5
582.421	3065.8
582.829	3147.3
583.236	3233.6
583.644	3272.7
584.073	3311.2
584.481	3368.2
584.889	3431.3
585.296	3524.7
585.726	3647.6
586.134	3770
586.542	3904.3
586.95	4055.6
587.358	4159.1
587.787	4296.5
588.196	4422
588.604	4518.5
589.012	4574.4
589.421	4577.6
589.851	4534.6
590.259	4469.1
590.668	4377.3
591.076	4357.1
591.485	4224.6
591.894	4146.7
592.324	4085.7
592.733	3978.3
593.142	3886.3
593.551	3811.7
593.96	3747.7
594.369	3646.6
594.8	3534.1
595.209	3408.2
595.618	3236.1
596.028	3093.2
596.437	2932.8
596.847	2770
597.256	2637
597.687	2512.6
598.097	2408.7
598.507	2299.5
598.917	2258.1
599.327	2224.3
599.736	2195.1
600.146	2165.8
600.556	2142
600.988	2110
601.398	2056.2
601.808	2007.3
602.219	1926.9
602.629	1872.9
603.039	1795.3
603.45	1745.5
603.86	1646.9
604.271	1603.3
604.703	1552.1
605.114	1512
605.525	1507.3
605.935	1543.3
606.346	1582.5
606.757	1652.9
607.168	1772.4
607.579	1963.1
607.99	2356.1
608.402	2949.4
608.813	3895
609.224	5042.2
609.636	6399.7
610.047	7721.9
610.48	9194.6
610.892	10722.7
611.303	12274.3
611.715	13785.2
612.127	14945.6
612.539	15639.8
612.95	15757.2
613.362	15629.7
613.774	15207.8
614.186	14561.4
614.599	13624.6
615.011	12527.1
615.423	11320.8
615.835	10137.4
616.248	9001.8
616.66	8025.2
617.073	7099.9
617.485	6299.8
617.898	5608
618.311	5021
618.723	4534.8
619.136	4171
619.549	3880.5
619.962	3641.2
620.375	3439.8
620.788	3308.2
621.201	3227.6
621.614	3153.6
622.028	3086.4
622.441	3063.3
622.854	3067.2
623.268	3040.1
623.681	3071.8
624.095	3084.4
624.509	3096.2
624.922	3089.3
625.336	3081.4
625.728	3107.9
626.142	3086.5
626.556	3108.2
626.97	3104.6
627.384	3105.3
627.799	3124.3
628.213	3226
628.627	3244.9
629.041	3328.4
629.456	3368.3
629.87	3409.2
630.285	3417
630.699	3446.2
631.093	3393
631.507	3308.3
631.922	3157.8
632.337	2998.2
632.752	2774.2
633.167	2568.5
633.582	2344.4
633.997	2110.4
634.412	1906.6
634.806	1740.5
635.221	1566.3
635.637	1442.6
636.052	1311.6
636.468	1238
636.883	1173.8
637.299	1110.7
637.715	1062.3
638.109	1035.7
638.525	1005.9
638.941	1022.4
639.357	1000
639.773	1006.7
640.189	995.9
640.584	988.8
641	997
641.416	991.8
641.832	1005.9
642.249	1005.3
642.665	1001.4
643.06	1013.9
643.477	1010
643.894	992.8
644.31	993.6
644.727	978.8
645.123	970.7
645.54	959.8
645.957	964.7
646.374	976.4
646.77	985.8
647.187	1041.3
647.604	1033.5
648.021	1056.2
648.439	1078.7
648.835	1128.5
649.252	1170.6
649.67	1204.7
650.088	1230.1
650.484	1241
650.902	1232.4
651.32	1225.9
651.738	1190.4
652.134	1182.7
652.552	1150.3
652.971	1120.4
653.389	1065.6
653.786	1049
654.204	1003.7
654.622	968.5
655.019	952.2
655.438	931.3
655.857	914
656.275	909.5
656.673	885.1
657.091	952.3
657.51	892
657.908	903.5
658.327	932.9
658.746	924.7
659.144	959.4
659.563	990.9
659.982	1000.3
660.38	1028.6
660.8	1057
661.219	1075.1
661.617	1088.1
662.037	1089.1
662.457	1093.8
662.855	1062.4
663.275	1093
663.695	1048.1
664.094	1027.4
664.514	1012.6
664.934	965.3
665.333	958.1
665.753	917.2
666.152	902.1
666.572	867.3
666.993	871.9
667.392	839
667.812	827.1
668.212	811.8
668.632	810
669.053	803.3
669.453	804.8
669.874	786.5
670.273	791.2
670.694	783.9
671.116	789.1
671.515	793
671.937	773.9
672.337	774.3
672.758	767.8
673.158	772.4
673.58	756.2
673.98	766.9
674.402	767.2
674.824	750
675.224	753.1
675.646	742.5
676.047	753.3
676.469	752.7
676.869	756.1
677.292	766.5
677.693	756.9
678.115	760.7
678.516	771.6
678.939	779.1
679.34	774.9
679.762	779.9
680.164	779.3
680.586	759.1
680.988	774.2
681.411	800.4
681.812	790.3
682.236	803.9
682.637	826.7
683.061	854.5
683.462	896.8
683.864	924.7
684.288	956.2
684.69	970.7
685.114	998.3
685.516	1013.1
685.94	992.4
686.342	1003.9
686.766	979.8
687.168	953.4
687.571	951.2
687.995	922.9
688.398	906
688.822	897.8
689.225	900.8
689.628	886.3
690.052	865.3
690.456	864.8
690.88	861.1
691.284	839.1
691.687	828.6
692.112	798.7
692.515	785.3
692.919	774.1
693.344	753.2
693.747	719.6
694.173	704.1
694.577	699.5
694.98	673.7
695.406	655.4
695.81	653.3
696.214	644.5
696.64	641.5
697.044	638.9
697.448	644.6
697.874	646.3
698.279	656.5
698.684	669.6
699.11	693.9
699.514	731.4
699.919	780.8
700.324	846.8
700.75	941.7
701.156	1019.3
701.561	1129.2
701.987	1232
702.393	1379
702.798	1511.5
703.203	1621
703.63	1723.3
704.036	1802
704.442	1862.8
704.847	1923.3
705.274	1988.7
705.68	2014.7
706.086	2028.9
706.492	1980.7
706.92	1957.4
707.326	1929.2
707.732	1887.7
708.139	1842.1
708.545	1761.8
708.973	1681
709.38	1606.7
709.786	1477.4
710.193	1401.3
710.6	1293.7
711.028	1186.6
711.435	1086.2
711.842	995.5
712.249	913.1
712.656	854.2
713.064	808.1
713.492	745
713.9	702.3
714.307	681.8
714.715	653.4
715.123	641.8
715.53	624.5
715.938	613.7
716.367	602.8
716.775	597.6
717.184	586.7
717.592	587
718	596.7
718.408	612.7
718.816	616.7
719.225	585.3
719.633	577.6
720.042	566.7
720.472	581.4
720.881	600.2
721.29	583
721.699	568.6
722.108	580.7
722.517	573.3
722.926	574.7
723.335	582.1
723.744	572
724.154	574.5
724.563	575.2
724.973	575.8
725.382	568.7
725.792	564.2
726.202	563.1
726.612	573.6
727.022	560.3
727.432	561.1
779.813	556.8
780.223	593.6
780.634	552.5
781.044	552
781.454	559.5
781.865	562.8
782.276	550.4
782.686	565.6
783.097	549
783.508	544.3
783.919	556
784.33	565.4
784.741	565
785.152	551.8
785.563	549
785.974	558.6
786.386	571.8
786.776	565.2
787.188	566.6
787.599	563.2
788.011	583.1
788.423	576.7
788.835	572.2
789.247	568
789.659	567.3
790.071	574.4
790.483	610.7
790.874	573.1
791.286	573.3
791.699	566
792.111	562.9
792.524	567.3
792.937	562.1
793.349	550.6
793.741	554
794.154	553.2
794.567	574.2
794.98	555.5
795.393	543.8
795.785	562.7
796.198	542.9
796.612	552.6
797.026	553
797.439	538
797.831	548.9
798.245	541
798.659	547
799.073	542.1
799.487	541.5
799.88	540.3
800.294	538.9
800.708	540.4
801.123	548.2
801.516	561.4
801.93	542.4
802.345	536.5
802.76	566
803.153	576.7
803.568	590.4
803.983	596.7
804.377	600.4
804.792	592.9
805.207	597.6
805.601	615.3
806.016	639.3
806.432	608.4
806.826	632
807.242	615
807.658	606.4
808.052	593.1
808.468	585.7
808.884	577.1
809.279	571.4
809.695	579.3
810.111	580.9
810.506	559
810.922	565.3
811.339	550.6
811.734	553.2
812.151	542.5
812.546	540.2
812.963	540.8
813.38	550.4
813.776	548.1
814.193	565.4
814.589	543.2
815.006	546.6
815.402	536.8
815.82	541.3
816.237	543.9
816.633	546.9
817.051	541.2
817.448	540.1
817.866	539.7
818.262	559.7
818.68	539.2
819.077	529.3
819.495	537.2
819.892	569
820.311	530.7
820.708	530.4
821.127	521.7
821.524	539.2
821.943	532.3
822.34	546.9
822.759	523
823.157	524.9
823.576	532.9
823.974	528.1
824.393	528.1
824.791	520.4
825.189	523.5
825.609	519
826.007	526.2
826.427	515.1
826.826	524.3
827.246	536
827.644	519.2
828.043	535.3
828.463	528.8
828.862	539.6
829.261	537
829.682	526.9
830.081	530.3
830.502	520.8
830.901	530.4
831.301	521.6
