#lambda/nm	C1
208.295	472.7
208.67	440.7
209.045	401.5
209.419	406.1
209.794	551.6
210.169	536.4
210.544	637.8
210.919	560.5
211.295	540.6
211.67	553.2
212.045	546.3
212.421	550.5
212.796	576.8
213.172	550.8
213.547	543.1
213.923	549.3
214.299	544.3
214.675	561.7
215.051	556.2
215.427	556.6
215.803	567.3
216.179	562.2
216.555	550.6
216.932	556.8
217.308	552
217.684	554.6
218.061	559.2
218.438	556.2
218.814	547.2
219.191	557.1
219.568	546.9
219.945	551.3
220.322	558.8
220.699	554.9
221.076	555.8
221.453	556.5
221.83	545.4
222.208	546.4
222.585	545.5
222.962	554.8
223.34	558.2
223.717	552.5
224.095	547.9
224.473	557
224.851	551.2
225.229	545
225.607	568.4
225.985	546
226.363	550.6
226.741	554.6
227.119	556.8
227.497	561.8
227.876	546
228.254	562.4
228.633	559.6
229.011	559.4
229.39	561.9
229.769	559.5
230.148	559.6
230.527	573.3
230.905	552.5
231.284	558.2
231.664	545.6
232.043	567.8
232.422	563.1
232.801	554.9
233.181	558.7
233.56	560.9
233.94	561.4
234.319	551.5
234.699	555.5
235.079	592.2
235.458	586.3
235.838	570.4
236.218	550.7
236.598	550.5
236.978	558.5
237.358	556.2
237.738	549.8
238.119	563.7
238.499	551.9
238.88	562.1
239.26	576.6
239.641	552.1
240.021	561.7
240.402	563.2
240.783	564.6
241.163	561.3
241.544	566.7
241.925	562.2
242.306	575.1
242.687	553.9
243.069	563.8
243.45	566.3
243.831	555.6
244.212	556.9
244.594	591.1
244.975	567.9
245.357	560.3
245.739	545.9
246.12	557.1
246.502	571.6
246.884	550.4
247.266	556.5
247.648	559.3
248.03	577.2
248.412	559.5
248.794	559.9
249.176	556.1
249.559	565.8
249.941	551.4
250.323	546.2
250.706	545.4
251.089	556.6
251.471	559.5
251.854	551.4
252.237	557.6
252.62	569.6
253.002	554.4
253.385	557.6
253.769	569.1
254.152	555.4
254.535	561.2
254.918	545.1
255.301	553.4
255.685	553.2
256.068	544.2
256.452	576.9
256.835	561.1
257.219	565.9
257.603	562.6
257.986	545.2
258.37	557
258.754	547.7
259.138	562.1
259.522	565.1
259.906	552.8
260.29	555.8
260.675	550.6
261.059	557.7
261.443	552.7
261.828	561.8
262.212	560.6
262.597	543.4
262.981	550.4
263.366	556.6
263.751	547.6
264.136	550
264.521	549.5
264.906	553.8
265.291	561.6
265.676	554.7
266.061	558.3
266.446	571.2
266.831	554.9
267.217	569.8
267.602	557.3
267.987	556.3
268.373	549.2
268.759	566.2
269.144	560.2
269.53	551.8
269.916	550.4
270.302	547
270.688	563.1
271.074	557.1
271.46	566.1
271.846	583
272.232	553.3
272.618	551.2
273.004	548.8
273.391	563.2
273.777	564.5
274.164	558.1
274.55	565
274.937	555.5
275.324	552.3
275.71	559.2
276.097	563.2
276.484	548.9
276.871	557.5
277.258	556
277.645	545
278.032	552.8
278.419	550.8
278.807	554.3
279.194	550.7
279.581	548.7
279.969	561.1
280.356	554.6
280.744	555.8
281.131	578.3
281.519	563.8
281.907	550.2
282.295	548.6
282.682	566.1
283.07	559.3
283.458	563.4
283.846	568.4
284.235	564.7
284.623	560.8
285.011	544.9
285.399	555.3
285.788	550.2
286.176	549.1
286.565	566.2
286.953	554.2
287.342	553
287.731	554.5
288.119	550.5
288.508	552.8
288.897	558.7
289.286	543.3
289.675	555.9
290.064	566.7
290.453	551.1
290.821	555.9
291.21	566.8
291.599	551.8
291.989	552.4
292.378	565.9
292.768	567.5
293.157	556.8
293.547	568
293.936	552.8
294.326	546.8
294.716	554.9
295.106	553.6
295.496	564.3
295.886	563.1
296.276	555.9
296.666	551.9
297.056	549
297.446	549.4
297.836	565.7
298.227	558
298.617	557.6
299.008	562.1
299.398	551
299.789	553.3
300.179	557.7
300.57	568.3
300.961	552.1
301.352	551.7
301.742	560.5
302.133	556.6
302.524	557.4
302.915	561.9
303.307	548.1
303.698	563.9
304.089	558.9
304.48	556.3
304.872	561.9
305.263	562.3
305.655	551.7
306.046	564.8
306.438	565.3
306.829	559.8
307.221	568.7
307.613	562.6
308.005	564.9
308.397	571
308.789	574.9
309.181	576
309.573	568.4
309.965	563.2
310.357	556.5
310.749	560.2
311.142	552.4
311.534	552.4
311.926	567.6
312.319	560.9
312.711	551.5
313.104	574.6
313.497	559.6
313.889	599.9
314.282	580.9
314.675	605.4
315.068	614.7
315.461	649
315.854	685
316.247	666.1
316.64	661.8
317.033	663.5
317.405	671.8
317.798	669.3
318.192	665.9
318.585	651.2
318.979	630.7
319.372	592.4
319.766	577.4
320.16	582.1
320.553	587.6
320.947	592.7
321.341	566.2
321.735	568.6
322.129	557.9
322.523	587.6
322.917	561.3
323.311	569.1
323.705	566.8
324.099	571.5
324.494	578.3
324.888	572.6
325.282	561.3
325.677	569.5
326.071	574.4
326.466	576.3
326.861	568.3
327.255	576.2
327.65	572.6
328.045	581.5
328.44	572.3
328.835	572.4
329.23	562.1
329.625	591.4
330.02	565.9
330.415	591.1
330.81	576.2
331.206	575.5
331.601	570.1
331.996	577.3
332.37	580.1
332.766	565.8
333.161	592
333.557	563.4
333.953	568.7
334.348	951
334.744	576.4
335.14	571.2
335.536	572.7
335.932	593
336.328	596.1
336.724	611.4
337.12	610.6
337.516	614
337.913	611.3
338.309	625.4
338.705	613
339.102	612.1
339.498	602.7
339.895	610.1
340.291	583
340.688	588.6
341.085	569.3
341.481	566.8
341.878	574.6
342.275	588.7
342.672	565.6
343.069	561.1
343.466	558.2
343.842	582.2
344.239	561.3
344.636	570.7
345.033	560
345.431	566.5
345.828	563.7
346.225	564.2
346.623	577.1
347.02	567.2
347.418	575.5
347.816	581.8
348.213	559.6
348.611	570.5
349.009	567.1
349.407	580.4
349.805	565.2
350.203	561.6
350.601	576.3
350.999	565.8
351.397	562.8
351.795	572.4
352.193	581.4
352.57	577.5
352.969	582.5
353.367	559.2
353.766	558
354.164	567.5
354.563	570.6
354.961	566.5
355.36	567.4
355.759	571.3
356.158	565.9
356.557	567.4
356.956	558
357.355	556.9
357.754	571.6
358.153	576.7
358.552	586.4
358.951	569.8
359.35	578
359.75	566.6
360.149	562.8
360.527	554.6
360.926	559.6
361.326	569.5
361.726	572.1
362.125	564.5
362.525	575.2
362.925	566.8
363.325	571.5
363.724	571.3
364.124	563.8
364.524	568
364.924	573.6
365.324	587.3
365.725	571.3
366.125	607.6
366.525	678.8
366.904	916.3
367.304	1261.2
367.705	1542
368.105	1693.1
368.506	1812
368.906	1887.4
369.307	1920.7
369.708	1946
370.108	1954.6
370.509	1883.5
370.91	1599.4
371.311	1314.2
371.712	1081
372.113	898.3
372.514	770.5
372.894	707.5
373.295	663.7
373.696	643.5
374.097	625
374.499	631.4
374.9	592.9
375.301	582.1
375.703	586
376.105	573.1
376.506	579.8
376.908	580.6
377.309	579.9
377.711	579.3
378.113	576.5
378.493	575.3
378.895	575.1
379.297	581.5
379.699	566.9
380.102	579.9
380.504	579.2
380.906	573
381.308	603
381.71	595.8
382.113	599.6
382.515	594.2
382.918	601.7
383.299	604.8
383.701	607.6
384.104	606.1
384.507	589.7
384.909	601.4
385.312	592.2
385.715	593.6
386.118	595.3
386.521	589.5
386.924	603
387.327	590.1
387.709	583.2
388.112	574.7
388.515	587.3
388.918	586.1
389.322	588
389.725	579.6
390.129	595.9
390.532	585.6
390.936	578.9
391.339	572.1
391.743	581.5
392.125	568.5
392.529	582
392.933	592.3
393.337	578.9
393.74	573.1
394.144	579.9
394.548	573.9
394.953	571.9
395.357	586.7
395.761	574.5
396.144	581.1
396.548	571.1
396.952	572.9
397.357	576.5
397.761	569
398.166	574.1
398.57	576
398.975	571.5
399.379	579.3
399.763	618.2
400.168	579.4
400.572	576.8
400.977	582.7
401.382	600.8
401.787	597.6
402.192	603.7
402.597	599.7
403.002	583.7
403.386	605.1
403.791	626.4
404.197	605.6
404.602	625.5
405.007	657.4
405.413	734
405.818	921.1
406.224	1399.4
406.608	2130.2
407.014	2724.8
407.42	3167.1
407.825	3441.3
408.231	3678.2
408.637	3816.1
409.043	3887
409.449	3895.4
409.834	3746.2
410.24	3238.7
410.646	2637.3
411.052	2136.2
411.458	1789.3
411.865	1551.3
412.271	1375.6
412.677	1236
413.062	1141.6
413.469	1036.7
413.875	999.8
414.282	939
414.689	921.3
415.095	911.7
415.502	918.5
415.888	924.4
416.294	918.6
416.701	974.7
417.108	950.5
417.515	982.9
417.923	1002.4
418.33	1033.9
418.715	1047.1
419.123	1063.3
419.53	1085.6
419.937	1108.5
420.345	1148.1
420.752	1146.4
421.16	1178.8
421.546	1194.4
421.953	1207
422.361	1210.9
422.769	1231.7
423.177	1242.9
423.585	1292.1
423.992	1303.4
424.379	1323.6
424.787	1346.6
425.195	1382.2
425.603	1385.5
426.011	1429.7
426.419	1443.4
426.806	1468.1
427.214	1498.7
427.623	1531.7
428.031	1571
428.44	1607.5
428.848	1646.8
429.235	1675.5
429.644	1696.9
430.053	1736.1
430.461	1795.9
430.87	1832.4
431.279	1855.8
431.666	1889.3
432.075	1913.3
432.484	1963.2
432.893	1991.6
433.302	2056.6
433.711	2097.9
434.099	2116.6
434.508	2147.3
434.918	2184.8
435.327	2278
435.737	2366.9
436.125	2598.2
436.534	3114.3
436.944	4406.1
437.353	6879.8
437.763	9680
438.173	11722.6
438.561	13086.3
438.971	14111.7
439.381	14836.8
439.791	15248.2
440.201	15361
440.589	14909.7
440.999	13344.2
441.409	10768
441.819	8493.6
442.23	6869.8
442.619	5664.7
443.029	4768.4
443.439	4124.8
443.85	3702.3
444.26	3420.9
444.649	3207.6
445.06	3072.5
445.471	3008
445.881	3019.1
446.292	3024.1
446.682	3047.9
447.092	3014.8
447.503	3081.2
447.914	3056.2
448.325	3087.3
448.715	3094.5
449.126	3107.1
449.537	3108.6
449.948	3118.6
450.338	3149.1
450.75	3158.4
451.161	3157.5
451.572	3191.4
451.984	3175.6
452.374	3184.6
452.786	3187.6
453.197	3221
453.609	3216.5
453.999	3194.8
454.411	3206.5
454.823	3222.6
455.235	3224.2
455.647	3228.8
456.037	3239.5
456.449	3241
456.862	3249.2
457.274	3240.5
457.665	3222.8
458.077	3239.5
458.489	3227.5
458.902	3222.8
459.293	3220.4
459.705	3200.5
460.118	3199.2
460.53	3197.7
460.921	3194.4
461.334	3183.1
461.747	3171.3
462.16	3167.4
462.551	3155.2
462.964	3136.6
463.377	3097.1
463.79	3103.8
464.182	3088.4
464.595	3052.6
465.008	3062
465.421	3046.8
465.813	3033.6
466.226	3011.4
466.64	3015.7
467.053	3038.5
467.445	2981.9
467.859	2965.6
468.272	2967.3
468.686	2962.7
469.078	2933.8
469.492	2914.4
469.906	2897.7
470.298	2889.5
470.712	2860.4
471.126	2882
471.54	2802.2
471.933	2805.2
472.347	2768.6
472.761	2729.4
473.175	2709.4
473.568	2693.3
473.982	2670.6
474.397	2659
474.79	2635.2
475.204	2621.4
475.619	2581
476.033	2576.3
476.426	2559.6
476.841	2534
477.256	2542.5
477.649	2490.4
478.064	2472.2
478.479	2453.8
478.872	2408.7
479.287	2411.8
479.702	2396
480.118	2384.7
480.511	2376.6
480.927	2368.4
481.342	2365.1
481.736	2384.7
482.151	2416.4
482.566	2491.2
482.96	2581.5
483.376	2750.4
483.792	2900.8
484.186	3119.8
484.602	3364.7
485.017	3659.6
485.412	3963.2
485.827	4299.3
486.243	4729.9
486.638	5342.3
487.054	6113.5
487.47	6890.8
487.865	7555.1
488.281	8083.7
488.697	8575
489.092	9011.8
489.508	9356.1
489.925	9614.9
490.32	9615.8
490.736	9444.9
491.153	9282.7
491.548	9211.2
491.964	9126.1
492.381	9019.5
492.776	8914.6
493.193	8856.1
493.61	8833.2
494.006	8793
494.422	8712
494.84	8533
495.235	8215.1
495.652	7904.5
496.069	7602.3
496.465	7285.4
496.883	6955
497.3	6666.2
497.696	6361
498.113	6115.9
498.509	5892.2
498.927	5722
499.344	5549.1
499.741	5391.9
500.158	5290.8
500.576	5146.1
500.973	4998.3
501.39	4796.3
501.787	4592.2
502.205	4373.4
502.623	4149.6
503.02	3945.3
503.438	3739
503.856	3522.6
504.253	3330.2
504.671	3140.3
505.068	2917.9
505.486	2743.2
505.905	2589.2
506.302	2401.2
506.72	2230.1
507.118	2069.7
507.536	1960.9
507.955	1835.6
508.352	1741.8
508.771	1662
509.169	1600.8
509.587	1518.4
510.006	1482.7
510.404	1436.7
510.823	1392
511.221	1376.6
511.64	1357.6
512.038	1334.9
512.457	1319.3
512.877	1286.3
513.275	1278.2
513.694	1248.4
514.092	1235.4
514.512	1215.5
514.91	1196.7
515.33	1185.2
515.749	1180.7
516.148	1152.8
516.568	1138.2
516.966	1125.3
517.386	1113.9
517.785	1099.9
518.205	1082
518.603	1073.5
519.024	1063.2
519.444	1059.4
519.843	1055.8
520.263	1045.1
520.662	1023.6
521.082	1020.7
521.481	1016.2
521.902	1001.3
522.301	997.1
522.722	997.5
523.121	985
523.542	985.3
523.963	972.4
524.362	970.5
524.783	965
525.183	957.9
525.604	955.5
526.003	935.9
526.425	935
526.824	944.3
527.246	943.2
527.646	953.9
528.067	945.4
528.467	938.3
528.888	959.9
529.289	951.8
529.71	959.8
530.11	955.2
530.532	955.8
530.932	964.2
531.354	972.4
531.755	1008.4
532.176	1004.6
532.577	1024.4
532.999	1081.1
533.4	1162.7
533.822	1282.6
534.223	1380.6
534.645	1481.8
535.046	1574.9
535.468	1709.7
535.869	1887.6
536.292	2109.8
536.693	2412.2
537.115	2762.9
537.516	3169
537.939	3713
538.34	4467.7
538.742	5414.1
539.165	6460.6
539.566	7461
539.989	8372.2
540.391	9417
540.814	10990.5
541.216	13433.2
541.639	16397.8
542.041	19300.9
542.464	21740.4
542.866	23822.9
543.268	25915
543.691	27953.2
544.093	29662.8
544.517	30885
544.919	31328.1
545.343	31619.9
545.745	32812.2
546.147	34848.7
546.571	36728.7
546.974	38215.6
547.398	39222.6
547.8	40359.9
548.224	41110.2
548.627	41396.3
549.03	40945.8
549.454	39211.4
549.857	36372.4
550.281	33385.7
550.684	30531.3
551.087	27722.8
551.512	24904.8
551.915	22224.4
552.34	19643.6
552.743	17360.1
553.146	15256.2
553.571	13426.4
553.975	11933.8
554.399	10685.6
554.803	9654.1
555.207	8675.6
555.632	7850
556.036	7126
556.461	6494.1
556.865	5892.9
557.268	5283.1
557.694	4698.3
558.098	4114.4
558.502	3629.4
558.927	3171.4
559.332	2827.8
559.736	2527.4
560.162	2295
560.566	2097.8
560.992	1957.4
561.396	1843.2
561.801	1730
562.227	1637.3
562.631	1587.6
563.036	1545
563.462	1500.6
563.867	1464.2
564.272	1422.7
564.698	1402.4
565.103	1363.5
565.508	1351
565.935	1318.7
566.34	1278.6
566.745	1265.4
567.172	1243.1
567.577	1230.9
567.982	1225.4
568.409	1209.4
568.815	1186
569.22	1190.1
569.626	1184.5
570.053	1152.4
570.459	1161
570.865	1138.9
571.292	1135.3
571.698	1116
572.104	1086.9
572.531	1076.9
572.937	1083.1
573.343	1062.1
573.75	1065.5
574.177	1078
574.583	1106.2
574.99	1141.7
575.396	1276.2
575.824	1597.3
576.231	2041.3
576.637	2494.7
577.065	2903.2
577.472	3288.1
577.879	3832.7
578.286	4480.3
578.714	5193.8
579.121	5823.7
579.528	6325.5
579.935	6663.7
580.364	6981.5
580.771	7376.8
581.178	7819.4
581.585	8049.5
582.014	8186.4
582.421	8299.7
582.829	8409.5
583.236	8503.7
583.644	8634
584.073	8747.8
584.481	8967.9
584.889	9185.4
585.296	9547.7
585.726	10072.5
586.134	10692.3
586.542	11360.3
586.95	12008.9
587.358	12391.4
587.787	12661.1
588.196	12861
588.604	12893
589.012	12800.5
589.421	12554.4
589.851	12075.1
590.259	11564.5
590.668	11071.2
591.076	10781.6
591.485	10626.4
591.894	10625
592.324	10649
592.733	10591.6
593.142	10415.8
593.551	10141.9
593.96	9845.4
594.369	9413
594.8	8968.5
595.209	8364.8
595.618	7673.5
596.028	7017.3
596.437	6442.4
596.847	6001.5
597.256	5690.9
597.687	5528.2
598.097	5496.6
598.507	5477.8
598.917	5545.2
599.327	5577.6
599.736	5558.9
600.146	5527
600.556	5433.8
600.988	5256
601.398	4996.9
601.808	4643.8
602.219	4307.6
602.629	4008.4
603.039	3731.9
603.45	3548.6
603.86	3368.3
604.271	3341
604.703	3284.1
605.114	3335.9
605.525	3438.6
605.935	3600.2
606.346	3866.5
606.757	4223.8
607.168	4746.9
607.579	5537.3
607.99	6916.2
608.402	9207.9
608.813	13290.7
609.224	19268.9
609.636	26462.8
610.047	33710.1
610.48	40073.9
610.892	45114.5
611.303	49248.7
611.715	52318.6
612.127	53966.2
612.539	53590.7
612.95	50945.8
613.362	46391.9
613.774	41474.5
614.186	36963.2
614.599	32879
615.011	29196.9
615.423	25876.2
615.835	22907.6
616.248	20213.8
616.66	17860.2
617.073	15787.6
617.485	14039
617.898	12720
618.311	11661.5
618.723	10865.2
619.136	10298.4
619.549	9826.8
619.962	9501.6
620.375	9197.4
620.788	9008.1
621.201	8850.1
621.614	8807.6
622.028	8757.5
622.441	8742.7
622.854	8783
623.268	8785.7
623.681	8915.6
624.095	8952.1
624.509	9016.3
624.922	9021.7
625.336	9028.2
625.728	8976.3
626.142	8897.1
626.556	8753.6
626.97	8721.9
627.384	8775
627.799	8964.6
628.213	9324.5
628.627	9811.2
629.041	10306.6
629.456	10606.8
629.87	10721.7
630.285	10672.1
630.699	10400.7
631.093	9937.9
631.507	9229.8
631.922	8276.1
632.337	7197.1
632.752	6143.7
633.167	5264.2
633.582	4550.5
633.997	3974.6
634.412	3536.3
634.806	3173.9
635.221	2900
635.637	2698.7
636.052	2498.5
636.468	2370.5
636.883	2264.4
637.299	2190.7
637.715	2119.9
638.109	2088.9
638.525	2062.4
638.941	2082.6
639.357	2086.9
639.773	2103.4
640.189	2112.4
640.584	2135.8
641	2164.1
641.416	2169.3
641.832	2177.9
642.249	2177.1
642.665	2161.9
643.06	2153.2
643.477	2144.3
643.894	2089
644.31	2045.3
644.727	2022.5
645.123	1966.5
645.54	1930.8
645.957	1939.8
646.374	1987.9
646.77	2112.3
647.187	2314
647.604	2506.7
648.021	2687.5
648.439	2856.1
648.835	3000.8
649.252	3092.8
649.67	3197.2
650.088	3241.5
650.484	3159.4
650.902	3020.7
651.32	2838.1
651.738	2652.9
652.134	2490.6
652.552	2380.8
652.971	2230.5
653.389	2097.8
653.786	2020.3
654.204	1926.1
654.622	1873.9
655.019	1856.3
655.438	1833.2
655.857	1814.3
656.275	1803.6
656.673	1803.2
657.091	1859.2
657.51	1823.8
657.908	1888.5
658.327	1988
658.746	2121.7
659.144	2287.8
659.563	2428.1
659.982	2518.7
660.38	2604
660.8	2674.1
661.219	2734.2
661.617	2720.8
662.037	2657.3
662.457	2572.1
662.855	2443.6
663.275	2368.9
663.695	2266.2
664.094	2181.1
664.514	2102.2
664.934	2006.5
665.333	1935.5
665.753	1832.7
666.152	1745.9
666.572	1676.1
666.993	1634.2
667.392	1571.2
667.812	1550.7
668.212	1536.2
668.632	1537.7
669.053	1521
669.453	1532.9
669.874	1540.1
670.273	1533.8
670.694	1527.3
671.116	1532
671.515	1515
671.937	1490.9
672.337	1469.9
672.758	1456.6
673.158	1445.5
673.58	1420.4
673.98	1410.1
674.402	1418.5
674.824	1402.2
675.224	1395.1
675.646	1413.9
676.047	1425.9
676.469	1467.3
676.869	1480.7
677.292	1498.7
677.693	1499.1
678.115	1525.7
678.516	1522.4
678.939	1520.2
679.34	1518.9
679.762	1517.8
680.164	1518.1
680.586	1508.8
680.988	1533.4
681.411	1586.3
681.812	1639.4
682.236	1756.7
682.637	1922.4
683.061	2089.9
683.462	2272.2
683.864	2434.7
684.288	2556.3
684.69	2638.9
685.114	2689.5
685.516	2665.5
685.94	2570.6
686.342	2439.4
686.766	2264.2
687.168	2103.8
687.571	2013.7
687.995	1955.4
688.398	1942.8
688.822	1959.9
689.225	1983.2
689.628	1992.1
690.052	1969.5
690.456	1979.4
690.88	1950.7
691.284	1870
691.687	1767.4
692.112	1616.7
692.515	1466.6
692.919	1367.6
693.344	1263.5
693.747	1190.6
694.173	1116
694.577	1070.4
694.98	1031.9
695.406	1004
695.81	990.4
696.214	990.6
696.64	990.7
697.044	1024.7
697.448	1074.3
697.874	1115.2
698.279	1199.7
698.684	1284.1
699.11	1424.6
699.514	1627.3
699.919	1938.3
700.324	2351.9
700.75	2909.1
701.156	3477.1
701.561	4096.5
701.987	4699.3
702.393	5402.6
702.798	6091.6
703.203	6725.5
703.63	7203.6
704.036	7418.8
704.442	7432
704.847	7328.2
705.274	7299.1
705.68	7322.7
706.086	7324.9
706.492	7149.5
706.92	6873.7
707.326	6628.9
707.732	6366.8
708.139	6098.1
708.545	5775.6
708.973	5345.6
709.38	4761.5
709.786	4118.2
710.193	3530.1
710.6	2988.7
711.028	2554.1
711.435	2202.2
711.842	1921.8
712.249	1665.6
712.656	1466.7
713.064	1310
713.492	1183.2
713.9	1093.2
714.307	1028.6
714.715	986.4
715.123	944.4
715.53	922.7
715.938	899.9
716.367	876
716.775	859.2
717.184	851.3
717.592	847.2
718	836
718.408	850.4
718.816	854.7
719.225	818.3
719.633	810
720.042	794.5
720.472	795.3
720.881	810.9
721.29	795.3
721.699	782.7
722.108	789.4
722.517	783.7
722.926	770.6
723.335	782.3
723.744	770.6
724.154	769.7
724.563	763.3
724.973	758.6
725.382	750
725.792	744.7
726.202	730.4
726.612	733.4
727.022	721.8
727.432	716.5
779.813	707.5
780.223	738.5
780.634	700.7
781.044	685.5
781.454	692.1
781.865	692.4
782.276	671.5
782.686	685.2
783.097	684.1
783.508	681
783.919	688.2
784.33	697.5
784.741	695.4
785.152	692.1
785.563	687.3
785.974	711.3
786.386	750.2
786.776	757.3
787.188	783.9
787.599	785.8
788.011	815.1
788.423	821.1
788.835	811.8
789.247	798.5
789.659	804.4
790.071	786.8
790.483	807.3
790.874	764.2
791.286	761.4
791.699	738.2
792.111	723.8
792.524	722.8
792.937	711.9
793.349	695.4
793.741	686.4
794.154	680.1
794.567	686.5
794.98	676.2
795.393	665.3
795.785	687.2
796.198	669.4
796.612	666.1
797.026	659.9
797.439	645.6
797.831	655.8
798.245	637.1
798.659	636.3
799.073	622.8
799.487	619.8
799.88	608.7
800.294	605.8
800.708	617.9
801.123	620
801.516	647
801.93	656
802.345	697.7
802.76	761
803.153	816.1
803.568	866.9
803.983	902.1
804.377	914.7
804.792	905.2
805.207	931.7
805.601	930.9
806.016	925.9
806.432	872.1
806.826	867.9
807.242	820.8
807.658	789.6
808.052	755
808.468	737.6
808.884	711.7
809.279	689.4
809.695	679
810.111	669.3
810.506	644.7
810.922	651.7
811.339	631.8
811.734	644.6
812.151	631.5
812.546	635.9
812.963	634.8
813.38	649.2
813.776	647.1
814.193	666
814.589	647.3
815.006	646.5
815.402	641.2
815.82	642.3
816.237	649.7
816.633	648.7
817.051	637
817.448	633.9
817.866	624.3
818.262	635.4
818.68	604.9
819.077	594.3
819.495	598.6
819.892	620.8
820.311	579.6
820.708	572
821.127	564.7
821.524	575.8
821.943	567.6
822.34	577.2
822.759	564.2
823.157	559.7
