#lambda/nm	C1
208.295	473.4
208.67	437.8
209.045	397.8
209.419	404.1
209.794	555.8
210.169	533.8
210.544	630.6
210.919	548.7
211.295	530.9
211.67	546.4
212.045	542
212.421	542.4
212.796	573.3
213.172	538.1
213.547	539.8
213.923	540.7
214.299	534.7
214.675	551.3
215.051	547.5
215.427	546.3
215.803	561.4
216.179	547.9
216.555	544
216.932	549.3
217.308	544.6
217.684	543.8
218.061	547.6
218.438	546.1
218.814	538.6
219.191	551.5
219.568	541.5
219.945	540.1
220.322	549.2
220.699	546.6
221.076	550.6
221.453	552.1
221.83	541
222.208	534.8
222.585	538.7
222.962	547.5
223.34	545.5
223.717	538.7
224.095	538.3
224.473	543.7
224.851	539.9
225.229	534.6
225.607	557.1
225.985	539.3
226.363	542.9
226.741	546.2
227.119	546.2
227.497	549
227.876	531.5
228.254	550
228.633	550.6
229.011	545.3
229.39	544.6
229.769	543.8
230.148	550.5
230.527	562.7
230.905	541.6
231.284	540.4
231.664	541.8
232.043	554.9
232.422	549.3
232.801	536.6
233.181	543.5
233.56	542.9
233.94	542.3
234.319	531.8
234.699	534.9
235.079	581.1
235.458	573.9
235.838	561
236.218	541.7
236.598	534.5
236.978	538.9
237.358	539.3
237.738	537.2
238.119	550.6
238.499	530.7
238.88	544.6
239.26	560.6
239.641	536.3
240.021	542.3
240.402	542.5
240.783	538.2
241.163	546.4
241.544	546.4
241.925	546.2
242.306	562.4
242.687	541.4
243.069	548.4
243.45	547.8
243.831	542.1
244.212	537.4
244.594	573.7
244.975	549.2
245.357	546.2
245.739	539.4
246.12	544.9
246.502	554.6
246.884	541.5
247.266	540.7
247.648	552.5
248.03	565.7
248.412	547.5
248.794	549.6
249.176	539.5
249.559	553.1
249.941	536.4
250.323	537.3
250.706	538.6
251.089	540
251.471	541.2
251.854	543.7
252.237	546.8
252.62	551.8
253.002	548.1
253.385	546.3
253.769	555
254.152	545.3
254.535	549.6
254.918	536.2
255.301	545.5
255.685	543.7
256.068	536.8
256.452	563
256.835	550.4
257.219	550.3
257.603	559.2
257.986	539.2
258.37	551.7
258.754	533.4
259.138	551.2
259.522	559
259.906	544.2
260.29	549.3
260.675	545.3
261.059	548.4
261.443	536.4
261.828	550.7
262.212	549.2
262.597	534.9
262.981	544.9
263.366	546.1
263.751	545.7
264.136	544.7
264.521	540.3
264.906	535.7
265.291	548.8
265.676	544.6
266.061	548.7
266.446	563.8
266.831	545.2
267.217	557.2
267.602	544.3
267.987	548.2
268.373	544.4
268.759	549.3
269.144	549
269.53	544.3
269.916	541.1
270.302	540.7
270.688	541.3
271.074	546.4
271.46	557.5
271.846	569.5
272.232	541.3
272.618	539.1
273.004	540.9
273.391	548.8
273.777	552
274.164	546.3
274.55	557.6
274.937	542.2
275.324	541.4
275.71	548.5
276.097	548.9
276.484	543.1
276.871	550.4
277.258	544.2
277.645	538.4
278.032	545.2
278.419	542.5
278.807	547
279.194	540.6
279.581	532.9
279.969	551.7
280.356	545.2
280.744	544.8
281.131	566.8
281.519	557.1
281.907	536.9
282.295	544.8
282.682	550.5
283.07	548.4
283.458	549
283.846	555.9
284.235	551.2
284.623	550.8
285.011	538.5
285.399	544.8
285.788	543.9
286.176	536.2
286.565	554.5
286.953	540.7
287.342	542.1
287.731	537.7
288.119	539
288.508	541.8
288.897	543.2
289.286	535.8
289.675	539.3
290.064	554.3
290.453	541.9
290.821	542.7
291.21	558.5
291.599	543.2
291.989	541.5
292.378	547.6
292.768	560
293.157	547.6
293.547	547.4
293.936	544.9
294.326	540.5
294.716	546.7
295.106	538.7
295.496	551.7
295.886	553.9
296.276	539.8
296.666	543
297.056	533
297.446	535.6
297.836	557.1
298.227	543
298.617	545.4
299.008	552.3
299.398	538.4
299.789	542.1
300.179	547.8
300.57	557.5
300.961	538.5
301.352	539.1
301.742	548.8
302.133	541.1
302.524	551.2
302.915	544.6
303.307	538.1
303.698	549.6
304.089	548.5
304.48	542
304.872	550.1
305.263	543.2
305.655	537
306.046	548
306.438	546.9
306.829	542.6
307.221	555.6
307.613	549.9
308.005	550.3
308.397	548
308.789	564.2
309.181	564.3
309.573	556.5
309.965	552
310.357	535.3
310.749	549.7
311.142	534.3
311.534	539
311.926	551.1
312.319	541.6
312.711	540.9
313.104	555.1
313.497	544.2
313.889	572.4
314.282	556
314.675	561
315.068	545.2
315.461	546.3
315.854	571.9
316.247	552
316.64	547.3
317.033	545
317.405	551.8
317.798	543.5
318.192	550.2
318.585	534.9
318.979	550.9
319.372	538
319.766	544.8
320.16	556.1
320.553	557.7
320.947	564.6
321.341	541.7
321.735	545.2
322.129	533.4
322.523	567.2
322.917	538.9
323.311	551.5
323.705	544.3
324.099	547.9
324.494	555.9
324.888	550.2
325.282	545.5
325.677	548
326.071	553.4
326.466	555.1
326.861	546.8
327.255	554.5
327.65	555.7
328.045	557.7
328.44	545.2
328.835	550.4
329.23	537.1
329.625	559.2
330.02	535.3
330.415	559.3
330.81	539.1
331.206	541.9
331.601	544.1
331.996	552.7
332.37	551.6
332.766	539.9
333.161	560.5
333.557	539.4
333.953	547
334.348	796.2
334.744	545
335.14	539
335.536	540.1
335.932	554
336.328	545.4
336.724	553.7
337.12	546.3
337.516	541
337.913	545.5
338.309	557.9
338.705	544.9
339.102	554.2
339.498	540.1
339.895	558.1
340.291	544.7
340.688	553
341.085	538
341.481	543
341.878	543.9
342.275	564.9
342.672	539.6
343.069	540.9
343.466	531.6
343.842	553.2
344.239	538.2
344.636	541.8
345.033	538.6
345.431	543.2
345.828	545.5
346.225	536.4
346.623	548.4
347.02	541.3
347.418	543.8
347.816	553
348.213	535.4
348.611	548.7
349.009	537.7
349.407	550
349.805	541.5
350.203	530.8
350.601	549.3
350.999	539.1
351.397	541.4
351.795	544.1
352.193	549.7
352.57	549.9
352.969	552.5
353.367	533.5
353.766	538.5
354.164	538.2
354.563	550.7
354.961	544.5
355.36	539.2
355.759	541.5
356.158	535.8
356.557	534.7
356.956	531
357.355	526
357.754	542.5
358.153	542.3
358.552	558.8
358.951	540.7
359.35	550.4
359.75	540.1
360.149	542
360.527	530.9
360.926	538.6
361.326	541.9
361.726	536.2
362.125	532.4
362.525	545.7
362.925	537.8
363.325	540.4
363.724	540
364.124	539.6
364.524	534.9
364.924	540.8
365.324	546.8
365.725	520.4
366.125	543.3
366.525	538.5
366.904	539.3
367.304	525.2
367.705	552.9
368.105	540.2
368.506	533.6
368.906	538.3
369.307	535.5
369.708	541.2
370.108	534.2
370.509	544.1
370.91	534
371.311	546.7
371.712	542.6
372.113	542.5
372.514	530.1
372.894	535.8
373.295	538.2
373.696	544
374.097	542.3
374.499	566.1
374.9	532.7
375.301	531.8
375.703	540.8
376.105	529.5
376.506	544.9
376.908	544.6
377.309	537.7
377.711	540.2
378.113	533.3
378.493	540.6
378.895	532.3
379.297	548.5
379.699	532.1
380.102	544.2
380.504	540.9
380.906	532.3
381.308	553.9
381.71	534.5
382.113	548
382.515	533.2
382.918	541.6
383.299	529.3
383.701	544.4
384.104	538.2
384.507	524.1
384.909	539.1
385.312	531.6
385.715	529.2
386.118	538.2
386.521	532.5
386.924	544.8
387.327	533.6
387.709	527.8
388.112	524.7
388.515	535.2
388.918	536.4
389.322	543.8
389.725	532.6
390.129	552
390.532	542.6
390.936	539.7
391.339	528.7
391.743	541.5
392.125	535.2
392.529	548.2
392.933	543.5
393.337	540.9
393.74	537.6
394.144	535.8
394.548	534.7
394.953	529.8
395.357	542.6
395.761	535.6
396.144	536
396.548	537.2
396.952	541
397.357	542.5
397.761	531.7
398.166	531.3
398.57	534.7
398.975	520.9
399.379	538.5
399.763	583
400.168	538.6
400.572	531.6
400.977	535.7
401.382	555.5
401.787	540.1
402.192	545.5
402.597	548.6
403.002	525.5
403.386	544.6
403.791	551.1
404.197	531
404.602	534.7
405.007	534
405.413	532.3
405.818	528
406.224	527.1
406.608	533.2
407.014	524.4
407.42	545
407.825	532.4
408.231	542.3
408.637	541
409.043	547.3
409.449	528.5
409.834	534.5
410.24	537.5
410.646	545.9
411.052	541.6
411.458	544.2
411.865	546.6
412.271	549.5
412.677	538.6
413.062	545.7
413.469	530.1
413.875	555.9
414.282	547.6
414.689	538.1
415.095	544.3
415.502	529.9
415.888	536.3
416.294	528.8
416.701	569.4
417.108	522.5
417.515	546.6
417.923	532.7
418.33	559.6
418.715	543.1
419.123	535.5
419.53	530.6
419.937	538.8
420.345	552.4
420.752	537
421.16	547.5
421.546	539.3
421.953	540
422.361	530.9
422.769	533.7
423.177	529
423.585	555.3
423.992	553.2
424.379	546.7
424.787	547.9
425.195	553.2
425.603	534.2
426.011	547.1
426.419	546
426.806	538.8
427.214	539.8
427.623	551.5
428.031	548.4
428.44	539.5
428.848	554.3
429.235	549
429.644	539.7
430.053	535.6
430.461	552.6
430.87	557.4
431.279	547.1
431.666	534.2
432.075	544.6
432.484	541
432.893	535.2
433.302	553.1
433.711	572.5
434.099	545.7
434.508	534.5
434.918	534.6
435.327	543.4
435.737	540.9
436.125	541.2
436.534	541.9
436.944	544.7
437.353	541.6
437.763	563.3
438.173	535.3
438.561	553.6
438.971	535.8
439.381	544.5
439.791	543.1
440.201	527.2
440.589	542.1
440.999	546.8
441.409	544.4
441.819	541.4
442.23	556.8
442.619	548.5
443.029	550.4
443.439	550.5
443.85	552.6
444.26	562.5
444.649	555.4
445.06	551.5
445.471	547.5
445.881	551.9
446.292	561
446.682	568.4
447.092	539.3
447.503	592.4
447.914	551.8
448.325	553.7
448.715	554
449.126	549.9
449.537	560.2
449.948	549.1
450.338	557.3
450.75	563.8
451.161	553.1
451.572	555.8
451.984	552.4
452.374	539
452.786	559.5
453.197	551.7
453.609	561
453.999	546.2
454.411	552.6
454.823	568.3
455.235	558.2
455.647	552.5
456.037	560.1
456.449	544.9
456.862	559.4
457.274	556.4
457.665	551.3
458.077	561.8
458.489	566.2
458.902	562.1
459.293	553.1
459.705	556.6
460.118	550.3
460.53	558
460.921	553.3
461.334	559.5
461.747	553.2
462.16	564.9
462.551	569.9
462.964	560.1
463.377	540.3
463.79	554.2
464.182	565.3
464.595	548.1
465.008	558
465.421	560.4
465.813	550.7
466.226	560
466.64	555.4
467.053	589.8
467.445	566.3
467.859	561.7
468.272	561.5
468.686	569.7
469.078	557.3
469.492	550.2
469.906	561.8
470.298	566.4
470.712	553.3
471.126	583.9
471.54	544.4
471.933	553.2
472.347	552.5
472.761	548.2
473.175	543.1
473.568	551.8
473.982	541.8
474.397	551.9
474.79	549.2
475.204	553.9
475.619	551.2
476.033	553
476.426	551.6
476.841	547.1
477.256	571.3
477.649	546.1
478.064	544.8
478.479	553.5
478.872	546.1
479.287	543.6
479.702	544.7
480.118	553.2
480.511	552.3
480.927	547.7
481.342	547.6
481.736	556.3
482.151	549.3
482.566	560.7
482.96	551.6
483.376	563.3
483.792	540
484.186	555.4
484.602	549.5
485.017	551.4
485.412	551.8
485.827	551.5
486.243	553.9
486.638	567.7
487.054	559.4
487.47	566.2
487.865	553.9
488.281	545.9
488.697	537.8
489.092	545.7
489.508	543
489.925	554.3
490.32	538.1
490.736	546.9
491.153	555
491.548	549.9
491.964	556.3
492.381	530.8
492.776	552.4
493.193	543.4
493.61	551
494.006	551.4
494.422	547.6
494.84	544.4
495.235	546.8
495.652	549.1
496.069	544.2
496.465	535
496.883	543.4
497.3	559.3
497.696	542
498.113	547.5
498.509	535.3
498.927	533.2
499.344	541.1
499.741	539.6
500.158	550.1
500.576	552.6
500.973	543.5
501.39	536.2
501.787	542
502.205	545
502.623	535
503.02	533
503.438	540.6
503.856	539.2
504.253	539.9
504.671	539
505.068	534.3
505.486	533.9
505.905	558.9
506.302	537.9
506.72	551
507.118	536.9
507.536	541.4
507.955	540.4
508.352	545.5
508.771	553.7
509.169	546.5
509.587	533.1
510.006	536.3
510.404	532.8
510.823	532.1
511.221	539.5
511.64	532.8
512.038	548.6
512.457	538.3
512.877	540.6
513.275	534.5
513.694	534
514.092	532.6
514.512	538.6
514.91	528.5
515.33	534.4
515.749	541.4
516.148	539.3
516.568	541.3
516.966	534.4
517.386	536.7
517.785	535.9
518.205	529.9
518.603	530.9
519.024	527.6
519.444	537.9
519.843	543.4
520.263	534
520.662	535.1
521.082	530.2
521.481	539.1
521.902	534.8
522.301	539.4
522.722	539.1
523.121	532.7
523.542	534.2
523.963	530.4
524.362	532.6
524.783	541.8
525.183	532.8
525.604	541.2
526.003	528.4
526.425	532.6
526.824	537.1
527.246	544.6
527.646	537.4
528.067	541.5
528.467	536.5
528.888	534.2
529.289	531.6
529.71	534.7
530.11	529.8
530.532	534.8
530.932	526
531.354	527.8
531.755	558.5
532.176	540
532.577	536.3
532.999	534.7
533.4	526.5
533.822	544.4
534.223	531.7
534.645	532.1
535.046	531.6
535.468	537.1
535.869	548
536.292	531.9
536.693	525.6
537.115	536
537.516	526.9
537.939	528.3
538.34	541
538.742	542.6
539.165	533.7
539.566	530.8
539.989	523.2
540.391	523.9
540.814	529
541.216	532.3
541.639	529.5
542.041	537.4
542.464	529.2
542.866	527.2
543.268	522.2
543.691	535.6
544.093	533.6
544.517	547.2
544.919	526.5
545.343	547.2
545.745	525.6
546.147	530.9
546.571	527.4
546.974	525.1
547.398	525.1
547.8	541.1
548.224	531.4
548.627	526.1
549.03	539.6
549.454	520.9
549.857	519.3
550.281	524.6
550.684	527.4
551.087	539.9
551.512	531.2
551.915	533.8
552.34	533
552.743	526.3
553.146	526.7
553.571	533.3
553.975	544.7
554.399	528
554.803	562.2
555.207	527
555.632	527.2
556.036	527.9
556.461	519.1
556.865	531.1
557.268	517.4
557.694	527.9
558.098	529.1
558.502	530.8
558.927	523.3
559.332	527.9
559.736	523
560.162	525.8
560.566	524.7
560.992	529
561.396	530.8
561.801	526.1
562.227	523.1
562.631	527.1
563.036	526.2
563.462	530.3
563.867	530.1
564.272	513.6
564.698	532.3
565.103	517.4
565.508	543.1
565.935	523.5
566.34	528.3
566.745	532.6
567.172	521.9
567.577	542.7
567.982	535.7
568.409	530.3
568.815	516.7
569.22	526.8
569.626	531.1
570.053	515.2
570.459	527.4
570.865	529.3
571.292	532.4
571.698	531.5
572.104	517.2
572.531	517.7
572.937	533.8
573.343	527.3
573.75	524.4
574.177	524
574.583	530.7
574.99	522.5
575.396	531.3
575.824	522.1
576.231	524.2
576.637	524.7
577.065	551.3
577.472	518.8
577.879	524
578.286	538.1
578.714	524.1
579.121	520.7
579.528	525.7
579.935	536.2
580.364	521.1
580.771	509.5
581.178	514.7
581.585	522.4
582.014	531.4
582.421	524.3
582.829	520.4
583.236	525.9
583.644	520.1
584.073	523
584.481	528.4
584.889	523.2
585.296	523.4
585.726	525.8
586.134	515.5
586.542	520.4
586.95	536.5
587.358	514.5
587.787	522.7
588.196	513.8
588.604	522.2
589.012	521.8
589.421	514.1
589.851	517.3
590.259	524.5
590.668	520.6
591.076	551.6
591.485	518.1
591.894	518.1
592.324	534
592.733	528.1
593.142	512.3
593.551	516.7
593.96	549.2
594.369	513.1
594.8	519.7
595.209	526.8
595.618	510.2
596.028	515.2
596.437	518.1
596.847	523.8
597.256	519.5
597.687	523.6
598.097	521.5
598.507	511.3
598.917	521.8
599.327	527.1
599.736	524.1
600.146	530.7
600.556	523.2
600.988	531.1
601.398	523.7
601.808	531.7
602.219	510.6
602.629	519.3
603.039	526.3
603.45	540.1
603.86	524.5
604.271	539.2
604.703	524.8
605.114	526.1
605.525	523.9
605.935	522
606.346	537.5
606.757	529.1
607.168	521.2
607.579	517.9
607.99	532.5
608.402	525.3
608.813	527.4
609.224	516.9
609.636	515.2
610.047	518.5
610.48	524.3
610.892	526.1
611.303	524.4
611.715	518.4
612.127	510.8
612.539	519.8
612.95	519.7
613.362	509.4
613.774	512.2
614.186	514.5
614.599	517
615.011	524.1
615.423	513.7
615.835	514.9
616.248	510.3
616.66	524.7
617.073	512.9
617.485	523
617.898	525.5
618.311	520.4
618.723	518.1
619.136	544.7
619.549	532.1
619.962	535.2
620.375	520.6
620.788	524.8
621.201	515
621.614	522.9
622.028	518.6
622.441	519.9
622.854	527.6
623.268	517.5
623.681	530.7
624.095	523.1
624.509	529.1
624.922	527.7
625.336	513.2
625.728	523
626.142	529.7
626.556	536.9
626.97	523
627.384	517.7
627.799	521.8
628.213	528.5
628.627	518.8
629.041	515.6
629.456	521.5
629.87	523.4
630.285	529.6
630.699	527.3
631.093	520.4
631.507	527.6
631.922	524.3
632.337	532.7
632.752	512.8
633.167	525.6
633.582	518.8
633.997	517.7
634.412	515.7
634.806	527.8
635.221	514
635.637	524.2
636.052	514.6
636.468	520.2
636.883	537.7
637.299	516.1
637.715	507.9
638.109	522.4
638.525	514.8
638.941	532.8
639.357	523.6
639.773	529.6
640.189	516.7
640.584	521.4
641	518.9
641.416	512.8
641.832	518.8
642.249	519.7
642.665	515.8
643.06	529.2
643.477	527.6
643.894	511.2
644.31	516.5
644.727	512
645.123	517.5
645.54	512.9
645.957	521.1
646.374	529.1
646.77	522.8
647.187	542.6
647.604	517.5
648.021	503.5
648.439	511.2
648.835	522.8
649.252	521.1
649.67	521.9
650.088	515.8
650.484	521.8
650.902	520.6
651.32	524.9
651.738	513.5
652.134	519.8
652.552	538.6
652.971	524
653.389	523.4
653.786	525
654.204	518.7
654.622	511.7
655.019	519.9
655.438	520.1
655.857	525.1
656.275	521.5
656.673	510.5
657.091	578.6
657.51	510.1
657.908	522.8
658.327	528.9
658.746	508.5
659.144	518.1
659.563	529.5
659.982	519.9
660.38	510.5
660.8	519.9
661.219	530.1
661.617	521.7
662.037	515.3
662.457	526.4
662.855	507.2
663.275	550.3
663.695	524.5
664.094	515.3
664.514	520.3
664.934	513.4
665.333	520.9
665.753	515.6
666.152	512.2
666.572	512.7
666.993	530.9
667.392	517.6
667.812	516.2
668.212	512.4
668.632	526.7
669.053	519.4
669.453	524.8
669.874	522.3
670.273	521.2
670.694	511.2
671.116	529.3
671.515	526.5
671.937	517.7
672.337	513.4
672.758	515.6
673.158	522.2
673.58	506.9
673.98	519.2
674.402	525.9
674.824	520
675.224	513.5
675.646	512.2
676.047	516.9
676.469	522.3
676.869	523.5
677.292	517.2
677.693	512.8
678.115	518.7
678.516	519.9
678.939	523.1
679.34	515.8
679.762	532.2
680.164	520.4
680.586	514.4
680.988	516.8
681.411	538.6
681.812	518.9
682.236	507.5
682.637	511.7
683.061	510
683.462	520.2
683.864	517.8
684.288	522
684.69	507.4
685.114	525.2
685.516	522.3
685.94	508.2
686.342	520.4
686.766	510.3
687.168	514.1
687.571	527.9
687.995	515.5
688.398	506.1
688.822	516
689.225	530.2
689.628	527.4
690.052	514.1
690.456	520.4
690.88	515.5
691.284	511.3
691.687	524.9
692.112	514.3
692.515	507.5
692.919	515.8
693.344	518.9
693.747	521.2
694.173	516.9
694.577	525.7
694.98	521.8
695.406	510
695.81	518.6
696.214	516.1
696.64	524.2
697.044	520.8
697.448	522
697.874	517.2
698.279	513.7
698.684	507
699.11	518.1
699.514	516.1
699.919	513.4
700.324	507.5
700.75	514.7
701.156	518.6
701.561	523.7
701.987	525.3
702.393	525.7
702.798	526.9
703.203	515.6
703.63	509.9
704.036	509
704.442	519
704.847	506.1
705.274	513.5
705.68	517.8
706.086	528.6
706.492	509.8
706.92	511
707.326	519.5
707.732	514.6
708.139	508.5
708.545	504.3
708.973	512
709.38	514.6
709.786	504.6
710.193	526.9
710.6	519.7
711.028	508.7
711.435	512.4
711.842	517
712.249	513.2
712.656	512.2
713.064	521.5
713.492	509.7
713.9	513.9
714.307	514.9
714.715	519.4
715.123	516.9
715.53	513.4
715.938	520.3
716.367	517.9
716.775	517.3
717.184	508.2
717.592	517.2
718	523.6
718.408	544.5
718.816	553.7
719.225	521.1
719.633	517.1
720.042	511.6
720.472	512.5
720.881	532.1
721.29	518.5
721.699	506.1
722.108	520
722.517	516.5
722.926	511.4
723.335	523.4
723.744	518.3
724.154	516.6
724.563	519.5
724.973	523.6
725.382	522.5
725.792	519
726.202	513.8
726.612	524.9
727.022	513.5
727.432	511.1
779.813	510.5
780.223	548.3
780.634	513.7
781.044	509.4
781.454	515.4
781.865	520.4
782.276	509.1
782.686	529.5
783.097	512
783.508	516.6
783.919	517.9
784.33	524
784.741	527.1
785.152	507
785.563	501.6
785.974	508.8
786.386	520.1
786.776	506.9
787.188	512.7
787.599	506.3
788.011	520.4
788.423	518.7
788.835	515.2
789.247	506.5
789.659	514.1
790.071	511.1
790.483	550.5
790.874	518.2
791.286	520.1
791.699	514.1
792.111	517.7
792.524	518
792.937	513
793.349	503.7
793.741	508.5
794.154	511.2
794.567	526.2
794.98	514.5
795.393	504.2
795.785	525.4
796.198	514
796.612	512
797.026	512.2
797.439	497.2
797.831	516.1
798.245	503.6
798.659	508.2
799.073	514.5
799.487	509.1
799.88	511.8
800.294	513.1
800.708	512.8
801.123	514.3
801.516	521.1
801.93	504
802.345	503.6
802.76	512.6
803.153	527.9
803.568	520.5
803.983	519
804.377	517.3
804.792	503.4
805.207	499.8
805.601	520.6
806.016	540
806.432	507.2
806.826	542.5
807.242	530.5
807.658	518.5
808.052	512
808.468	513.5
808.884	505.6
809.279	510.3
809.695	520.8
810.111	531.3
810.506	517.8
810.922	528.8
811.339	510.9
811.734	517.7
812.151	514.1
812.546	503.8
812.963	509.1
813.38	512.9
813.776	509.1
814.193	531
814.589	507.1
815.006	509.3
815.402	514.5
815.82	505.5
816.237	516.9
816.633	517.2
817.051	505.2
817.448	517.2
817.866	504.9
818.262	526
818.68	511
819.077	509.9
819.495	514.7
819.892	545.4
820.311	505.1
820.708	513
821.127	503.7
821.524	521.8
821.943	518.9
822.34	528.3
822.759	514.6
823.157	515.3
823.576	526.7
823.974	518.7
824.393	520.6
824.791	508.3
825.189	504
825.609	510
826.007	510.1
826.427	505.6
826.826	508.2
827.246	514
827.644	508.8
828.043	521.1
828.463	508.4
828.862	515
829.261	512.4
829.682	508
830.081	511.5
830.502	504.6
830.901	507.7
831.301	505.3
831.722	508
832.121	509.1
832.521	504.7
832.943	510.6
833.342	511.2
833.742	506.6
834.164	509.9
834.564	499.7
834.965	511.9
835.386	510.8
835.787	501.8
836.188	508.9
836.588	507.4
837.01	510.5
837.411	506.4
837.812	521.3
838.213	511.9
838.636	508.2
839.037	567.2
839.438	513.7
839.84	516.1
840.263	513.8
840.664	517
841.066	511
841.468	515.3
841.891	509.4
842.293	518.8
842.695	516.5
843.098	518.4
843.5	510.3
843.902	514
844.326	516.9
844.729	511.2
845.131	522.9
845.534	513
845.937	527
846.34	526.4
846.764	509.4
847.167	516
847.571	511.3
847.974	509.7
848.377	510.2
