#lambda/nm	C1
208.295	471.5
208.67	439.6
209.045	402.4
209.419	405.7
209.794	549
210.169	529.5
210.544	633.1
210.919	545.1
211.295	536.9
211.67	549.2
212.045	542.4
212.421	540.2
212.796	570.5
213.172	544
213.547	538.1
213.923	543.3
214.299	536.9
214.675	547.5
215.051	544.9
215.427	545.1
215.803	562.3
216.179	550.5
216.555	536.4
216.932	550.8
217.308	548.5
217.684	540.8
218.061	547.1
218.438	545.6
218.814	541.2
219.191	549
219.568	537.2
219.945	538.3
220.322	553.2
220.699	543.8
221.076	544.3
221.453	548.8
221.83	535.6
222.208	534.8
222.585	540.1
222.962	546.6
223.34	550.8
223.717	540.1
224.095	536
224.473	548.2
224.851	534.2
225.229	533.1
225.607	552.3
225.985	533.3
226.363	549.8
226.741	544.3
227.119	544.9
227.497	552.8
227.876	526.9
228.254	551.4
228.633	546.2
229.011	540.7
229.39	551.9
229.769	541.5
230.148	543.5
230.527	563.3
230.905	548.4
231.284	543.9
231.664	541.9
232.043	555
232.422	547.1
232.801	540.5
233.181	549.9
233.56	540.9
233.94	549
234.319	530.9
234.699	540.1
235.079	578.2
235.458	577.2
235.838	558.8
236.218	536
236.598	536.8
236.978	543.1
237.358	537.3
237.738	538.3
238.119	546.3
238.499	532.5
238.88	548.4
239.26	555.3
239.641	536.7
240.021	542.3
240.402	544.8
240.783	542.2
241.163	540.4
241.544	542.8
241.925	544.7
242.306	561.4
242.687	541.1
243.069	544.8
243.45	545
243.831	542.1
244.212	540
244.594	581.1
244.975	554
245.357	547.1
245.739	537.8
246.12	541.8
246.502	558.5
246.884	539.1
247.266	536.6
247.648	535.8
248.03	557.8
248.412	546.6
248.794	545.7
249.176	542.5
249.559	549.1
249.941	538.3
250.323	530.6
250.706	535.6
251.089	541.2
251.471	542.3
251.854	541
252.237	540.1
252.62	552.2
253.002	542.6
253.385	545.5
253.769	555.6
254.152	550.3
254.535	550.8
254.918	539.4
255.301	546.4
255.685	539
256.068	536.1
256.452	560.7
256.835	549.4
257.219	548.5
257.603	554.9
257.986	538.5
258.37	549
258.754	538.6
259.138	551.8
259.522	554.4
259.906	542.5
260.29	548.5
260.675	541
261.059	544.8
261.443	536.3
261.828	547.6
262.212	544.5
262.597	535.6
262.981	537.1
263.366	550.2
263.751	545
264.136	542.6
264.521	540.8
264.906	533.3
265.291	557.6
265.676	538.3
266.061	553.1
266.446	559.3
266.831	543.7
267.217	561.4
267.602	550.7
267.987	550.5
268.373	543.3
268.759	552.8
269.144	547
269.53	543.7
269.916	543
270.302	537.9
270.688	548.1
271.074	543.8
271.46	551.5
271.846	571.8
272.232	545.3
272.618	538.8
273.004	540.7
273.391	552.9
273.777	553
274.164	544
274.55	558.9
274.937	541.4
275.324	538.9
275.71	551.4
276.097	545.3
276.484	542.3
276.871	548.4
277.258	550
277.645	540.5
278.032	542.2
278.419	545
278.807	548.4
279.194	538.7
279.581	538.4
279.969	547.8
280.356	548.3
280.744	549.7
281.131	564.5
281.519	552.8
281.907	546.6
282.295	543.3
282.682	556.6
283.07	547.1
283.458	548.9
283.846	554.1
284.235	554.9
284.623	555.6
285.011	542.4
285.399	545.7
285.788	548.9
286.176	535.2
286.565	554.6
286.953	541.8
287.342	543.6
287.731	542.5
288.119	537.9
288.508	542.4
288.897	543.6
289.286	533.2
289.675	548.6
290.064	558.4
290.453	538.4
290.821	538
291.21	555.8
291.599	542.1
291.989	546.1
292.378	547.5
292.768	556.6
293.157	547.3
293.547	547.3
293.936	539.5
294.326	540.2
294.716	545.3
295.106	541.6
295.496	551.4
295.886	551.6
296.276	538.4
296.666	534.9
297.056	533.9
297.446	536.3
297.836	550.6
298.227	544.7
298.617	543.5
299.008	551.7
299.398	541.2
299.789	543.3
300.179	546.2
300.57	555
300.961	539.2
301.352	541.5
301.742	545.3
302.133	549
302.524	543.8
302.915	546.9
303.307	537.9
303.698	558.2
304.089	550.4
304.48	542.5
304.872	552.5
305.263	545.8
305.655	542.8
306.046	546.4
306.438	547.7
306.829	538
307.221	554
307.613	547.6
308.005	555.1
308.397	552.7
308.789	564.9
309.181	566.1
309.573	562.5
309.965	556.1
310.357	545.1
310.749	543.7
311.142	538.5
311.534	543.2
311.926	550.4
312.319	548.8
312.711	542.9
313.104	556.9
313.497	543.5
313.889	582
314.282	551.4
314.675	567.1
315.068	545.7
315.461	552.6
315.854	565.4
316.247	549
316.64	542.5
317.033	548.3
317.405	551.2
317.798	546.4
318.192	550.2
318.585	544.9
318.979	551.4
319.372	540.6
319.766	544.6
320.16	552.1
320.553	560.3
320.947	558.8
321.341	544.1
321.735	542.6
322.129	538
322.523	567.5
322.917	538.4
323.311	550.2
323.705	548.5
324.099	544.1
324.494	554.9
324.888	553.9
325.282	543.1
325.677	547.5
326.071	553.2
326.466	556
326.861	544.7
327.255	550.8
327.65	553.2
328.045	557.5
328.44	553.2
328.835	546.7
329.23	543
329.625	557.8
330.02	543.3
330.415	560.9
330.81	551.2
331.206	543.7
331.601	539.1
331.996	543.7
332.37	554.7
332.766	537.2
333.161	563.7
333.557	543.3
333.953	545
334.348	794.7
334.744	545.7
335.14	539.4
335.536	544.2
335.932	559
336.328	540.8
336.724	554.4
337.12	543.4
337.516	545.7
337.913	543.6
338.309	559.1
338.705	545.9
339.102	551.6
339.498	543.1
339.895	558.3
340.291	539.5
340.688	554.7
341.085	544.6
341.481	544.5
341.878	542.4
342.275	560.7
342.672	536.7
343.069	536.9
343.466	531.8
343.842	551.6
344.239	539.6
344.636	538
345.033	535.4
345.431	533.9
345.828	537.3
346.225	537.6
346.623	548.3
347.02	545.5
347.418	551.3
347.816	555.4
348.213	534.1
348.611	547.8
349.009	539.4
349.407	551.6
349.805	538.1
350.203	534.1
350.601	549.4
350.999	540.5
351.397	540.2
351.795	546.4
352.193	554.9
352.57	548.9
352.969	549.4
353.367	537.3
353.766	536.7
354.164	544.3
354.563	548
354.961	543.4
355.36	540.2
355.759	539.5
356.158	533.9
356.557	540.3
356.956	533.3
357.355	532.3
357.754	545.7
358.153	543.5
358.552	563.1
358.951	544.7
359.35	553.6
359.75	537.8
360.149	537
360.527	532.5
360.926	532.3
361.326	545.5
361.726	542.7
362.125	532.6
362.525	543.2
362.925	535.6
363.325	543.9
363.724	539.1
364.124	536
364.524	536.1
364.924	533.5
365.324	545.4
365.725	525.6
366.125	540.4
366.525	537.7
366.904	533.9
367.304	521.5
367.705	552.7
368.105	551.1
368.506	534.6
368.906	540.2
369.307	537.1
369.708	548.1
370.108	532.6
370.509	544.9
370.91	529.9
371.311	535
371.712	536.9
372.113	536.7
372.514	531.2
372.894	537.5
373.295	532.9
373.696	549.2
374.097	545.8
374.499	557.7
374.9	544.4
375.301	529.7
375.703	543.7
376.105	534.4
376.506	543.9
376.908	544.3
377.309	537.5
377.711	542.6
378.113	533.6
378.493	539.3
378.895	529.1
379.297	545
379.699	535
380.102	539.9
380.504	538.3
380.906	534.6
381.308	561
381.71	539.7
382.113	544.2
382.515	540.6
382.918	541.7
383.299	537.4
383.701	545
384.104	538.3
384.507	521.6
384.909	535.9
385.312	531.8
385.715	527.7
386.118	538.3
386.521	531.6
386.924	543.1
387.327	526.2
387.709	529.7
388.112	527.2
388.515	534.8
388.918	532.7
389.322	540.5
389.725	531.1
390.129	552.7
390.532	539
390.936	533.9
391.339	532.5
391.743	537.7
392.125	529.1
392.529	546.7
392.933	548.5
393.337	533.1
393.74	531.2
394.144	536.4
394.548	532.3
394.953	536.5
395.357	543.7
395.761	531.5
396.144	541.1
396.548	536.4
396.952	538.7
397.357	539.9
397.761	532.9
398.166	531.4
398.57	534.6
398.975	525.7
399.379	539.4
399.763	576.7
400.168	527.4
400.572	541
400.977	538.8
401.382	549.9
401.787	542.1
402.192	554.3
402.597	545.9
403.002	526
403.386	543.9
403.791	547.5
404.197	525.4
404.602	535.9
405.007	534
405.413	534.6
405.818	527.8
406.224	537.5
406.608	538.7
407.014	526.8
407.42	550.6
407.825	532.6
408.231	540
408.637	542.3
409.043	546.8
409.449	531.1
409.834	526.7
410.24	536.9
410.646	547.4
411.052	545.3
411.458	538.4
411.865	538.5
412.271	542.1
412.677	531.4
413.062	540.8
413.469	527.2
413.875	562.9
414.282	546.1
414.689	536.2
415.095	547.7
415.502	530.1
415.888	534.8
416.294	525
416.701	566
417.108	528.6
417.515	541.5
417.923	542.7
418.33	557.5
418.715	539.1
419.123	538.9
419.53	532.3
419.937	534.8
420.345	546.8
420.752	533.8
421.16	549.6
421.546	543
421.953	543.9
422.361	536.1
422.769	538.4
423.177	529.1
423.585	558.1
423.992	560.4
424.379	548
424.787	551.8
425.195	556.7
425.603	537.4
426.011	551.4
426.419	552.6
426.806	544.8
427.214	537.8
427.623	544.6
428.031	555.9
428.44	541
428.848	548.4
429.235	553.4
429.644	546.2
430.053	542.6
430.461	552
430.87	559.6
431.279	546.7
431.666	530
432.075	536.9
432.484	546.3
432.893	536.1
433.302	556.1
433.711	572.3
434.099	541.5
434.508	539.5
434.918	530.2
435.327	544.7
435.737	539.4
436.125	539.8
436.534	538.7
436.944	540.3
437.353	540.6
437.763	549.7
438.173	532.2
438.561	544
438.971	522.7
439.381	536.5
439.791	535.5
440.201	516.8
440.589	539.1
440.999	540.9
441.409	531.2
441.819	526.4
442.23	545
442.619	540.2
443.029	534
443.439	540.5
443.85	545.9
444.26	547.4
444.649	541.4
445.06	535.8
445.471	536.3
445.881	535.7
446.292	552.9
446.682	551.7
447.092	518.8
447.503	576.3
447.914	526.7
448.325	534.2
448.715	537.4
449.126	532.3
449.537	542
449.948	534.1
450.338	535.5
450.75	541.1
451.161	540.1
451.572	537.7
451.984	528.2
452.374	517.5
452.786	532.8
453.197	538.3
453.609	541.3
453.999	524.6
454.411	524.1
454.823	539.7
455.235	538.3
455.647	536.7
456.037	539.7
456.449	522.7
456.862	535.1
457.274	532.7
457.665	529.2
458.077	544.2
458.489	545.1
458.902	530.9
459.293	534.4
459.705	533.5
460.118	531.7
460.53	536.9
460.921	527.1
461.334	537.4
461.747	530.4
462.16	543.7
462.551	543.5
462.964	535.9
463.377	521.9
463.79	529.8
464.182	537.8
464.595	522.7
465.008	528.4
465.421	538.5
465.813	526.8
466.226	538.5
466.64	523.7
467.053	571.5
467.445	538.9
467.859	532
468.272	537.1
468.686	548.2
469.078	532.4
469.492	520.1
469.906	533
470.298	535.3
470.712	524.9
471.126	558.6
471.54	525.7
471.933	530.2
472.347	526.6
472.761	529
473.175	520.1
473.568	531.6
473.982	516.6
474.397	531.9
474.79	529.9
475.204	536.8
475.619	533.8
476.033	532.5
476.426	534.6
476.841	522.9
477.256	555.2
477.649	522.6
478.064	525.2
478.479	528.9
478.872	526.6
479.287	518.4
479.702	525.1
480.118	528.5
480.511	529.5
480.927	524
481.342	526
481.736	537.1
482.151	526.2
482.566	532.6
482.96	529.1
483.376	536.2
483.792	522.5
484.186	536.4
484.602	524.8
485.017	530
485.412	531.4
485.827	529.4
486.243	526.8
486.638	547.1
487.054	533.1
487.47	544.4
487.865	524.5
488.281	527.5
488.697	522.3
489.092	528.2
489.508	524.5
489.925	542.6
490.32	517
490.736	532.1
491.153	530
491.548	530
491.964	536.9
492.381	520.4
492.776	540.6
493.193	529.8
493.61	535.5
494.006	530.9
494.422	528.6
494.84	526.5
495.235	535
495.652	529.2
496.069	528.8
496.465	522.1
496.883	528
497.3	546.1
497.696	526
498.113	525.8
498.509	515
498.927	520.3
499.344	526.8
499.741	526.7
500.158	532.8
500.576	538.8
500.973	528.6
501.39	518
501.787	521.1
502.205	532.3
502.623	522.2
503.02	516.3
503.438	526.9
503.856	527.2
504.253	529.1
504.671	525
505.068	525.1
505.486	522
505.905	542.8
506.302	531.6
506.72	534.7
507.118	522.4
507.536	525.2
507.955	522.9
508.352	531
508.771	535.5
509.169	532.6
509.587	522.5
510.006	528
510.404	521.8
510.823	522.5
511.221	526
511.64	524.9
512.038	540.4
512.457	524.8
512.877	523.9
513.275	523.3
513.694	527.9
514.092	521.9
514.512	528.3
514.91	526.3
515.33	528.1
515.749	527.4
516.148	524.9
516.568	527.2
516.966	526.5
517.386	521.2
517.785	525.7
518.205	524.5
518.603	523.6
519.024	521.7
519.444	522.8
519.843	532.1
520.263	533.8
520.662	534.8
521.082	530.1
521.481	530.8
521.902	525.1
522.301	525.6
522.722	529.5
523.121	524.3
523.542	523.9
523.963	521.6
524.362	527.8
524.783	534.7
525.183	523.5
525.604	528.4
526.003	528
526.425	524.6
526.824	531.8
527.246	533.6
527.646	537.3
528.067	530.8
528.467	531.5
528.888	523.9
529.289	524.9
529.71	530.8
530.11	527.4
530.532	524
530.932	521
531.354	516.5
531.755	555.2
532.176	531.2
532.577	524.8
532.999	527.9
533.4	518.7
533.822	532.5
534.223	523.3
534.645	520.8
535.046	524.9
535.468	524.8
535.869	538.7
536.292	521.6
536.693	522.7
537.115	523.9
537.516	520.9
537.939	526.8
538.34	536.9
538.742	533.2
539.165	528.3
539.566	524.3
539.989	521.3
540.391	520.2
540.814	526.3
541.216	525.6
541.639	522.3
542.041	534.8
542.464	519.2
542.866	522.5
543.268	518.5
543.691	529.6
544.093	528.4
544.517	539.4
544.919	515.6
545.343	544.1
545.745	515
546.147	524.8
546.571	520.4
546.974	519.6
547.398	528.5
547.8	532.7
548.224	526.4
548.627	516.7
549.03	528.8
549.454	521.1
549.857	514.6
550.281	517
550.684	522.1
551.087	529.6
551.512	522.6
551.915	532
552.34	530.7
552.743	523.1
553.146	531.4
553.571	518
553.975	538.6
554.399	519.2
554.803	557.9
555.207	518.3
555.632	514.3
556.036	527.7
556.461	518.3
556.865	528
557.268	514.8
557.694	521.9
558.098	525.3
558.502	529.4
558.927	519.3
559.332	519.8
559.736	525.2
560.162	527.3
560.566	524.6
560.992	533.9
561.396	525.1
561.801	517.5
562.227	525
562.631	518
563.036	524.7
563.462	527.6
563.867	520
564.272	513.2
564.698	525.2
565.103	513
565.508	539.7
565.935	527.1
566.34	518.7
566.745	532.3
567.172	523
567.577	541.3
567.982	532.8
568.409	522.8
568.815	521.3
569.22	525
569.626	531.7
570.053	513.4
570.459	527.5
570.865	529.7
571.292	525.9
571.698	534.3
572.104	511.9
572.531	516.8
572.937	538.2
573.343	525.6
573.75	515.8
574.177	527.3
574.583	526.8
574.99	526
575.396	528.3
575.824	521.8
576.231	528.8
576.637	523.2
577.065	547.4
577.472	519
577.879	525.3
578.286	536.4
578.714	515.4
579.121	517
579.528	519.9
579.935	531.7
580.364	520.3
580.771	513.2
581.178	510.9
581.585	523.3
582.014	522.6
582.421	520.8
582.829	520.2
583.236	528.5
583.644	517
584.073	519.8
584.481	518.6
584.889	514.7
585.296	524.1
585.726	519
586.134	518.8
586.542	519.3
586.95	535.4
587.358	511.8
587.787	517.2
588.196	510.9
588.604	515.4
589.012	519.2
589.421	517.5
589.851	514.9
590.259	525.5
590.668	519.5
591.076	553.4
591.485	511.5
591.894	522
592.324	534.9
592.733	533.6
593.142	510.3
593.551	520.6
593.96	547.4
594.369	509.2
594.8	518.7
595.209	513.9
595.618	507.2
596.028	515.7
596.437	511.3
596.847	521.7
597.256	521.4
597.687	523.5
598.097	518.5
598.507	511
598.917	523.2
599.327	525.4
599.736	524.8
600.146	523.5
600.556	521.4
600.988	528.6
601.398	518.8
601.808	531
602.219	509.8
602.629	518.1
603.039	523
603.45	539.7
603.86	521.7
604.271	534.6
604.703	525.9
605.114	524
605.525	520
605.935	522.4
606.346	538.9
606.757	525.4
607.168	519.2
607.579	519.4
607.99	529.8
608.402	520.8
608.813	529.5
609.224	522.7
609.636	515.7
610.047	517.1
610.48	524.7
610.892	524.7
611.303	527.3
611.715	519.9
612.127	516.9
612.539	519
612.95	522.1
613.362	513.7
613.774	513.9
614.186	518.7
614.599	513.9
615.011	521.6
615.423	509.5
615.835	510.1
616.248	512.7
616.66	521.6
617.073	510
617.485	521.8
617.898	525
618.311	523.2
618.723	520.6
619.136	542.3
619.549	531.9
619.962	532.7
620.375	518.6
620.788	525.2
621.201	516.5
621.614	525.5
622.028	520.5
622.441	521.5
622.854	531.7
623.268	510.5
623.681	524.6
624.095	518.6
624.509	531.1
624.922	524.6
625.336	511.5
625.728	519.3
626.142	529.9
626.556	534.3
626.97	525.9
627.384	518.4
627.799	519.2
628.213	528.1
628.627	519
629.041	517.4
629.456	519.8
629.87	520.5
630.285	524.2
630.699	524.8
631.093	516
631.507	521.5
631.922	525.7
632.337	526.6
632.752	508.6
633.167	517.9
633.582	517.6
633.997	516.3
634.412	512.4
634.806	515.9
635.221	512.7
635.637	524.8
636.052	509.7
636.468	524.3
636.883	536.9
637.299	521.8
637.715	508.8
638.109	519
638.525	510.3
638.941	528.5
639.357	522
639.773	533.5
640.189	515.3
640.584	520.2
641	524.8
641.416	506.5
641.832	512.3
642.249	519.5
642.665	520.3
643.06	526.8
643.477	527.4
643.894	510.3
644.31	517.9
644.727	515.4
645.123	518.1
645.54	512.5
645.957	526.7
646.374	522.3
646.77	526.8
647.187	540.5
647.604	519.4
648.021	511.3
648.439	512.9
648.835	526.5
649.252	521.1
649.67	511.3
650.088	519.2
650.484	518.9
650.902	522.1
651.32	526
651.738	516.9
652.134	523.4
652.552	534.4
652.971	524.5
653.389	515.9
653.786	529.9
654.204	518.1
654.622	511.4
655.019	517.6
655.438	521.4
655.857	518.9
656.275	520.8
656.673	509.7
657.091	574.6
657.51	511.1
657.908	524.7
658.327	534.6
658.746	512
659.144	518.8
659.563	528.2
659.982	525.3
660.38	511.2
660.8	519.9
661.219	526.2
661.617	525.5
662.037	518.1
662.457	529.8
662.855	502.7
663.275	548.1
663.695	525.4
664.094	518.2
664.514	519.6
664.934	519.9
665.333	522.1
665.753	515.1
666.152	513.2
666.572	517.4
666.993	527.3
667.392	518.9
667.812	515.1
668.212	513.3
668.632	524
669.053	516.6
669.453	520.4
669.874	518.7
670.273	521.1
670.694	514.2
671.116	527.7
671.515	524.6
671.937	514.7
672.337	515
672.758	517.4
673.158	523.3
673.58	511.8
673.98	523.3
674.402	530.5
674.824	515.6
675.224	514.4
675.646	507.3
676.047	511.2
676.469	518.5
676.869	520.5
677.292	513.7
677.693	510.9
678.115	513.2
678.516	516.1
678.939	518.2
679.34	514.8
679.762	525.2
680.164	521.6
680.586	506
680.988	521.2
681.411	533.2
681.812	517.4
682.236	514.3
682.637	511
683.061	509.5
683.462	517.3
683.864	514.5
684.288	519.9
684.69	509.7
685.114	527.8
685.516	520.8
685.94	516.4
686.342	523
686.766	512.5
687.168	516.9
687.571	534.3
687.995	512.2
688.398	509.3
688.822	511.9
689.225	530.4
689.628	530.8
690.052	515.6
690.456	521.9
690.88	517.7
691.284	512
691.687	525
692.112	512.2
692.515	511.2
692.919	518.1
693.344	517.5
693.747	517.7
694.173	508.1
694.577	524.2
694.98	512.4
695.406	512.3
695.81	519.6
696.214	521.2
696.64	520.9
697.044	524.7
697.448	523.7
697.874	517.4
698.279	517.4
698.684	505.7
699.11	504.1
699.514	511.5
699.919	516
700.324	507.4
700.75	515.1
701.156	521.6
701.561	527.5
701.987	521.1
702.393	523.9
702.798	529.4
703.203	514.5
703.63	515.9
704.036	512.9
704.442	517.7
704.847	510.6
705.274	518.1
705.68	522
706.086	527.7
706.492	512.8
706.92	516.2
707.326	521.2
707.732	514.5
708.139	513
708.545	511.2
708.973	515.3
709.38	519.1
709.786	509.8
710.193	531.2
710.6	518.7
711.028	510.5
711.435	512.2
711.842	515.1
712.249	518.6
712.656	517.3
713.064	524.3
713.492	516.4
713.9	509.7
714.307	522.6
714.715	516.3
715.123	520.1
715.53	521
715.938	518.8
716.367	514.4
716.775	519.9
717.184	508.8
717.592	516.9
718	523.1
718.408	535.6
718.816	555.6
719.225	519.6
719.633	519.7
720.042	512.4
720.472	515.1
720.881	532.2
721.29	522.3
721.699	514
722.108	519.8
722.517	518.8
722.926	515.6
723.335	517
723.744	517.2
724.154	516.3
724.563	506.4
724.973	517.3
725.382	515
725.792	512
726.202	508.8
726.612	521.2
727.022	514.6
727.432	510.5
779.813	505.5
780.223	550.4
780.634	516.3
781.044	508.1
781.454	512.9
781.865	525.5
782.276	509.5
782.686	522.5
783.097	517.7
783.508	511.3
783.919	516.8
784.33	525.4
784.741	523.8
785.152	505.4
785.563	507.5
785.974	510.3
786.386	527.8
786.776	512.9
787.188	517.7
787.599	506.7
788.011	520.5
788.423	516.2
788.835	512.9
789.247	504.9
789.659	513.1
790.071	510.9
790.483	553.6
790.874	507.9
791.286	518.3
791.699	510.4
792.111	514.3
792.524	516.8
792.937	510.2
793.349	507.2
793.741	503.6
794.154	508.9
794.567	525.6
794.98	509.7
795.393	507.2
795.785	522.3
796.198	508.6
796.612	513
797.026	506.1
797.439	501.8
797.831	505.6
798.245	508.8
798.659	508.3
799.073	511.2
799.487	508
799.88	516.9
800.294	513.6
800.708	516.7
801.123	513.6
801.516	523.9
801.93	505.8
802.345	503.9
802.76	514.9
803.153	523.9
803.568	525.8
803.983	522
804.377	515.1
804.792	507.1
805.207	498.3
805.601	513.8
806.016	540.4
806.432	506.2
806.826	539.9
807.242	522.4
807.658	515.4
808.052	508.9
808.468	511.8
808.884	508.8
809.279	516.2
809.695	523.5
810.111	527.1
810.506	518.1
810.922	528.3
811.339	513.5
811.734	518.5
812.151	514.7
812.546	513
812.963	505.9
813.38	516.3
813.776	512.2
814.193	534.5
814.589	507
815.006	512.8
815.402	512.2
815.82	513.1
816.237	511.3
816.633	513.1
817.051	502.6
817.448	516.4
817.866	505.6
818.262	527.3
818.68	506.3
819.077	511.4
819.495	513.1
819.892	549.1
820.311	506.8
820.708	509.9
821.127	513.6
821.524	520.4
821.943	511.9
822.34	525.5
822.759	509.3
823.157	515.8
823.576	522.8
823.974	517.2
824.393	518.5
824.791	508.9
825.189	508.3
825.609	512.1
826.007	510.7
826.427	495.8
826.826	509.1
827.246	516.7
827.644	503.9
828.043	524.4
828.463	512.3
828.862	516.1
829.261	514.7
829.682	506.1
830.081	514.3
830.502	508
830.901	514.9
831.301	513.5
831.722	505.6
832.121	507.3
832.521	510.7
832.943	510.2
833.342	512.5
833.742	506.4
834.164	510.3
834.564	501.4
834.965	508.8
835.386	506.2
835.787	510.3
836.188	510
836.588	509.1
837.01	513.8
837.411	502.2
837.812	510.8
838.213	518
838.636	510.7
839.037	570.8
839.438	515
839.84	514.2
840.263	514.4
840.664	517
841.066	508
841.468	514.5
841.891	505.8
842.293	522.1
842.695	519.9
843.098	518.5
843.5	507.2
843.902	515.5
844.326	511.5
844.729	518.6
845.131	518.8
845.534	511.4
845.937	526
846.34	521.4
846.764	511.1
847.167	516.6
847.571	503.7
