#lambda/nm	C1
208.295	472.1
208.67	437.4
209.045	402.1
209.419	409.6
209.794	592.2
210.169	577.2
210.544	695.3
210.919	594.6
211.295	579.8
211.67	596.7
212.045	594.2
212.421	586.8
212.796	624
213.172	578.6
213.547	584.8
213.923	586.3
214.299	587.4
214.675	595
215.051	597.2
215.427	591.6
215.803	609
216.179	593.7
216.555	581.3
216.932	597.8
217.308	585.5
217.684	589.3
218.061	593.1
218.438	583.6
218.814	580.2
219.191	590.6
219.568	581.1
219.945	589.4
220.322	587.4
220.699	586.8
221.076	595.6
221.453	591
221.83	578.7
222.208	588
222.585	588.7
222.962	592.8
223.34	587.9
223.717	590.8
224.095	586.3
224.473	595.7
224.851	586.3
225.229	579.7
225.607	605.4
225.985	582.4
226.363	590.3
226.741	589.2
227.119	587.8
227.497	598.6
227.876	577.9
228.254	592.3
228.633	593.4
229.011	590.5
229.39	594.4
229.769	590.4
230.148	599
230.527	613.4
230.905	590.6
231.284	595.1
231.664	583.7
232.043	604.5
232.422	595.8
232.801	585.5
233.181	594.3
233.56	586
233.94	591
234.319	582.5
234.699	586.6
235.079	628.8
235.458	631.7
235.838	605.9
236.218	583.2
236.598	581.2
236.978	583.1
237.358	583.7
237.738	587.1
238.119	597.9
238.499	581.9
238.88	592
239.26	609.5
239.641	582.2
240.021	585.7
240.402	585.2
240.783	591.5
241.163	589.8
241.544	598.2
241.925	588.3
242.306	601
242.687	585.5
243.069	591.1
243.45	594.3
243.831	582
244.212	587.8
244.594	626.6
244.975	592.9
245.357	592.1
245.739	578.4
246.12	594.2
246.502	605.6
246.884	590.1
247.266	585.9
247.648	594.8
248.03	611.8
248.412	592.8
248.794	594.6
249.176	587.5
249.559	604.1
249.941	586.7
250.323	581.4
250.706	583.5
251.089	590.5
251.471	598.1
251.854	594.1
252.237	593.6
252.62	598.9
253.002	590
253.385	590.4
253.769	604.7
254.152	590
254.535	602.1
254.918	584.1
255.301	595.6
255.685	589.7
256.068	578.3
256.452	613.9
256.835	597.7
257.219	599.6
257.603	602.8
257.986	582.5
258.37	597
258.754	581.2
259.138	595.6
259.522	598.6
259.906	588
260.29	589.4
260.675	583.9
261.059	588.5
261.443	585.9
261.828	598.9
262.212	594.2
262.597	582.7
262.981	585.3
263.366	599.3
263.751	591.3
264.136	585.3
264.521	588.6
264.906	585.4
265.291	594.9
265.676	584.4
266.061	603.1
266.446	610.9
266.831	591
267.217	610.3
267.602	590.6
267.987	599.8
268.373	591.5
268.759	597.9
269.144	593.3
269.53	594.9
269.916	590.4
270.302	589.9
270.688	598.9
271.074	591.5
271.46	601.9
271.846	622.7
272.232	590.8
272.618	586.8
273.004	587.1
273.391	600.4
273.777	604.9
274.164	594.3
274.55	604.8
274.937	595.2
275.324	591.7
275.71	597.7
276.097	603.8
276.484	583.3
276.871	595.4
277.258	596.1
277.645	582.1
278.032	591.9
278.419	591
278.807	593.4
279.194	584.9
279.581	585.9
279.969	591.9
280.356	588.4
280.744	589.3
281.131	618
281.519	602.8
281.907	589
282.295	592.6
282.682	599.9
283.07	594.5
283.458	605.5
283.846	601.4
284.235	604.7
284.623	598.2
285.011	582.5
285.399	590.8
285.788	590.5
286.176	580.6
286.565	599.9
286.953	590.7
287.342	587.3
287.731	587.5
288.119	582.8
288.508	587.9
288.897	595.7
289.286	578
289.675	591
290.064	603.9
290.453	589.5
290.821	589.9
291.21	603.7
291.599	587.4
291.989	594.4
292.378	601.1
292.768	610
293.157	600.9
293.547	600.1
293.936	590.6
294.326	586.6
294.716	597.7
295.106	592.5
295.496	603.1
295.886	602.6
296.276	589.2
296.666	592.6
297.056	587.2
297.446	584.1
297.836	610.4
298.227	590.3
298.617	595.1
299.008	605.1
299.398	589.4
299.789	584.6
300.179	595.5
300.57	608.1
300.961	589.6
301.352	590.2
301.742	600.9
302.133	590.9
302.524	595.7
302.915	595.9
303.307	588
303.698	596.3
304.089	595.4
304.48	592.4
304.872	597.3
305.263	596
305.655	586.1
306.046	596.4
306.438	597.5
306.829	589.1
307.221	606.1
307.613	600.7
308.005	602
308.397	604.8
308.789	619.7
309.181	616.4
309.573	613.8
309.965	604.1
310.357	591
310.749	596.9
311.142	581.3
311.534	584.6
311.926	598
312.319	595.7
312.711	585.4
313.104	600.9
313.497	589.4
313.889	633.8
314.282	608
314.675	617.3
315.068	593.9
315.461	597.7
315.854	616.7
316.247	597.3
316.64	587.1
317.033	592.3
317.405	598.2
317.798	589.6
318.192	596.6
318.585	585.6
318.979	593.9
319.372	586.6
319.766	589.6
320.16	597
320.553	605.4
320.947	607.6
321.341	584.2
321.735	593.9
322.129	583.5
322.523	615.3
322.917	582.8
323.311	600.5
323.705	591.1
324.099	604.6
324.494	607.2
324.888	604.1
325.282	597.9
325.677	595.4
326.071	601.9
326.466	602.8
326.861	600.4
327.255	606.3
327.65	610.7
328.045	614.4
328.44	596.7
328.835	593.1
329.23	587.2
329.625	618.7
330.02	588.9
330.415	610.8
330.81	590.8
331.206	596.6
331.601	589.6
331.996	603.6
332.37	608.4
332.766	584.6
333.161	617.2
333.557	594
333.953	595.2
334.348	940.2
334.744	596
335.14	589.5
335.536	594.8
335.932	603.5
336.328	592.5
336.724	607.9
337.12	591.5
337.516	595.7
337.913	589.6
338.309	607.3
338.705	592.8
339.102	599.6
339.498	587.8
339.895	603.5
340.291	584.9
340.688	599.7
341.085	580.5
341.481	588.4
341.878	592.1
342.275	614.1
342.672	585.1
343.069	591.7
343.466	576.6
343.842	601.1
344.239	584.1
344.636	596.2
345.033	583
345.431	588.9
345.828	590.4
346.225	577.7
346.623	601.9
347.02	590
347.418	601.9
347.816	606.4
348.213	584
348.611	601.6
349.009	589.2
349.407	599.4
349.805	583
350.203	580.2
350.601	607.3
350.999	586.8
351.397	583.5
351.795	586.7
352.193	602.8
352.57	596.8
352.969	603.8
353.367	582.7
353.766	579
354.164	588.7
354.563	598.1
354.961	587.9
355.36	586.6
355.759	592.2
356.158	577.5
356.557	582.6
356.956	581.4
357.355	573.8
357.754	592.8
358.153	594.5
358.552	613.2
358.951	590.2
359.35	597.9
359.75	584.2
360.149	577.9
360.527	574.7
360.926	574.7
361.326	587.5
361.726	592.6
362.125	585.3
362.525	593.9
362.925	589.6
363.325	587.2
363.724	586.7
364.124	588.3
364.524	579.9
364.924	583
365.324	597.8
365.725	572.7
366.125	593.6
366.525	586.3
366.904	581.9
367.304	569.3
367.705	603.8
368.105	600.8
368.506	589.4
368.906	589.9
369.307	585.6
369.708	590.7
370.108	576.5
370.509	591
370.91	575.7
371.311	591.3
371.712	587.1
372.113	585.1
372.514	575.7
372.894	585.4
373.295	574.4
373.696	592
374.097	597
374.499	611
374.9	588.4
375.301	575.2
375.703	585.4
376.105	579.6
376.506	592.6
376.908	593.3
377.309	585
377.711	585.3
378.113	581.9
378.493	588.4
378.895	579.7
379.297	598.2
379.699	577.2
380.102	592.4
380.504	587.3
380.906	583.5
381.308	610.8
381.71	582.1
382.113	592.8
382.515	584
382.918	585.5
383.299	581.1
383.701	586.7
384.104	583.1
384.507	565.2
384.909	578.1
385.312	573.3
385.715	577.8
386.118	576.1
386.521	567
386.924	592
387.327	576.1
387.709	570.8
388.112	564.5
388.515	585
388.918	579.5
389.322	588.5
389.725	574.5
390.129	610.3
390.532	587.5
390.936	580.2
391.339	580.6
391.743	582
392.125	576
392.529	593.6
392.933	592.3
393.337	592
393.74	580.6
394.144	583.7
394.548	580.3
394.953	583.5
395.357	591.1
395.761	581.6
396.144	583.5
396.548	585.2
396.952	585
397.357	587.7
397.761	578.5
398.166	578.1
398.57	580.2
398.975	573.6
399.379	590.3
399.763	632.2
400.168	582.2
400.572	582.3
400.977	578.6
401.382	600.7
401.787	593.9
402.192	604.5
402.597	600.4
403.002	574.1
403.386	595.1
403.791	601.5
404.197	580.6
404.602	582.2
405.007	583.6
405.413	582.2
405.818	574.3
406.224	578.6
406.608	582.2
407.014	578.6
407.42	596
407.825	568.1
408.231	589
408.637	582.5
409.043	593.2
409.449	580.3
409.834	572.6
410.24	577.4
410.646	593.6
411.052	590.6
411.458	584
411.865	589.9
412.271	590.6
412.677	584.5
413.062	591
413.469	577.2
413.875	606.4
414.282	601.4
414.689	584.4
415.095	592.7
415.502	572.4
415.888	581.3
416.294	574.1
416.701	621.1
417.108	572.9
417.515	592.6
417.923	583.5
418.33	603.3
418.715	591.9
419.123	585.4
419.53	584.6
419.937	589.2
420.345	600.8
420.752	583.9
421.16	599.2
421.546	581
421.953	594.8
422.361	580.8
422.769	589
423.177	575.6
423.585	607.4
423.992	608.6
424.379	597.6
424.787	597.5
425.195	606.7
425.603	586.8
426.011	602.8
426.419	600.3
426.806	593.5
427.214	592
427.623	600.2
428.031	602.2
428.44	594
428.848	601.5
429.235	608.1
429.644	596.4
430.053	597.7
430.461	616.6
430.87	622.1
431.279	606.3
431.666	596.6
432.075	614.6
432.484	616.2
432.893	612.9
433.302	645.8
433.711	676.9
434.099	649.9
434.508	657.2
434.918	658.3
435.327	680.6
435.737	693.7
436.125	709
436.534	712.4
436.944	738.4
437.353	757.3
437.763	790.5
438.173	769.8
438.561	812.8
438.971	800
439.381	833.1
439.791	849.6
440.201	839.2
440.589	879.1
440.999	895.1
441.409	911.2
441.819	904.4
442.23	942.6
442.619	949.4
443.029	960.6
443.439	976
443.85	1008
444.26	1020.5
444.649	1023.5
445.06	1028.9
445.471	1038.5
445.881	1049.1
446.292	1078.5
446.682	1093.7
447.092	1067.9
447.503	1153.4
447.914	1103.9
448.325	1101.9
448.715	1109.1
449.126	1114.2
449.537	1122.8
449.948	1134.3
450.338	1131.1
450.75	1150.6
451.161	1156.4
451.572	1162.2
451.984	1154
452.374	1138.4
452.786	1159.4
453.197	1176.7
453.609	1173.3
453.999	1171.4
454.411	1184.4
454.823	1198.9
455.235	1190
455.647	1194.9
456.037	1193
456.449	1182.3
456.862	1197.1
457.274	1189.8
457.665	1190.1
458.077	1205.5
458.489	1217.4
458.902	1196.1
459.293	1209.2
459.705	1205.4
460.118	1204.1
460.53	1200.7
460.921	1208.5
461.334	1216.9
461.747	1217.4
462.16	1223.6
462.551	1225
462.964	1222.7
463.377	1193.8
463.79	1206.4
464.182	1218.4
464.595	1197.9
465.008	1210.6
465.421	1211.3
465.813	1198.7
466.226	1211.7
466.64	1196.4
467.053	1244
467.445	1211.6
467.859	1203.9
468.272	1195.7
468.686	1208.2
469.078	1195.4
469.492	1181.2
469.906	1190.9
470.298	1196.1
470.712	1176.2
471.126	1215.7
471.54	1165.3
471.933	1176.6
472.347	1175.6
472.761	1176
473.175	1160.3
473.568	1173.8
473.982	1148.6
474.397	1167.9
474.79	1168.5
475.204	1173.3
475.619	1157.5
476.033	1157.9
476.426	1153.8
476.841	1145
477.256	1159.7
477.649	1132.3
478.064	1130.4
478.479	1129.8
478.872	1126.1
479.287	1116.1
479.702	1121.2
480.118	1127.2
480.511	1121.5
480.927	1108
481.342	1108
481.736	1108.4
482.151	1097
482.566	1122.8
482.96	1100.2
483.376	1112.8
483.792	1096.9
484.186	1102.1
484.602	1087.8
485.017	1096.1
485.412	1085.3
485.827	1093.4
486.243	1081.7
486.638	1107.3
487.054	1079
487.47	1078.2
487.865	1065.6
488.281	1062.8
488.697	1064.6
489.092	1065.4
489.508	1055.1
489.925	1067.1
490.32	1036
490.736	1053
491.153	1038.7
491.548	1044.9
491.964	1037
492.381	1018.2
492.776	1041
493.193	1032
493.61	1035.3
494.006	1029.7
494.422	1027
494.84	1007
495.235	1026.8
495.652	1008.4
496.069	1011.1
496.465	993.8
496.883	998.4
497.3	1023.6
497.696	993.5
498.113	985.8
498.509	970.2
498.927	972.5
499.344	970.5
499.741	967.2
500.158	977.4
500.576	970
500.973	966.8
501.39	950.2
501.787	949.8
502.205	948.4
502.623	942.6
503.02	934.2
503.438	926.4
503.856	942.9
504.253	929.2
504.671	930.9
505.068	924.5
505.486	916.5
505.905	941.7
506.302	927.4
506.72	922.4
507.118	899.9
507.536	907.4
507.955	891.7
508.352	896.4
508.771	912.5
509.169	896.6
509.587	888.7
510.006	887.4
510.404	865.9
510.823	874.1
511.221	867
511.64	866.5
512.038	885.3
512.457	866.4
512.877	862.8
513.275	864.8
513.694	857.8
514.092	854.6
514.512	860.1
514.91	852.7
515.33	845.5
515.749	846.8
516.148	843.9
516.568	849.9
516.966	834.1
517.386	833.1
517.785	838.1
518.205	831.1
518.603	825.5
519.024	822.5
519.444	825.5
519.843	832.6
520.263	823.8
520.662	815.7
521.082	811.6
521.481	812.9
521.902	813.4
522.301	804.3
522.722	800.6
523.121	789.4
523.542	791.9
523.963	797.4
524.362	799.5
524.783	795.2
525.183	785.7
525.604	781.5
526.003	771
526.425	765.7
526.824	780.5
527.246	786.3
527.646	783.3
528.067	772.7
528.467	768.7
528.888	765.6
529.289	759.3
529.71	765.9
530.11	752.1
530.532	752.5
530.932	750.8
531.354	750.7
531.755	782.6
532.176	759.1
532.577	739.8
532.999	741.1
533.4	745.8
533.822	747.6
534.223	740.2
534.645	735.1
535.046	731.2
535.468	739.7
535.869	743.8
536.292	725.3
536.693	726.2
537.115	726.8
537.516	717.5
537.939	721.6
538.34	736.3
538.742	732
539.165	724
539.566	721.6
539.989	714.8
540.391	713.3
540.814	713.5
541.216	716.1
541.639	712.8
542.041	721.8
542.464	706.6
542.866	702.2
543.268	698.1
543.691	709.3
544.093	713.2
544.517	727
544.919	700.1
545.343	730.4
545.745	687.9
546.147	704.5
546.571	695.1
546.974	692.2
547.398	691.4
547.8	706.9
548.224	692.9
548.627	684.1
549.03	691.7
549.454	688.9
549.857	678
550.281	677.9
550.684	681.1
551.087	694.9
551.512	676.9
551.915	683.2
552.34	671.6
552.743	671.7
553.146	672.8
553.571	677.6
553.975	695.5
554.399	663
554.803	715.7
555.207	667.6
555.632	658.3
556.036	668.8
556.461	650.6
556.865	668.9
557.268	654.4
557.694	662.7
558.098	666.9
558.502	660.5
558.927	652.3
559.332	655.7
559.736	659.9
560.162	667.1
560.566	651.1
560.992	660
561.396	659
561.801	650.8
562.227	651.5
562.631	647.5
563.036	645
563.462	653.4
563.867	650
564.272	631.5
564.698	642.5
565.103	630.8
565.508	659.7
565.935	640.4
566.34	639.1
566.745	652.1
567.172	639.5
567.577	658
567.982	652.4
568.409	637.7
568.815	630.1
569.22	640.8
569.626	642.8
570.053	621.7
570.459	632.5
570.865	635.9
571.292	639.9
571.698	633.4
572.104	615.7
572.531	624.9
572.937	637.2
573.343	626.7
573.75	618.1
574.177	628.9
574.583	630
574.99	625.8
575.396	630.4
575.824	618.7
576.231	627
576.637	614.9
577.065	642.6
577.472	616.1
577.879	621.3
578.286	635.6
578.714	616.9
579.121	618.8
579.528	619.7
579.935	628.6
580.364	616.7
580.771	599.4
581.178	608.5
581.585	616.7
582.014	624.6
582.421	612.9
582.829	619
583.236	620.3
583.644	607.5
584.073	610.1
584.481	610
584.889	607.8
585.296	619.5
585.726	612.5
586.134	602.1
586.542	601.2
586.95	620.5
587.358	598.5
587.787	607.1
588.196	597.1
588.604	604.8
589.012	608.4
589.421	599.6
589.851	599.3
590.259	605.1
590.668	598.8
591.076	637.5
591.485	597.3
591.894	600.1
592.324	612.9
592.733	609.6
593.142	588.2
593.551	598.5
593.96	608.3
594.369	584.6
594.8	588.7
595.209	593.8
595.618	582
596.028	588.4
596.437	586.5
596.847	595.5
597.256	595.7
597.687	599.5
598.097	587.3
598.507	582
598.917	591.5
599.327	599.7
599.736	588.7
600.146	600.7
600.556	589.1
600.988	600.1
601.398	584.7
601.808	596.1
602.219	574.9
602.629	586.3
603.039	580.1
603.45	607.5
603.86	587.8
604.271	603.4
604.703	588.7
605.114	583.6
605.525	587.1
605.935	588.7
606.346	603.4
606.757	589.3
607.168	590.3
607.579	579.8
607.99	595.5
608.402	583.8
608.813	591.2
609.224	578.1
609.636	572.6
610.047	575.5
610.48	580.5
610.892	589
611.303	592.2
611.715	579.5
612.127	578
612.539	575.5
612.95	587.1
613.362	572.3
613.774	571.2
614.186	580.2
614.599	575.4
615.011	597.7
615.423	579.5
615.835	576.1
616.248	574.7
616.66	588.3
617.073	572
617.485	582.3
617.898	588.8
618.311	586.3
618.723	583
619.136	611
619.549	593.3
619.962	602.5
620.375	576.1
620.788	583.3
621.201	572.9
621.614	592.6
622.028	578.3
622.441	580.1
622.854	597.9
623.268	576.5
623.681	582
624.095	580.5
624.509	589.8
624.922	585.5
625.336	567.9
625.728	582.1
626.142	588.3
626.556	595.4
626.97	586.9
627.384	576.1
627.799	579.1
628.213	591.7
628.627	576.8
629.041	576.6
629.456	573.8
629.87	578.5
630.285	584.7
630.699	583.4
631.093	577.9
631.507	581.1
631.922	582.8
632.337	587.8
632.752	570
633.167	579.1
633.582	576.3
633.997	573.6
634.412	571.1
634.806	573.1
635.221	570.2
635.637	584.2
636.052	564.6
636.468	574
636.883	596
637.299	569.1
637.715	560.8
638.109	572.3
638.525	562.9
638.941	587.4
639.357	573.2
639.773	582.3
640.189	569.3
640.584	570.9
641	582.9
641.416	565.4
641.832	573.8
642.249	563.3
642.665	570.3
643.06	577.5
643.477	582.6
643.894	561.3
644.31	573.4
644.727	570
645.123	573
645.54	570.9
645.957	572
646.374	577.8
646.77	573.5
647.187	603.8
647.604	571.6
648.021	554
648.439	559.9
648.835	574.7
649.252	576.2
649.67	570.6
650.088	577.5
650.484	575.6
650.902	578.3
651.32	583.2
651.738	569
652.134	578.4
652.552	589.9
652.971	576.6
653.389	573.4
653.786	587.7
654.204	569.8
654.622	560.6
655.019	571.5
655.438	573.1
655.857	572.6
656.275	566.4
656.673	561.9
657.091	648.8
657.51	564.9
657.908	576.9
658.327	586.4
658.746	565.4
659.144	575
659.563	583.8
659.982	574.7
660.38	561.1
660.8	566.3
661.219	577.8
661.617	571.5
662.037	567.1
662.457	588.9
662.855	560.1
663.275	598.6
663.695	568.9
664.094	567.3
664.514	573
664.934	565
665.333	572.3
665.753	564.2
666.152	556.6
666.572	558.3
666.993	582.5
667.392	562.2
667.812	563.2
668.212	567
668.632	579.7
669.053	563.1
669.453	580
669.874	570.6
670.273	566.6
670.694	565.1
671.116	575
671.515	582.6
671.937	562
672.337	565.5
672.758	569.2
673.158	574.9
673.58	563.3
673.98	570.5
674.402	574.7
674.824	571
675.224	559.2
675.646	557.5
676.047	559.4
676.469	563.8
676.869	573.4
677.292	567.5
677.693	560.3
678.115	567.6
678.516	571.4
678.939	572.2
679.34	568.7
679.762	578.6
680.164	574.1
680.586	560.7
680.988	569.5
681.411	593.9
681.812	564.4
682.236	558.4
682.637	550.1
683.061	559.4
683.462	565.7
683.864	563.2
684.288	570.7
684.69	558.4
685.114	575.7
685.516	570.9
685.94	559
686.342	572.1
686.766	560
687.168	555.9
687.571	583.7
687.995	563.1
688.398	551.3
688.822	559.6
689.225	579.1
689.628	581
690.052	561.9
690.456	573.3
690.88	561.2
691.284	556
691.687	570.3
692.112	555.1
692.515	551.8
692.919	562.3
693.344	566.2
693.747	555
694.173	553.9
694.577	569
694.98	561.6
695.406	557.9
695.81	558.6
696.214	569.9
696.64	562.6
697.044	566
697.448	566.4
697.874	557.8
698.279	559.8
698.684	554
699.11	553.3
699.514	558.7
699.919	560
700.324	553.1
700.75	560.8
701.156	561.4
701.561	574.5
701.987	570.9
702.393	577.6
702.798	572.1
703.203	561.7
703.63	558.5
704.036	560.9
704.442	565
704.847	555
705.274	561.1
705.68	566.7
706.086	567
706.492	546.6
706.92	561
707.326	575.7
707.732	558.2
708.139	556.8
708.545	552.2
708.973	554.4
709.38	558.6
709.786	547.2
710.193	578.8
710.6	561.5
711.028	552.5
711.435	562.5
711.842	561.9
712.249	559.1
712.656	563.8
713.064	570.9
713.492	553.3
713.9	563.4
714.307	569.6
714.715	560.8
715.123	567.8
715.53	560.2
715.938	566.8
716.367	560.4
716.775	561.4
717.184	556.2
717.592	559.8
718	567.2
718.408	594.1
718.816	606.8
719.225	567.6
719.633	561.4
720.042	548.4
720.472	554.4
720.881	580.4
721.29	565.9
721.699	551.6
722.108	561.5
722.517	565.5
722.926	555.9
723.335	568.3
723.744	564.7
724.154	559
724.563	562.2
724.973	562.9
725.382	565
725.792	565.3
726.202	555.5
726.612	576.7
727.022	560.5
727.432	558.1
779.813	555.7
780.223	603.5
780.634	557.4
781.044	554.1
781.454	557.8
781.865	574.3
782.276	559.3
782.686	569.9
783.097	560.2
783.508	558
783.919	560.1
784.33	569.9
784.741	576.7
785.152	557.2
785.563	550.5
785.974	551.5
786.386	565.4
786.776	555.3
787.188	555.2
787.599	557.6
788.011	566.7
788.423	560.2
788.835	561
789.247	548.6
789.659	550.2
790.071	554
790.483	603.6
790.874	559.1
791.286	569.9
791.699	554.3
792.111	561.4
792.524	563.9
792.937	561.8
793.349	552.2
793.741	551.5
794.154	550.3
794.567	576.4
794.98	561.7
795.393	552.4
795.785	575.7
796.198	554.3
796.612	558.5
797.026	556.4
797.439	544.4
797.831	555
798.245	556.6
798.659	558.5
799.073	557.9
799.487	550.9
799.88	559.6
800.294	560.1
800.708	564.2
801.123	554.2
801.516	575.2
801.93	541.5
802.345	546.8
802.76	562.4
803.153	568.5
803.568	572
803.983	567.3
804.377	568.3
804.792	544.7
805.207	544.2
805.601	561.5
806.016	592
806.432	550.4
806.826	586.3
807.242	566.6
807.658	567.1
808.052	555
808.468	555.6
808.884	551.7
809.279	557.9
809.695	571.5
810.111	585
810.506	563.6
810.922	573
811.339	552.1
811.734	568.8
812.151	557.4
812.546	554.4
812.963	552.9
813.38	556.8
813.776	560.5
814.193	579.3
814.589	553.6
815.006	560.9
815.402	553
815.82	550.3
816.237	553.8
816.633	556.3
817.051	551.8
817.448	561.3
817.866	545.3
818.262	579.3
818.68	554.4
819.077	555.3
819.495	556.7
819.892	597.1
820.311	554.4
820.708	552.4
821.127	554.4
821.524	572.3
821.943	556.6
822.34	572.1
822.759	558.1
823.157	558.9
823.576	572.8
823.974	567.1
824.393	569
824.791	554.7
825.189	545.8
825.609	553.8
826.007	560.7
826.427	547.6
826.826	550.5
827.246	563.3
827.644	546.7
828.043	568.6
828.463	555.7
828.862	564.3
829.261	562.8
829.682	547.2
830.081	559.7
830.502	558
830.901	558
831.301	552.2
831.722	548
832.121	559.1
832.521	549.4
832.943	561.1
833.342	556.6
833.742	551.8
834.164	553.3
834.564	554.2
834.965	556.6
835.386	558.5
835.787	549
836.188	552.2
836.588	558
837.01	559.6
837.411	551
837.812	563
838.213	551.4
838.636	551.5
839.037	621
839.438	559.7
839.84	557.1
840.263	558.2
840.664	557.2
841.066	548.4
841.468	557.9
841.891	545.2
842.293	565.9
842.695	554.7
843.098	562.9
843.5	551.2
843.902	559.3
844.326	553.2
844.729	557.4
