#lambda/nm	C1
208.295	471.2
208.67	438.1
209.045	400.7
209.419	404.9
209.794	594.6
210.169	581.3
210.544	699.4
210.919	594.9
211.295	579.5
211.67	592.2
212.045	583.7
212.421	585.7
212.796	625.4
213.172	580.1
213.547	586.6
213.923	587.7
214.299	577.2
214.675	598.3
215.051	594
215.427	596.3
215.803	610.2
216.179	593.5
216.555	583.4
216.932	591
217.308	587
217.684	589.9
218.061	593.4
218.438	593.6
218.814	590.3
219.191	599.3
219.568	581.6
219.945	587.4
220.322	600
220.699	595.4
221.076	605.7
221.453	595.9
221.83	586
222.208	590.5
222.585	590.6
222.962	593.2
223.34	596.9
223.717	592.7
224.095	587.8
224.473	597.8
224.851	583.7
225.229	583.3
225.607	604.9
225.985	581.4
226.363	593.1
226.741	594.7
227.119	592.5
227.497	604.8
227.876	581.9
228.254	597
228.633	600
229.011	592.7
229.39	596.1
229.769	596.6
230.148	599.4
230.527	610.8
230.905	592.7
231.284	595.4
231.664	581.7
232.043	602.8
232.422	598.9
232.801	584.8
233.181	597.2
233.56	588.5
233.94	591.9
234.319	576.3
234.699	589.5
235.079	631.2
235.458	625.2
235.838	608
236.218	585.2
236.598	577.4
236.978	584
237.358	586
237.738	588.8
238.119	598.5
238.499	583.5
238.88	592
239.26	609.2
239.641	583.5
240.021	585.1
240.402	589.2
240.783	587.6
241.163	587.5
241.544	592.3
241.925	588.8
242.306	602.3
242.687	586.8
243.069	591.3
243.45	606.2
243.831	586.1
244.212	586.8
244.594	624.4
244.975	598.5
245.357	591
245.739	581.1
246.12	595.7
246.502	604.8
246.884	586.3
247.266	589.5
247.648	596.8
248.03	610.9
248.412	598.5
248.794	598.2
249.176	584.8
249.559	604.4
249.941	591.3
250.323	582
250.706	584.6
251.089	584.8
251.471	599.3
251.854	589.5
252.237	588
252.62	602.6
253.002	590.2
253.385	591.1
253.769	607.1
254.152	592.3
254.535	597.1
254.918	585.5
255.301	594.9
255.685	588.1
256.068	582.2
256.452	618.5
256.835	598.1
257.219	598.8
257.603	607.9
257.986	585.1
258.37	596.4
258.754	585.4
259.138	599.9
259.522	599.9
259.906	590.2
260.29	590.3
260.675	589.7
261.059	593.8
261.443	587.7
261.828	598
262.212	595.9
262.597	581.1
262.981	586.5
263.366	592.1
263.751	595.6
264.136	592.9
264.521	590.2
264.906	581.2
265.291	602.9
265.676	594.2
266.061	598.7
266.446	614
266.831	595.8
267.217	613.2
267.602	597.3
267.987	590.1
268.373	592
268.759	598.1
269.144	594.1
269.53	591
269.916	588.9
270.302	586.1
270.688	592.2
271.074	588.9
271.46	602.5
271.846	617.8
272.232	593.2
272.618	584.9
273.004	591.6
273.391	598.5
273.777	604.6
274.164	590.5
274.55	605.3
274.937	594.2
275.324	593.6
275.71	598.2
276.097	602.8
276.484	581.1
276.871	598.3
277.258	591.8
277.645	582.4
278.032	590.3
278.419	590.1
278.807	594
279.194	583.7
279.581	589.8
279.969	594.6
280.356	593
280.744	594.2
281.131	614.6
281.519	602.8
281.907	590.3
282.295	582
282.682	605.9
283.07	594
283.458	595.4
283.846	606.8
284.235	602.2
284.623	599.8
285.011	582.1
285.399	591
285.788	588.1
286.176	585.4
286.565	606.1
286.953	583.3
287.342	587
287.731	583.8
288.119	586.7
288.508	586.4
288.897	591.8
289.286	580.1
289.675	591.7
290.064	606.7
290.453	591.2
290.821	595.3
291.21	606.2
291.599	590.6
291.989	590.8
292.378	600.1
292.768	607.2
293.157	596.7
293.547	603.2
293.936	593.5
294.326	588.2
294.716	596.2
295.106	584.6
295.496	599
295.886	603.3
296.276	590.7
296.666	583.9
297.056	583.6
297.446	581.8
297.836	613.1
298.227	589.6
298.617	596.4
299.008	609.7
299.398	592.3
299.789	592.1
300.179	598.1
300.57	607.8
300.961	588.9
301.352	587.7
301.742	604.9
302.133	592.5
302.524	592.2
302.915	589.2
303.307	584.4
303.698	605.2
304.089	596.5
304.48	595.1
304.872	596.6
305.263	592.6
305.655	589.4
306.046	596.6
306.438	599.3
306.829	586.4
307.221	606.9
307.613	596
308.005	606.6
308.397	607.3
308.789	617.7
309.181	620.2
309.573	611.2
309.965	603.3
310.357	594.1
310.749	594.9
311.142	587
311.534	592.8
311.926	604.5
312.319	591.6
312.711	593.9
313.104	605.3
313.497	592.8
313.889	633.1
314.282	611.8
314.675	614.7
315.068	594.7
315.461	603.4
315.854	624.2
316.247	604.4
316.64	593.3
317.033	596.8
317.405	606.4
317.798	595.8
318.192	595.6
318.585	586.2
318.979	602.8
319.372	588.3
319.766	596
320.16	603.8
320.553	612.1
320.947	615
321.341	594
321.735	594.9
322.129	579.3
322.523	616.9
322.917	583.8
323.311	601
323.705	597.2
324.099	600.3
324.494	608.8
324.888	605.8
325.282	594
325.677	600
326.071	599.3
326.466	610.4
326.861	601.9
327.255	606.2
327.65	611.4
328.045	613.5
328.44	597.5
328.835	592.2
329.23	587.6
329.625	618.9
330.02	593
330.415	617.7
330.81	600.2
331.206	597.1
331.601	585.1
331.996	607
332.37	600.1
332.766	584.6
333.161	617.1
333.557	589.1
333.953	597.9
334.348	947.6
334.744	592.8
335.14	592.1
335.536	587.1
335.932	604.6
336.328	592.1
336.724	602.7
337.12	593.2
337.516	599
337.913	594.4
338.309	607.6
338.705	595.3
339.102	606.5
339.498	589.7
339.895	612.2
340.291	588.6
340.688	599.9
341.085	587
341.481	593.6
341.878	596.3
342.275	615.8
342.672	583.9
343.069	584.2
343.466	581.2
343.842	603.3
344.239	585.5
344.636	590.8
345.033	587.5
345.431	592.1
345.828	596.4
346.225	589.7
346.623	598.7
347.02	594.1
347.418	600.5
347.816	609.5
348.213	581.7
348.611	591
349.009	588.4
349.407	602.5
349.805	585.1
350.203	578
350.601	603
350.999	588.6
351.397	592.7
351.795	593.3
352.193	604.4
352.57	596.3
352.969	605.6
353.367	581.7
353.766	581.5
354.164	591.6
354.563	604.4
354.961	591.4
355.36	589.6
355.759	589.9
356.158	582.4
356.557	584.8
356.956	583
357.355	575
357.754	594.2
358.153	592.7
358.552	616
358.951	591.3
359.35	598
359.75	583.6
360.149	580.8
360.527	581.3
360.926	587.8
361.326	590.5
361.726	593.4
362.125	580.6
362.525	596.4
362.925	582.4
363.325	592.7
363.724	588.6
364.124	581.1
364.524	584
364.924	584.3
365.324	601.2
365.725	572.4
366.125	585.1
366.525	582.9
366.904	578.3
367.304	568.3
367.705	601.6
368.105	594.9
368.506	585.9
368.906	590
369.307	589.6
369.708	595
370.108	575.1
370.509	593.5
370.91	576.4
371.311	592
371.712	584.1
372.113	585.6
372.514	575.8
372.894	586.3
373.295	573.7
373.696	595.8
374.097	592.6
374.499	609.9
374.9	587.1
375.301	581.6
375.703	583.1
376.105	585.8
376.506	600.9
376.908	587.4
377.309	583.3
377.711	590.6
378.113	579
378.493	587.5
378.895	581.8
379.297	591.3
379.699	578.2
380.102	590.8
380.504	581.8
380.906	580.5
381.308	610.1
381.71	588.8
382.113	593.2
382.515	581.6
382.918	589.1
383.299	577.9
383.701	592
384.104	584.3
384.507	564.4
384.909	588.2
385.312	573.6
385.715	577.5
386.118	579.7
386.521	579
386.924	591.4
387.327	582.9
387.709	571
388.112	575
388.515	582.9
388.918	586.1
389.322	593.5
389.725	582
390.129	606.9
390.532	589.1
390.936	581.6
391.339	572.6
391.743	590.3
392.125	580.3
392.529	592.5
392.933	596.3
393.337	584.3
393.74	580.9
394.144	589.2
394.548	573.1
394.953	580.8
395.357	587.4
395.761	577.4
396.144	582.5
396.548	585.1
396.952	581.7
397.357	581.7
397.761	585.3
398.166	578.5
398.57	582.9
398.975	575.3
399.379	582.6
399.763	636.8
400.168	583.8
400.572	586.3
400.977	580.2
401.382	605.4
401.787	590.7
402.192	609.7
402.597	600.1
403.002	571.8
403.386	601.8
403.791	600.5
404.197	580
404.602	584.6
405.007	583.9
405.413	575.7
405.818	577.4
406.224	575.5
406.608	583.6
407.014	577.1
407.42	606.7
407.825	579
408.231	594.1
408.637	590
409.043	598
409.449	580.3
409.834	579.4
410.24	580.3
410.646	596.2
411.052	595.1
411.458	595.5
411.865	596.2
412.271	603.8
412.677	587.1
413.062	586.5
413.469	570.9
413.875	612.6
414.282	601.3
414.689	584.2
415.095	594.7
415.502	580.6
415.888	586.3
416.294	577
416.701	632.2
417.108	579.7
417.515	593.2
417.923	584.3
418.33	607.7
418.715	597
419.123	579.4
419.53	583.3
419.937	595.2
420.345	600.3
420.752	586.6
421.16	603.7
421.546	586.5
421.953	595.4
422.361	586.1
422.769	585.1
423.177	578
423.585	611
423.992	609.1
424.379	597
424.787	594.1
425.195	613.5
425.603	590
426.011	607.3
426.419	609.7
426.806	586.4
427.214	590.5
427.623	604.2
428.031	602.2
428.44	584
428.848	596.6
429.235	601.9
429.644	590.1
430.053	588.8
430.461	606.4
430.87	617
431.279	595.2
431.666	590.1
432.075	593.4
432.484	595.9
432.893	587
433.302	605.4
433.711	636.8
434.099	594.5
434.508	585.8
434.918	577.5
435.327	594.8
435.737	589.8
436.125	593.9
436.534	589.4
436.944	596.8
437.353	586.2
437.763	611.3
438.173	577.4
438.561	595.9
438.971	575.8
439.381	586.8
439.791	589.6
440.201	567.3
440.589	588.2
440.999	589.9
441.409	589.4
441.819	575.3
442.23	594.7
442.619	597.3
443.029	587.5
443.439	594.2
443.85	602.3
444.26	604.7
444.649	594.8
445.06	584.7
445.471	582.6
445.881	588.7
446.292	605.8
446.682	608.3
447.092	571.9
447.503	634.3
447.914	588.9
448.325	587.8
448.715	588.6
449.126	581.7
449.537	588.5
449.948	586.8
450.338	591.8
450.75	589
451.161	587.7
451.572	597.3
451.984	578.7
452.374	571.8
452.786	584
453.197	590.8
453.609	595.5
453.999	573.2
454.411	577.6
454.823	598.1
455.235	585.5
455.647	581.5
456.037	588.9
456.449	571.2
456.862	584.5
457.274	584.1
457.665	574.9
458.077	592.1
458.489	591.4
458.902	582.6
459.293	586.5
459.705	587.5
460.118	578.3
460.53	578.4
460.921	582.6
461.334	580
461.747	584.7
462.16	598.7
462.551	597.4
462.964	590.1
463.377	572.3
463.79	581
464.182	594.5
464.595	571.5
465.008	582.5
465.421	587
465.813	578.9
466.226	588.5
466.64	576.6
467.053	625.5
467.445	591
467.859	585.7
468.272	584.3
468.686	591.6
469.078	582.3
469.492	568.8
469.906	586.2
470.298	588.3
470.712	581.3
471.126	611.2
471.54	570.3
471.933	567.7
472.347	578.3
472.761	570.9
473.175	567.7
473.568	584
473.982	570.6
474.397	575.4
474.79	580.4
475.204	584.6
475.619	574.4
476.033	579.9
476.426	581.6
476.841	570.6
477.256	599.4
477.649	570.4
478.064	572.9
478.479	571.4
478.872	570.2
479.287	566.4
479.702	569.1
480.118	578.1
480.511	576
480.927	563.6
481.342	572.8
481.736	579.6
482.151	576.8
482.566	588.9
482.96	576.4
483.376	584.8
483.792	569.8
484.186	581.3
484.602	579.6
485.017	578.7
485.412	582.2
485.827	581.5
486.243	578.9
486.638	611.1
487.054	591.1
487.47	596.1
487.865	580.8
488.281	577.2
488.697	572.5
489.092	580.9
489.508	571.7
489.925	591.7
490.32	568.9
490.736	585.8
491.153	579.7
491.548	588.8
491.964	590.2
492.381	562.7
492.776	579.7
493.193	578.9
493.61	591.4
494.006	582.3
494.422	586.9
494.84	575
495.235	586.7
495.652	576.9
496.069	572.5
496.465	561.2
496.883	574.2
497.3	600.3
497.696	572.1
498.113	580.1
498.509	565.5
498.927	565.2
499.344	576.7
499.741	572.2
500.158	585.1
500.576	585
500.973	579.2
501.39	569.6
501.787	567.1
502.205	576.5
502.623	568.6
503.02	565.2
503.438	571.3
503.856	573.5
504.253	581
504.671	573.8
505.068	570.2
505.486	569.8
505.905	598.2
506.302	578.7
506.72	584.5
507.118	575
507.536	576.1
507.955	574
508.352	577.5
508.771	586.1
509.169	578.2
509.587	571.1
510.006	575.2
510.404	564.6
510.823	574.5
511.221	573.7
511.64	570.9
512.038	586.6
512.457	575.3
512.877	578.9
513.275	568.5
513.694	578.5
514.092	570.4
514.512	578.3
514.91	571.3
515.33	579.2
515.749	576
516.148	584.1
516.568	581.8
516.966	573.6
517.386	573.2
517.785	574
518.205	569.5
518.603	572
519.024	572.3
519.444	579
519.843	584.5
520.263	581.3
520.662	581.6
521.082	575.5
521.481	573
521.902	575.1
522.301	573.2
522.722	577.5
523.121	572.5
523.542	565.3
523.963	565.4
524.362	576.3
524.783	574.9
525.183	574.9
525.604	574.1
526.003	572.1
526.425	564.9
526.824	577.9
527.246	581
527.646	581.4
528.067	576.2
528.467	570.9
528.888	579.1
529.289	574
529.71	579.4
530.11	570.2
530.532	570.6
530.932	562.6
531.354	561.9
531.755	606.9
532.176	581.5
532.577	567.3
532.999	570.8
533.4	567.9
533.822	581.4
534.223	584.2
534.645	567.7
535.046	570.4
535.468	568.4
535.869	587.1
536.292	567.2
536.693	571.7
537.115	576.7
537.516	569.8
537.939	574.4
538.34	592.4
538.742	587.6
539.165	578.7
539.566	573.1
539.989	566.7
540.391	575.4
540.814	573.8
541.216	576.1
541.639	573.7
542.041	573.3
542.464	563.1
542.866	567.4
543.268	565
543.691	577.3
544.093	578.3
544.517	597.3
544.919	564.4
545.343	597.6
545.745	564.3
546.147	579.6
546.571	578.4
546.974	567.6
547.398	575.5
547.8	589.1
548.224	564.7
548.627	562.9
549.03	582.2
549.454	562.7
549.857	560.5
550.281	562.2
550.684	566.8
551.087	588.9
551.512	574.3
551.915	576.5
552.34	569.3
552.743	568.7
553.146	576.7
553.571	569
553.975	586.9
554.399	568.6
554.803	618.8
555.207	566.2
555.632	567.7
556.036	571.3
556.461	563.8
556.865	568.2
557.268	564.9
557.694	566.3
558.098	577.4
558.502	574.3
558.927	570.9
559.332	567.5
559.736	570
560.162	577.1
560.566	573.2
560.992	575.2
561.396	572.2
561.801	570.8
562.227	570.1
562.631	566.8
563.036	569.5
563.462	582.7
563.867	573.6
564.272	558.2
564.698	575.2
565.103	563.8
565.508	586.3
565.935	574.4
566.34	564
566.745	575
567.172	566.9
567.577	590.4
567.982	578.5
568.409	573.2
568.815	556.6
569.22	568
569.626	569.1
570.053	551.9
570.459	574.1
570.865	568.1
571.292	579.1
571.698	573.1
572.104	567.4
572.531	563.5
572.937	582.7
573.343	571.4
573.75	567.4
574.177	573.4
574.583	580.1
574.99	564.7
575.396	574.6
575.824	568.8
576.231	573.7
576.637	565.8
577.065	593.7
577.472	563.9
577.879	567.2
578.286	582.1
578.714	565.7
579.121	567.1
579.528	571.7
579.935	576.2
580.364	564.7
580.771	552.8
581.178	559.6
581.585	575.8
582.014	576.2
582.421	566.5
582.829	567.5
583.236	575.9
583.644	563.9
584.073	569.3
584.481	573.8
584.889	561.1
585.296	568.4
585.726	565.3
586.134	559.2
586.542	563.5
586.95	587.6
587.358	559.3
587.787	563.4
588.196	558.6
588.604	563.3
589.012	566.3
589.421	557.3
589.851	560.9
590.259	576.1
590.668	566.9
591.076	607.2
591.485	564.7
591.894	559.9
592.324	580.1
592.733	583.2
593.142	557.5
593.551	575.5
593.96	604.6
594.369	557.3
594.8	556.6
595.209	563.2
595.618	550.1
596.028	565.5
596.437	564.1
596.847	568.3
597.256	571.6
597.687	574.8
598.097	570.1
598.507	560.1
598.917	566.7
599.327	575.5
599.736	572.6
600.146	580.9
600.556	572.3
600.988	580
601.398	569.3
601.808	584.3
602.219	561.1
602.629	569.1
603.039	572.8
603.45	597.5
603.86	570.9
604.271	589.4
604.703	570.9
605.114	571.6
605.525	573.2
605.935	578.6
606.346	587.8
606.757	573
607.168	567.2
607.579	567.5
607.99	575.6
608.402	568.8
608.813	572.2
609.224	562.2
609.636	558.2
610.047	560.7
610.48	569.4
610.892	578.4
611.303	580.5
611.715	567.1
612.127	564.4
612.539	565.6
612.95	575.4
613.362	557.4
613.774	554.4
614.186	562.7
614.599	562.9
615.011	576
615.423	556.3
615.835	559.9
616.248	563.7
616.66	568.7
617.073	557.9
617.485	557.2
617.898	575.2
618.311	566.5
618.723	563.9
619.136	592.8
619.549	579.9
619.962	584.2
620.375	562.6
620.788	569.3
621.201	559.6
621.614	570.4
622.028	565.5
622.441	572.6
622.854	585.3
623.268	562
623.681	568.8
624.095	567.4
624.509	566.9
624.922	571.2
625.336	562.5
625.728	565.4
626.142	571.1
626.556	584.2
626.97	576.5
627.384	561
627.799	567.9
628.213	574.3
628.627	565.6
629.041	563.5
629.456	562.6
629.87	570.7
630.285	574.5
630.699	574.7
631.093	564.2
631.507	566.5
631.922	567.9
632.337	577.2
632.752	559.2
633.167	569.1
633.582	567.7
633.997	556.9
634.412	560.2
634.806	569.2
635.221	559.1
635.637	574.7
636.052	550.8
636.468	566.1
636.883	581
637.299	566.9
637.715	552.5
638.109	568.9
638.525	558.9
638.941	580.8
639.357	569.7
639.773	576.9
640.189	556.9
640.584	565.1
641	576.1
641.416	553.4
641.832	562.2
642.249	567.2
642.665	564.3
643.06	567.9
643.477	569.4
643.894	554
644.31	565.3
644.727	567.3
645.123	563.9
645.54	559.5
645.957	564.4
646.374	571.8
646.77	565
647.187	593.8
647.604	562.9
648.021	551.4
648.439	554.4
648.835	572.3
649.252	567
649.67	565.5
650.088	569.6
650.484	568.2
650.902	572.3
651.32	573.1
651.738	564.6
652.134	568.2
652.552	587.4
652.971	574.5
653.389	561.4
653.786	580.8
654.204	563.3
654.622	552.8
655.019	566.9
655.438	576.1
655.857	571.1
656.275	569.9
656.673	560.1
657.091	632.3
657.51	563.1
657.908	567.1
658.327	585.5
658.746	554.7
659.144	565.1
659.563	575.4
659.982	569.2
660.38	553.3
660.8	562.7
661.219	570.5
661.617	569.4
662.037	559
662.457	569.5
662.855	550.7
663.275	591.1
663.695	558.5
664.094	559.7
664.514	569.4
664.934	558.7
665.333	574.7
665.753	557.4
666.152	556.6
666.572	554.1
666.993	575
667.392	558.6
667.812	562.5
668.212	560.2
668.632	572.6
669.053	563.1
669.453	569.2
669.874	565.3
670.273	567.2
670.694	555.4
671.116	572.7
671.515	565.6
671.937	561.4
672.337	559.9
672.758	562.7
673.158	572.3
673.58	558.7
673.98	570.6
674.402	572.7
674.824	559.4
675.224	566
675.646	560.3
676.047	565.4
676.469	561.1
676.869	567.7
677.292	569
677.693	560.7
678.115	557.4
678.516	568.3
678.939	569.7
679.34	564.8
679.762	577.9
680.164	572.7
680.586	565.8
680.988	565.4
681.411	586.6
681.812	559.5
682.236	557.6
682.637	560.1
683.061	550.4
683.462	557.8
683.864	560.7
684.288	567.4
684.69	557.8
685.114	576
685.516	571.6
685.94	556.8
686.342	564.9
686.766	560.4
687.168	558.6
687.571	582.5
687.995	562.5
688.398	549.1
688.822	559
689.225	579.1
689.628	587
690.052	558.1
690.456	568.7
690.88	563.4
691.284	552.6
691.687	568.9
692.112	553.6
692.515	555.3
692.919	568.8
693.344	573.7
693.747	555.8
694.173	557.9
694.577	577.5
694.98	555.8
695.406	562.9
695.81	566
696.214	571.4
696.64	564.2
697.044	572.5
697.448	572.6
697.874	563
698.279	558.8
698.684	555.9
699.11	558.1
699.514	563.3
699.919	562.9
700.324	554.9
700.75	559.4
701.156	558.9
701.561	575.6
701.987	570.5
702.393	567.9
702.798	575.7
703.203	567.6
703.63	562.6
704.036	561.8
704.442	562.2
704.847	552.4
705.274	564.3
705.68	568.1
706.086	579.8
706.492	552.4
706.92	561.2
707.326	571.4
707.732	567.1
708.139	555
708.545	556.8
708.973	557.8
709.38	563.8
709.786	555
710.193	572.4
710.6	566.4
711.028	555.4
711.435	567.8
711.842	557.8
712.249	564.6
712.656	564.3
713.064	571.6
713.492	548.4
713.9	558.6
714.307	565.9
714.715	562
715.123	567.8
715.53	562.1
715.938	575.8
716.367	561.6
716.775	559
717.184	557.4
717.592	558.1
718	568.8
718.408	598.9
718.816	600.7
719.225	563.4
719.633	565.7
720.042	552.8
720.472	561.8
720.881	582.7
721.29	568.3
721.699	557.1
722.108	563.8
722.517	566.3
722.926	557.1
723.335	572.3
723.744	561.7
724.154	562.3
724.563	563.8
724.973	568.1
725.382	565.7
725.792	561.2
726.202	552.3
726.612	573.6
727.022	557.8
727.432	557
779.813	561.9
780.223	602.2
780.634	556.5
781.044	558.7
781.454	556.2
781.865	575.2
782.276	555
782.686	569.8
783.097	559.2
783.508	558.7
783.919	565
784.33	572.8
784.741	579.8
785.152	559.1
785.563	548.2
785.974	555.5
786.386	569.9
786.776	560.8
787.188	562.8
787.599	558.2
788.011	565
788.423	570.9
788.835	559.3
789.247	555.3
789.659	555.6
790.071	555.5
790.483	600
790.874	554.3
791.286	567.6
791.699	554.3
792.111	557.7
792.524	562.1
792.937	559.6
793.349	551.1
793.741	553.4
794.154	559.3
794.567	573.1
794.98	562.8
795.393	549.3
795.785	575.8
796.198	553.8
796.612	560.6
797.026	561.4
797.439	547.4
797.831	554.3
798.245	557.3
798.659	551.6
799.073	556.6
799.487	552.4
799.88	558.7
800.294	553.6
800.708	562.7
801.123	558.2
801.516	577.2
801.93	552.1
802.345	544.5
802.76	558.2
803.153	575
803.568	576.2
803.983	568.9
804.377	565.7
804.792	547.8
805.207	548.9
805.601	552.8
806.016	593.6
806.432	553.9
806.826	589.3
807.242	571.3
807.658	562.7
808.052	552
808.468	555.3
808.884	550.5
809.279	555.1
809.695	568.4
810.111	577.4
810.506	559.5
810.922	571.4
811.339	552.1
811.734	564.3
812.151	553.4
812.546	552.8
812.963	552.9
813.38	559
813.776	558.7
814.193	576.5
814.589	552.3
815.006	552.9
815.402	552.2
815.82	548.9
816.237	555.6
816.633	563.4
817.051	548.1
817.448	558.8
817.866	545.2
818.262	579
818.68	548.2
819.077	551.8
819.495	558.2
819.892	596.3
820.311	547.5
820.708	554.6
821.127	555.8
821.524	567.8
821.943	564.2
822.34	580.7
822.759	562.9
823.157	559.3
823.576	565.9
823.974	562.8
824.393	569.7
824.791	552.3
825.189	551.1
825.609	559.9
826.007	560.3
826.427	544.4
826.826	557
827.246	563.9
827.644	549.7
828.043	570.4
828.463	551.1
828.862	571.3
829.261	564.8
829.682	553.7
830.081	561.7
830.502	552.5
830.901	561
831.301	556.1
831.722	549.8
832.121	560.9
832.521	549.8
832.943	551.4
833.342	560
833.742	550.3
834.164	548
834.564	548
834.965	553.3
835.386	549.4
835.787	559.4
836.188	561.9
836.588	561.2
837.01	558.4
837.411	551.2
837.812	564.4
838.213	564.5
838.636	556.4
839.037	624.7
839.438	559
839.84	562.2
840.263	566.1
840.664	559.1
841.066	562.9
841.468	567.2
841.891	555.3
842.293	560.3
842.695	560.3
843.098	569.2
843.5	553.2
843.902	562.9
844.326	557.2
844.729	559
845.131	569.9
845.534	560.8
845.937	571.5
846.34	569.8
846.764	559.5
847.167	562
