#lambda/nm	C1
208.295	471.8
208.67	438.6
209.045	403
209.419	409.5
209.794	597
210.169	576.5
210.544	690.6
210.919	593.8
211.295	581.3
211.67	595.5
212.045	588.7
212.421	580.7
212.796	625.8
213.172	585.9
213.547	579.9
213.923	584.7
214.299	582
214.675	595.3
215.051	593.8
215.427	597.2
215.803	609.3
216.179	592.8
216.555	582.8
216.932	597.7
217.308	593.5
217.684	586.2
218.061	594.4
218.438	587.7
218.814	583.6
219.191	597.4
219.568	585.1
219.945	591.5
220.322	595.2
220.699	591.9
221.076	598.4
221.453	591.3
221.83	583.5
222.208	585.5
222.585	581.5
222.962	591.1
223.34	594.2
223.717	591.1
224.095	596.4
224.473	593.1
224.851	584.4
225.229	583.5
225.607	607.1
225.985	578.3
226.363	595.4
226.741	594.4
227.119	588.2
227.497	608.2
227.876	578.5
228.254	597.9
228.633	598.5
229.011	590.7
229.39	594.7
229.769	593.7
230.148	599.3
230.527	614.7
230.905	589.3
231.284	591.5
231.664	583.9
232.043	607.4
232.422	600.1
232.801	580.5
233.181	595.8
233.56	586.4
233.94	585.8
234.319	578.5
234.699	586.7
235.079	631.2
235.458	629.3
235.838	603.8
236.218	585.7
236.598	582
236.978	586.7
237.358	589.2
237.738	585.2
238.119	593.5
238.499	583.8
238.88	590
239.26	608.6
239.641	583.8
240.021	586.1
240.402	595.9
240.783	595.7
241.163	588.7
241.544	593.6
241.925	593
242.306	610.2
242.687	586.3
243.069	592.6
243.45	596.7
243.831	589.3
244.212	586.5
244.594	623.9
244.975	603.4
245.357	596.3
245.739	582.1
246.12	592.7
246.502	610.6
246.884	588.5
247.266	595.3
247.648	596.4
248.03	613.7
248.412	595.2
248.794	596.3
249.176	590.5
249.559	604.2
249.941	584.1
250.323	584.4
250.706	585
251.089	592.2
251.471	596.2
251.854	593
252.237	582.6
252.62	600.7
253.002	587
253.385	591
253.769	607.2
254.152	589.9
254.535	597
254.918	585.4
255.301	592.9
255.685	589.8
256.068	582
256.452	613
256.835	594.7
257.219	601.3
257.603	601.4
257.986	584.4
258.37	598.8
258.754	584.1
259.138	600
259.522	604.2
259.906	593.1
260.29	596.3
260.675	595.9
261.059	590.7
261.443	583.2
261.828	599.1
262.212	600.1
262.597	581.4
262.981	590.9
263.366	599
263.751	594.1
264.136	591.9
264.521	589.3
264.906	590.2
265.291	600.7
265.676	588.2
266.061	594.5
266.446	608.9
266.831	593.3
267.217	608.9
267.602	593.4
267.987	589.3
268.373	592.2
268.759	603
269.144	601.7
269.53	588
269.916	588.3
270.302	583.1
270.688	601.5
271.074	599.9
271.46	605.5
271.846	620.7
272.232	597
272.618	585
273.004	594.8
273.391	597.1
273.777	601.5
274.164	597.2
274.55	600.7
274.937	595.8
275.324	591.6
275.71	600.9
276.097	598.1
276.484	583.6
276.871	596.8
277.258	604.5
277.645	588
278.032	591.5
278.419	591.1
278.807	601.3
279.194	586.5
279.581	586.8
279.969	597.1
280.356	592.9
280.744	594.1
281.131	615.3
281.519	604.5
281.907	590.7
282.295	588.9
282.682	602.9
283.07	596
283.458	598.5
283.846	602
284.235	605.7
284.623	596.5
285.011	584.9
285.399	591.7
285.788	592.8
286.176	583.9
286.565	606
286.953	587.1
287.342	587.9
287.731	582.2
288.119	588.4
288.508	591.4
288.897	595.2
289.286	577.2
289.675	591.4
290.064	606.1
290.453	583.2
290.821	590.6
291.21	607.6
291.599	594.4
291.989	589.6
292.378	598.1
292.768	610.7
293.157	598.4
293.547	605.9
293.936	594.7
294.326	587.9
294.716	596.2
295.106	592
295.496	598.1
295.886	606.2
296.276	587.7
296.666	588.3
297.056	589.5
297.446	581.2
297.836	613
298.227	594.3
298.617	596.8
299.008	607.5
299.398	594.3
299.789	592.8
300.179	599.3
300.57	612
300.961	589.8
301.352	589.4
301.742	604.1
302.133	596
302.524	593.5
302.915	597.6
303.307	580.3
303.698	603.6
304.089	597.8
304.48	592.5
304.872	597.6
305.263	598.2
305.655	583.8
306.046	595.2
306.438	594.1
306.829	589.8
307.221	607.8
307.613	597.7
308.005	601.8
308.397	604.6
308.789	614.7
309.181	621.5
309.573	610
309.965	605.5
310.357	594.3
310.749	594.6
311.142	582
311.534	588.5
311.926	596.1
312.319	593.3
312.711	582.2
313.104	601.9
313.497	588
313.889	630.2
314.282	602.7
314.675	619.8
315.068	591.3
315.461	594.9
315.854	622.2
316.247	599.3
316.64	592.4
317.033	595.2
317.405	606.1
317.798	589.8
318.192	593.3
318.585	585.2
318.979	599.8
319.372	594
319.766	596.7
320.16	604.3
320.553	611.8
320.947	619
321.341	593.6
321.735	593.8
322.129	584.6
322.523	617.2
322.917	591.4
323.311	609.6
323.705	600.1
324.099	597
324.494	613.4
324.888	608.6
325.282	588.9
325.677	600.8
326.071	608.2
326.466	608.3
326.861	593.7
327.255	601.5
327.65	605
328.045	608.4
328.44	596
328.835	595.3
329.23	588.9
329.625	615.7
330.02	586.8
330.415	615.1
330.81	593.1
331.206	590.9
331.601	589.8
331.996	602.9
332.37	607.3
332.766	583.7
333.161	617.7
333.557	587.5
333.953	599.1
334.348	910.4
334.744	594.4
335.14	591.2
335.536	588.3
335.932	603.1
336.328	594.8
336.724	604.7
337.12	596.3
337.516	595.4
337.913	597.2
338.309	609
338.705	593.6
339.102	599.6
339.498	592.9
339.895	609.3
340.291	590.6
340.688	608.1
341.085	587.7
341.481	592.9
341.878	593.2
342.275	609.7
342.672	584.3
343.069	589.1
343.466	583.2
343.842	597.6
344.239	583.5
344.636	593.7
345.033	582.7
345.431	583.8
345.828	594.6
346.225	586.2
346.623	603.5
347.02	593.6
347.418	601.3
347.816	601.8
348.213	583.6
348.611	589.1
349.009	589
349.407	604.7
349.805	580.6
350.203	577.5
350.601	597.7
350.999	587.4
351.397	583.2
351.795	591.2
352.193	602.5
352.57	598
352.969	603
353.367	590.4
353.766	589
354.164	587.8
354.563	601.9
354.961	593.3
355.36	587.7
355.759	589.4
356.158	583.9
356.557	588.6
356.956	585.5
357.355	576.5
357.754	591.8
358.153	594.2
358.552	615.2
358.951	589.5
359.35	604.3
359.75	590.4
360.149	576.2
360.527	577.9
360.926	585
361.326	595
361.726	588.3
362.125	578.5
362.525	596.2
362.925	583.2
363.325	588.1
363.724	592
364.124	586.1
364.524	579.1
364.924	587.5
365.324	601.8
365.725	578
366.125	591.2
366.525	588.9
366.904	582.7
367.304	571.8
367.705	605.6
368.105	599.1
368.506	587.4
368.906	589.6
369.307	585.5
369.708	593.6
370.108	579
370.509	605.3
370.91	581.4
371.311	594.2
371.712	592.4
372.113	589
372.514	573.7
372.894	583.6
373.295	589.8
373.696	598.8
374.097	600.4
374.499	615
374.9	588.3
375.301	583.8
375.703	580.3
376.105	584.2
376.506	586.5
376.908	591.3
377.309	583
377.711	589
378.113	580.1
378.493	583.2
378.895	577.7
379.297	592.6
379.699	572.8
380.102	589
380.504	587.1
380.906	575.4
381.308	611.8
381.71	584.1
382.113	591.4
382.515	579.9
382.918	584.8
383.299	582.9
383.701	595.8
384.104	590.3
384.507	567.8
384.909	581.4
385.312	575.5
385.715	576.1
386.118	585.2
386.521	575.2
386.924	596.6
387.327	585.5
387.709	573.5
388.112	564.7
388.515	579.6
388.918	582.5
389.322	587.9
389.725	582.3
390.129	612
390.532	586.2
390.936	587.6
391.339	580.7
391.743	588.9
392.125	578.5
392.529	592.2
392.933	598.6
393.337	583.3
393.74	584.7
394.144	582.9
394.548	576.1
394.953	579.6
395.357	596.2
395.761	580.6
396.144	583.4
396.548	588.1
396.952	582.7
397.357	585.5
397.761	583.2
398.166	578.7
398.57	580.7
398.975	578.1
399.379	586.7
399.763	629.2
400.168	586.8
400.572	583.8
400.977	582.9
401.382	602
401.787	596
402.192	601.9
402.597	601.7
403.002	574.5
403.386	595.9
403.791	599.5
404.197	579.5
404.602	586.6
405.007	583.9
405.413	581.1
405.818	577
406.224	578.1
406.608	579
407.014	571
407.42	600.5
407.825	574.5
408.231	588.7
408.637	583
409.043	604.4
409.449	580.3
409.834	581.5
410.24	585.2
410.646	592.4
411.052	593.6
411.458	586.9
411.865	592
412.271	595.2
412.677	586.1
413.062	593.6
413.469	577.2
413.875	610.5
414.282	597.6
414.689	591.6
415.095	592.5
415.502	578.2
415.888	585.7
416.294	574.6
416.701	624.6
417.108	581.1
417.515	593.6
417.923	582.1
418.33	600.8
418.715	599.1
419.123	583.6
419.53	578.3
419.937	591
420.345	599.1
420.752	587
421.16	596
421.546	585.8
421.953	591.5
422.361	574.2
422.769	582.1
423.177	576.9
423.585	609.9
423.992	603.4
424.379	599.7
424.787	593.2
425.195	600.9
425.603	583.5
426.011	597.2
426.419	596.8
426.806	589
427.214	587.8
427.623	592.6
428.031	603.1
428.44	590.7
428.848	595.1
429.235	607
429.644	593.4
430.053	584.1
430.461	607.9
430.87	619.3
431.279	602.4
431.666	579.1
432.075	589
432.484	591.4
432.893	584.4
433.302	610.6
433.711	624
434.099	599.4
434.508	595.1
434.918	574.6
435.327	596.6
435.737	591.6
436.125	588
436.534	587.9
436.944	593.3
437.353	593
437.763	605.7
438.173	576.6
438.561	599.3
438.971	574.9
439.381	588.8
439.791	590
440.201	568.6
440.589	585.5
440.999	589.6
441.409	593.3
441.819	578.2
442.23	597.9
442.619	589.3
443.029	583.6
443.439	590.3
443.85	597.4
444.26	599.6
444.649	594.8
445.06	586.5
445.471	584.5
445.881	587.2
446.292	596.5
446.682	603.3
447.092	575.7
447.503	637.5
447.914	587.2
448.325	588.9
448.715	589
449.126	581.1
449.537	584.3
449.948	589.2
450.338	588.5
450.75	591.7
451.161	586.1
451.572	589.4
451.984	576.6
452.374	570.5
452.786	580.1
453.197	589.6
453.609	593.3
453.999	576
454.411	574.1
454.823	599.5
455.235	592.5
455.647	579.7
456.037	589.4
456.449	569.4
456.862	586.6
457.274	589.4
457.665	579.1
458.077	590.2
458.489	595.9
458.902	580.5
459.293	586.4
459.705	581.5
460.118	579.7
460.53	588.1
460.921	584.6
461.334	586.5
461.747	587
462.16	595.9
462.551	599.3
462.964	589.5
463.377	574.8
463.79	586.9
464.182	590.4
464.595	575.9
465.008	593.8
465.421	588.1
465.813	582
466.226	589.8
466.64	582.6
467.053	628
467.445	595.7
467.859	577.1
468.272	588.9
468.686	592.2
469.078	588.3
469.492	575.5
469.906	581.6
470.298	587.4
470.712	575.3
471.126	620.7
471.54	570.1
471.933	571.4
472.347	579.7
472.761	573.2
473.175	572.4
473.568	577.1
473.982	568.5
474.397	576.7
474.79	583.2
475.204	584.3
475.619	571.8
476.033	583.4
476.426	580.2
476.841	573.4
477.256	603.3
477.649	567.2
478.064	566.3
478.479	569.1
478.872	568.9
479.287	568.1
479.702	569.6
480.118	580.7
480.511	574.8
480.927	567.5
481.342	580.5
481.736	578.1
482.151	576.7
482.566	593.4
482.96	579.1
483.376	591.6
483.792	576
484.186	581.3
484.602	578.2
485.017	583.9
485.412	574
485.827	584.3
486.243	571.7
486.638	601.9
487.054	583.4
487.47	596.3
487.865	581.1
488.281	575.3
488.697	576.7
489.092	578.6
489.508	569.4
489.925	585.3
490.32	571.3
490.736	581.2
491.153	578.6
491.548	581.4
491.964	587.1
492.381	569.6
492.776	586.6
493.193	576.4
493.61	589.5
494.006	583.2
494.422	583.5
494.84	572.2
495.235	586.6
495.652	580.8
496.069	581.1
496.465	563.2
496.883	576.5
497.3	601.3
497.696	567.2
498.113	582.2
498.509	568.4
498.927	562
499.344	575.3
499.741	564.3
500.158	585.5
500.576	582.4
500.973	576.1
501.39	564.4
501.787	565.3
502.205	579.5
502.623	564.3
503.02	561
503.438	569.8
503.856	573.1
504.253	574.7
504.671	573
505.068	568.5
505.486	574.9
505.905	594.2
506.302	576.3
506.72	587.4
507.118	564.5
507.536	572.4
507.955	574.7
508.352	573.5
508.771	581.7
509.169	578.7
509.587	565.3
510.006	572.8
510.404	566.6
510.823	569.5
511.221	571.4
511.64	569.7
512.038	585.3
512.457	573.6
512.877	571.8
513.275	573.4
513.694	569.9
514.092	565
514.512	577.4
514.91	572.2
515.33	574
515.749	571.2
516.148	575.7
516.568	578.1
516.966	570.8
517.386	567.4
517.785	576.6
518.205	570.7
518.603	565.6
519.024	562.1
519.444	578.2
519.843	579.3
520.263	575.7
520.662	576.3
521.082	572.7
521.481	573.7
521.902	573.7
522.301	572.2
522.722	573.9
523.121	573.6
523.542	569.4
523.963	577.1
524.362	577.5
524.783	578
525.183	572.7
525.604	572.6
526.003	560.2
526.425	572.4
526.824	579.6
527.246	579.8
527.646	585.5
528.067	576.4
528.467	580.3
528.888	579.6
529.289	572.7
529.71	573.1
530.11	576.7
530.532	573.2
530.932	562.1
531.354	567.4
531.755	608.3
532.176	586
532.577	569.2
532.999	577.3
533.4	573.1
533.822	584.7
534.223	575.4
534.645	571
535.046	570.8
535.468	576.2
535.869	589.3
536.292	568.3
536.693	569.6
537.115	569.2
537.516	565.7
537.939	568.8
538.34	590.9
538.742	585.5
539.165	577
539.566	567.3
539.989	567.4
540.391	566.3
540.814	568.3
541.216	581.6
541.639	571.2
542.041	583.6
542.464	568.9
542.866	567.1
543.268	557.9
543.691	577.6
544.093	579.8
544.517	593.8
544.919	563.5
545.343	591.9
545.745	569.8
546.147	575.9
546.571	564.6
546.974	563.3
547.398	573.9
547.8	583.2
548.224	564.8
548.627	564.7
549.03	576
549.454	564.5
549.857	554.7
550.281	569.4
550.684	571.2
551.087	584.4
551.512	576.2
551.915	576.7
552.34	575
552.743	566.2
553.146	573.3
553.571	571.7
553.975	590.7
554.399	561.8
554.803	618
555.207	563.2
555.632	564.9
556.036	579.5
556.461	560.7
556.865	575.5
557.268	563
557.694	566.3
558.098	574.1
558.502	579.2
558.927	567.7
559.332	571
559.736	569.9
560.162	574.2
560.566	570
560.992	576.8
561.396	575.4
561.801	567.9
562.227	571.8
562.631	568.9
563.036	573
563.462	572.2
563.867	577
564.272	557.3
564.698	574.6
565.103	567.8
565.508	584.6
565.935	572.6
566.34	571.2
566.745	577.5
567.172	567
567.577	588
567.982	578
568.409	573.7
568.815	564.5
569.22	572.3
569.626	575.7
570.053	554.3
570.459	574.8
570.865	571
571.292	569.5
571.698	579.3
572.104	555
572.531	560.6
572.937	575.6
573.343	566.5
573.75	567
574.177	568.3
574.583	576.9
574.99	565.3
575.396	575.5
575.824	563
576.231	579.6
576.637	567.7
577.065	593.3
577.472	561.9
577.879	567.8
578.286	585.4
578.714	559.7
579.121	570.2
579.528	574.2
579.935	576.9
580.364	562.6
580.771	554.7
581.178	564.4
581.585	572.2
582.014	575.9
582.421	559.9
582.829	568.2
583.236	576.5
583.644	565.7
584.073	570.8
584.481	566.6
584.889	563.4
585.296	572.4
585.726	571.1
586.134	557.9
586.542	564.8
586.95	591
587.358	560
587.787	576.8
588.196	556.5
588.604	563.4
589.012	569.9
589.421	561.4
589.851	561.8
590.259	573.7
590.668	561.9
591.076	606.2
591.485	562.7
591.894	567.8
592.324	579.6
592.733	581.9
593.142	552.6
593.551	564.8
593.96	575.6
594.369	562
594.8	564.5
595.209	568.2
595.618	553.7
596.028	557.2
596.437	553.4
596.847	569.7
597.256	569.3
597.687	571.5
598.097	565.6
598.507	558.8
598.917	567.7
599.327	571.8
599.736	566.8
600.146	574.8
600.556	564
600.988	575.6
601.398	562.3
601.808	574.8
602.219	552.9
602.629	571.4
603.039	569.6
603.45	596.7
603.86	570.9
604.271	585.3
604.703	571.6
605.114	574.4
605.525	564.1
605.935	572.1
606.346	589.8
606.757	571.2
607.168	568.9
607.579	564.1
607.99	582.8
608.402	569.4
608.813	572.2
609.224	559.3
609.636	561.1
610.047	561.1
610.48	565.6
610.892	575.3
611.303	580.8
611.715	565.6
612.127	559.2
612.539	564.5
612.95	564.2
613.362	560.7
613.774	553.1
614.186	561.2
614.599	561.3
615.011	574.4
615.423	558.6
615.835	560.5
616.248	558.2
616.66	575.3
617.073	557.3
617.485	563.7
617.898	573.4
618.311	563.4
618.723	564.7
619.136	592.8
619.549	574.8
619.962	592
620.375	560.3
620.788	562.3
621.201	565.1
621.614	573.3
622.028	565.9
622.441	571
622.854	582.9
623.268	560.6
623.681	572.1
624.095	568.2
624.509	576.8
624.922	570.2
625.336	561.3
625.728	567
626.142	574.5
626.556	582.4
626.97	573.4
627.384	565.1
627.799	567.4
628.213	575.8
628.627	570.1
629.041	564.2
629.456	564.1
629.87	569.9
630.285	569.9
630.699	572.9
631.093	565.8
631.507	572
631.922	573.1
632.337	576.1
632.752	560.7
633.167	571.6
633.582	565
633.997	562.7
634.412	559.8
634.806	567.2
635.221	556
635.637	572
636.052	550.8
636.468	567.9
636.883	585.7
637.299	570.4
637.715	551.1
638.109	561.1
638.525	557.4
638.941	574
639.357	568.7
639.773	577.5
640.189	556.3
640.584	563.7
641	570
641.416	552.3
641.832	562.5
642.249	563.8
642.665	560.6
643.06	568.2
643.477	572.7
643.894	551.3
644.31	563.5
644.727	566.8
645.123	562.7
645.54	558.4
645.957	569.3
646.374	573.8
646.77	566.4
647.187	594.6
647.604	565
648.021	548.6
648.439	558.7
648.835	568.9
649.252	562.4
649.67	561.6
650.088	563.8
650.484	566
650.902	571.7
651.32	568.1
651.738	568.6
652.134	568.8
652.552	583.1
652.971	567.9
653.389	567.2
653.786	579.5
654.204	562.8
654.622	561.2
655.019	567.5
655.438	572.7
655.857	567.4
656.275	575.4
656.673	560.8
657.091	632.6
657.51	561
657.908	572
658.327	584.2
658.746	555.7
659.144	561.5
659.563	578.7
659.982	569.9
660.38	559.9
660.8	565.6
661.219	573.1
661.617	571.2
662.037	565.3
662.457	573.4
662.855	551
663.275	593.6
663.695	565.1
664.094	559.3
664.514	566.4
664.934	559.4
665.333	571.4
665.753	562.5
666.152	557.7
666.572	554
666.993	576.9
667.392	560.3
667.812	561
668.212	564.6
668.632	569.3
669.053	562.8
669.453	570.5
669.874	576.1
670.273	565.1
670.694	558.5
671.116	577
671.515	570.6
671.937	558.2
672.337	561.7
672.758	556.1
673.158	575.1
673.58	560.8
673.98	568.9
674.402	581.8
674.824	561.2
675.224	559.3
675.646	553.8
676.047	560.2
676.469	569.1
676.869	574
677.292	569.1
677.693	556.5
678.115	556.4
678.516	569.6
678.939	571.7
679.34	569.5
679.762	572.1
680.164	567.8
680.586	558.9
680.988	570
681.411	590.6
681.812	563.2
682.236	559.7
682.637	557.9
683.061	551.6
683.462	563.7
683.864	558.2
684.288	572.5
684.69	554.9
685.114	568.1
685.516	571.7
685.94	556.7
686.342	564
686.766	557.6
687.168	553.5
687.571	582.7
687.995	567.4
688.398	553.2
688.822	564.8
689.225	576.9
689.628	578.9
690.052	561.4
690.456	568.6
690.88	564.5
691.284	552.1
691.687	565.6
692.112	552.2
692.515	558.6
692.919	560
693.344	563.3
693.747	556.7
694.173	554.3
694.577	568.4
694.98	563.6
695.406	560.3
695.81	567.1
696.214	563.3
696.64	568.4
697.044	563.7
697.448	571.6
697.874	562.4
698.279	562.7
698.684	554.9
699.11	554.4
699.514	556.4
699.919	559.1
700.324	559.8
700.75	564.9
701.156	560.3
701.561	570.5
701.987	562.1
702.393	567.2
702.798	565.8
703.203	565.4
703.63	556.8
704.036	560
704.442	569.5
704.847	554.5
705.274	557.5
705.68	566
706.086	566.7
706.492	553.2
706.92	557.4
707.326	571.9
707.732	560.2
708.139	557.9
708.545	551.4
708.973	554.1
709.38	560.7
709.786	550.3
710.193	578.2
710.6	561.9
711.028	550.6
711.435	561.2
711.842	557.7
712.249	555.1
712.656	562.8
713.064	572.8
713.492	557.8
713.9	558.1
714.307	569.6
714.715	564.3
715.123	567.4
715.53	566.5
715.938	570.6
716.367	559.7
716.775	559.1
717.184	560.1
717.592	563.8
718	569.1
718.408	594.9
718.816	606.5
719.225	566.8
719.633	565.4
720.042	551.7
720.472	557.9
720.881	589.1
721.29	567.5
721.699	550.9
722.108	563.7
722.517	562.9
722.926	557.3
723.335	568.9
723.744	564.9
724.154	567.1
724.563	566.6
724.973	562.6
725.382	564.2
725.792	565.3
726.202	553.6
726.612	570.6
727.022	565.7
727.432	560.3
779.813	561.5
780.223	603
780.634	560.8
781.044	555.6
781.454	564.7
781.865	568
782.276	548.6
782.686	572.4
783.097	561.4
783.508	564.8
783.919	568.3
784.33	575.9
784.741	576.7
785.152	559.3
785.563	545.5
785.974	549.9
786.386	564.7
786.776	557.7
787.188	561.3
787.599	555.4
788.011	564.7
788.423	569.3
788.835	553.6
789.247	554.9
789.659	553.6
790.071	562.8
790.483	598.2
790.874	559.7
791.286	571.9
791.699	559.1
792.111	556.8
792.524	559.2
792.937	560.3
793.349	550.8
793.741	556.6
794.154	552.1
794.567	579.7
794.98	553.2
795.393	557.4
795.785	573.8
796.198	554.2
796.612	559.9
797.026	555.2
797.439	549.7
797.831	554.8
798.245	551.4
798.659	557.8
799.073	556.8
799.487	558.4
799.88	561.5
800.294	557.7
800.708	562.6
801.123	565.7
801.516	579.2
801.93	552.4
802.345	548.2
802.76	562.2
803.153	571.7
803.568	571.9
803.983	573
804.377	561.7
804.792	554.8
805.207	547.7
805.601	556.7
806.016	600.1
806.432	548.9
806.826	589.1
807.242	573.4
807.658	557.5
808.052	553.1
808.468	559.5
808.884	552.6
809.279	555.7
809.695	569.5
810.111	575.9
810.506	562.2
810.922	578.3
811.339	555
811.734	566.6
812.151	554.3
812.546	552.8
812.963	551.1
813.38	566.6
813.776	559.4
814.193	574.5
814.589	549.8
815.006	556.9
815.402	555.4
815.82	557.7
816.237	561.3
816.633	560.1
817.051	547.2
817.448	559.3
817.866	553.3
818.262	576.4
818.68	559.1
819.077	560.4
819.495	558.4
819.892	596.9
820.311	547.4
820.708	554.1
821.127	551.5
821.524	573.5
821.943	564.1
822.34	571.8
822.759	561.6
823.157	563.4
823.576	564.7
823.974	562.2
824.393	566.7
824.791	555.6
825.189	555
825.609	555.5
826.007	562
826.427	549.5
826.826	562.8
827.246	561.9
827.644	542.1
828.043	571.1
828.463	556.3
828.862	568
829.261	560.2
829.682	550
830.081	566.8
830.502	554.6
830.901	561.5
831.301	553.8
831.722	549.6
832.121	563.5
832.521	555.7
832.943	556.5
833.342	557.7
833.742	550.9
834.164	553.6
834.564	546.9
834.965	555
835.386	557
835.787	553.2
836.188	555.2
836.588	555.6
837.01	551.8
837.411	545.3
837.812	567.4
838.213	561.1
838.636	542.4
839.037	624.1
839.438	558.3
839.84	562.2
840.263	560
840.664	562.3
841.066	550.5
841.468	555.7
841.891	553.2
842.293	566.4
842.695	559.9
843.098	568
843.5	548.6
843.902	557.3
844.326	564.4
844.729	560.3
845.131	566.8
845.534	559.4
845.937	571.3
846.34	574.6
846.764	552
847.167	563.7
847.571	549.6
