#lambda/nm	C1
208.295	473
208.67	440.3
209.045	402.7
209.419	404.4
209.794	591.9
210.169	574.1
210.544	697.4
210.919	594.8
211.295	579.1
211.67	593.1
212.045	583.7
212.421	586.7
212.796	624.8
213.172	586.3
213.547	588.1
213.923	590.3
214.299	586.8
214.675	594.8
215.051	594.8
215.427	598
215.803	605.9
216.179	595.7
216.555	583.4
216.932	600.6
217.308	588
217.684	595
218.061	596.9
218.438	593.8
218.814	592
219.191	598.9
219.568	581.5
219.945	589.8
220.322	595.4
220.699	593.4
221.076	600.2
221.453	588.7
221.83	585.3
222.208	586.7
222.585	585
222.962	590.6
223.34	593.5
223.717	589.7
224.095	591.6
224.473	591.9
224.851	591.4
225.229	579.3
225.607	606.1
225.985	577.8
226.363	584.8
226.741	590.5
227.119	590.4
227.497	606.9
227.876	576.6
228.254	601.2
228.633	598.6
229.011	587.5
229.39	595.3
229.769	597.2
230.148	597.2
230.527	611.7
230.905	593.8
231.284	593.2
231.664	587.2
232.043	595.5
232.422	595.5
232.801	585.5
233.181	592.6
233.56	587.6
233.94	596.9
234.319	579.9
234.699	589.5
235.079	622.7
235.458	627.8
235.838	607.9
236.218	582.8
236.598	581.2
236.978	588.3
237.358	587.6
237.738	584.2
238.119	602.1
238.499	579.7
238.88	592
239.26	604.1
239.641	578.7
240.021	589.1
240.402	586.6
240.783	588.4
241.163	590.7
241.544	593.8
241.925	594.2
242.306	604.1
242.687	584.3
243.069	595.5
243.45	605.9
243.831	586.4
244.212	593.5
244.594	631.9
244.975	600.4
245.357	592
245.739	590.7
246.12	593
246.502	607
246.884	591.1
247.266	585.1
247.648	589.6
248.03	608.5
248.412	593.5
248.794	599.3
249.176	580.6
249.559	599.5
249.941	586
250.323	582.6
250.706	582.3
251.089	593.6
251.471	591.5
251.854	594
252.237	586.8
252.62	600.1
253.002	596.6
253.385	595.2
253.769	606.5
254.152	590.8
254.535	604.6
254.918	587.9
255.301	588.5
255.685	587.4
256.068	584.7
256.452	613.8
256.835	597.4
257.219	595.8
257.603	601.9
257.986	582.9
258.37	591.9
258.754	582.5
259.138	599.2
259.522	604.6
259.906	586.7
260.29	599.8
260.675	589.6
261.059	594.7
261.443	580.7
261.828	595.6
262.212	593.5
262.597	581.1
262.981	587.4
263.366	606.8
263.751	595.4
264.136	590
264.521	588.8
264.906	585.9
265.291	604.9
265.676	590.3
266.061	597.8
266.446	608.1
266.831	593.2
267.217	614.7
267.602	594
267.987	590.7
268.373	597.2
268.759	604.1
269.144	597.9
269.53	593.3
269.916	589.8
270.302	589.4
270.688	598.3
271.074	592.7
271.46	606.5
271.846	629
272.232	592.3
272.618	587.7
273.004	588.4
273.391	603.9
273.777	610.7
274.164	597.2
274.55	609.7
274.937	593.9
275.324	587.1
275.71	599.3
276.097	595.2
276.484	584.4
276.871	595.7
277.258	596.2
277.645	579.4
278.032	593.5
278.419	592.4
278.807	598.4
279.194	587.1
279.581	589.1
279.969	598.7
280.356	593.6
280.744	591.2
281.131	619.3
281.519	596.9
281.907	594.1
282.295	588.8
282.682	600.8
283.07	597.2
283.458	600.1
283.846	603.8
284.235	604.9
284.623	598.2
285.011	586.1
285.399	590.4
285.788	596.7
286.176	583.5
286.565	602.9
286.953	586.4
287.342	590.8
287.731	586.5
288.119	586.1
288.508	591.7
288.897	588.2
289.286	584.2
289.675	596.1
290.064	606.9
290.453	591.3
290.821	594.9
291.21	612.2
291.599	588
291.989	586.1
292.378	594.6
292.768	610.9
293.157	594
293.547	596.8
293.936	588
294.326	591
294.716	594.6
295.106	585.2
295.496	600.1
295.886	599.6
296.276	591.1
296.666	587.6
297.056	585.3
297.446	578.9
297.836	606.6
298.227	583.6
298.617	598.4
299.008	601.4
299.398	591.1
299.789	592.9
300.179	595.6
300.57	608.9
300.961	584.1
301.352	589.7
301.742	604.3
302.133	590
302.524	594.3
302.915	596.5
303.307	582
303.698	603.7
304.089	594.1
304.48	591.8
304.872	599.3
305.263	590.3
305.655	581.1
306.046	592.6
306.438	603.7
306.829	585.9
307.221	601.7
307.613	599.2
308.005	598.3
308.397	599
308.789	616.8
309.181	616.2
309.573	611.7
309.965	603.8
310.357	588.2
310.749	599.1
311.142	591.3
311.534	589.4
311.926	600.6
312.319	596.2
312.711	583
313.104	605.8
313.497	585.5
313.889	633.7
314.282	604.2
314.675	620.5
315.068	597.8
315.461	597.9
315.854	628.1
316.247	600.8
316.64	594.2
317.033	589.5
317.405	601.7
317.798	591.3
318.192	601.3
318.585	588.2
318.979	598.1
319.372	588.3
319.766	592.8
320.16	605.1
320.553	605.7
320.947	617.5
321.341	592.9
321.735	595.2
322.129	586.9
322.523	622.6
322.917	587.9
323.311	602
323.705	592.9
324.099	598.2
324.494	609.3
324.888	601.5
325.282	594.4
325.677	603.5
326.071	602.6
326.466	604.3
326.861	597.3
327.255	604.3
327.65	604.1
328.045	606.5
328.44	593.3
328.835	593.8
329.23	588.4
329.625	617.6
330.02	588.6
330.415	613.7
330.81	600.3
331.206	595.5
331.601	595.2
331.996	593.3
332.37	601
332.766	582.7
333.161	621.3
333.557	586
333.953	598.4
334.348	1036.2
334.744	594
335.14	592.1
335.536	589.1
335.932	601.7
336.328	593.3
336.724	601.5
337.12	595.5
337.516	597.7
337.913	597
338.309	608.6
338.705	591.6
339.102	601.1
339.498	588.8
339.895	612.4
340.291	590.4
340.688	603.2
341.085	584.3
341.481	594.7
341.878	593.7
342.275	609.6
342.672	583
343.069	584.2
343.466	579.8
343.842	598.8
344.239	584.2
344.636	594.9
345.033	584.3
345.431	586
345.828	598.5
346.225	588.5
346.623	608.5
347.02	593.5
347.418	604
347.816	604.8
348.213	581.9
348.611	602.6
349.009	583.1
349.407	603.6
349.805	581.6
350.203	586.5
350.601	603.1
350.999	582.3
351.397	584.7
351.795	589.1
352.193	601.9
352.57	599.5
352.969	603.7
353.367	584.1
353.766	584.1
354.164	586.1
354.563	604.7
354.961	594.6
355.36	588.7
355.759	590.3
356.158	577
356.557	580.3
356.956	585.9
357.355	580.7
357.754	593.9
358.153	594.1
358.552	612.5
358.951	589.1
359.35	602.7
359.75	588.2
360.149	583
360.527	579.8
360.926	583.1
361.326	587.5
361.726	585.4
362.125	577.8
362.525	595
362.925	582.8
363.325	586.4
363.724	589.9
364.124	590.4
364.524	588.8
364.924	586.2
365.324	599.3
365.725	574.1
366.125	589
366.525	588.6
366.904	580.6
367.304	571.5
367.705	603.4
368.105	599.9
368.506	585.5
368.906	588.5
369.307	585.7
369.708	594.3
370.108	578.8
370.509	585.3
370.91	585.6
371.311	592.8
371.712	586.5
372.113	585.8
372.514	576.8
372.894	586.9
373.295	579.6
373.696	593.1
374.097	588.3
374.499	612.2
374.9	590.7
375.301	575.8
375.703	592.8
376.105	577
376.506	584.5
376.908	591.2
377.309	583.9
377.711	587.7
378.113	586.6
378.493	585.6
378.895	584.8
379.297	597.4
379.699	575.8
380.102	593.4
380.504	590
380.906	577.6
381.308	609.3
381.71	580.5
382.113	591.8
382.515	584
382.918	587.5
383.299	585.3
383.701	594.6
384.104	591.7
384.507	566.2
384.909	581.4
385.312	575.6
385.715	574
386.118	579.4
386.521	576.3
386.924	597.7
387.327	579
387.709	571.4
388.112	563.9
388.515	580.8
388.918	584
389.322	590.5
389.725	580
390.129	603
390.532	589.6
390.936	579.5
391.339	578.8
391.743	589.8
392.125	575.5
392.529	591.9
392.933	598.9
393.337	583.6
393.74	584.7
394.144	582
394.548	578.8
394.953	581.9
395.357	588.4
395.761	574.4
396.144	588.1
396.548	581.5
396.952	585.8
397.357	580.3
397.761	580.9
398.166	576.6
398.57	580.2
398.975	573.5
399.379	584.7
399.763	629.7
400.168	587.9
400.572	578.8
400.977	580.8
401.382	600.2
401.787	594.2
402.192	599.5
402.597	592.6
403.002	572.3
403.386	594.9
403.791	594.1
404.197	576.7
404.602	583.4
405.007	580.3
405.413	576
405.818	578.8
406.224	577
406.608	581.7
407.014	572.5
407.42	599.8
407.825	578.7
408.231	588
408.637	592.5
409.043	603.2
409.449	592.3
409.834	577.8
410.24	586.5
410.646	598.3
411.052	598.4
411.458	590.9
411.865	595.6
412.271	593
412.677	587.7
413.062	590.4
413.469	573.1
413.875	610.3
414.282	598.4
414.689	590.7
415.095	589.8
415.502	579.6
415.888	588.7
416.294	566.6
416.701	625.6
417.108	582.3
417.515	597.3
417.923	581.5
418.33	609.9
418.715	595.6
419.123	589.3
419.53	588.5
419.937	592.5
420.345	596.7
420.752	580.2
421.16	599.6
421.546	582.7
421.953	592.7
422.361	568.7
422.769	586
423.177	575.9
423.585	604.3
423.992	604.3
424.379	596.9
424.787	591.9
425.195	606.5
425.603	590.9
426.011	600.1
426.419	596.7
426.806	589.1
427.214	589.8
427.623	600.2
428.031	607.8
428.44	592.4
428.848	604.8
429.235	608.6
429.644	593
430.053	584.8
430.461	598.9
430.87	609.6
431.279	598.4
431.666	575.5
432.075	589.7
432.484	596.3
432.893	589.5
433.302	614.9
433.711	628.6
434.099	592.1
434.508	588.9
434.918	580.9
435.327	596
435.737	594.7
436.125	592.2
436.534	595
436.944	592.6
437.353	604.3
437.763	611.4
438.173	578.7
438.561	600.3
438.971	574.6
439.381	589.6
439.791	592.4
440.201	567.6
440.589	592.6
440.999	595.1
441.409	590.7
441.819	570.3
442.23	598.4
442.619	597.6
443.029	590.3
443.439	588.2
443.85	601.2
444.26	606.3
444.649	596.2
445.06	588.7
445.471	579.2
445.881	585.2
446.292	604.9
446.682	605.5
447.092	577.7
447.503	633.9
447.914	590.6
448.325	589.4
448.715	587.9
449.126	581.2
449.537	588.6
449.948	588.4
450.338	588
450.75	589.2
451.161	591.7
451.572	598.5
451.984	585.4
452.374	569.3
452.786	587.1
453.197	592.6
453.609	594.7
453.999	574.1
454.411	574.6
454.823	595.5
455.235	592.3
455.647	582.8
456.037	595.2
456.449	569.8
456.862	580.9
457.274	588.8
457.665	579.4
458.077	592.2
458.489	597.3
458.902	589.3
459.293	587.5
459.705	590.9
460.118	583.4
460.53	588.4
460.921	585.3
461.334	593.4
461.747	584.6
462.16	596.8
462.551	603.1
462.964	588.2
463.377	571.7
463.79	582.6
464.182	592.6
464.595	573.6
465.008	592.6
465.421	593.3
465.813	582.9
466.226	591.3
466.64	588.2
467.053	633.3
467.445	589.7
467.859	587.8
468.272	582.2
468.686	599.9
469.078	578.5
469.492	569.9
469.906	585.4
470.298	587
470.712	576.5
471.126	613.2
471.54	568
471.933	574.5
472.347	580.3
472.761	570.3
473.175	562.4
473.568	582.5
473.982	571.3
474.397	582.5
474.79	582.4
475.204	590.7
475.619	575.7
476.033	589.4
476.426	582.9
476.841	576.4
477.256	601.3
477.649	571
478.064	567.8
478.479	578.6
478.872	576.6
479.287	568.6
479.702	572.7
480.118	572.6
480.511	584.5
480.927	571.5
481.342	574.1
481.736	580.9
482.151	577
482.566	588.7
482.96	584.5
483.376	588.2
483.792	573.2
484.186	581
484.602	575.7
485.017	576.6
485.412	574.2
485.827	584.7
486.243	575.9
486.638	601.7
487.054	585.2
487.47	591.3
487.865	574.6
488.281	574.8
488.697	570.2
489.092	580.3
489.508	572.5
489.925	589.4
490.32	569.1
490.736	578.4
491.153	581.9
491.548	581
491.964	587.6
492.381	562.9
492.776	588.5
493.193	575.1
493.61	589.4
494.006	579.5
494.422	586.3
494.84	570.4
495.235	589.1
495.652	577.5
496.069	573.7
496.465	568.3
496.883	577.7
497.3	596.8
497.696	572.3
498.113	578.9
498.509	566.1
498.927	568.1
499.344	569.7
499.741	567.3
500.158	587.3
500.576	580.5
500.973	576.2
501.39	569.9
501.787	568
502.205	577.6
502.623	568.4
503.02	565.7
503.438	570.9
503.856	571.5
504.253	580.7
504.671	578
505.068	571.6
505.486	573.8
505.905	594.3
506.302	573.6
506.72	584.8
507.118	563.2
507.536	577.7
507.955	573.8
508.352	578.3
508.771	578.6
509.169	578.1
509.587	568
510.006	576.1
510.404	564.6
510.823	571.3
511.221	571
511.64	570.7
512.038	588.3
512.457	571.2
512.877	577.4
513.275	576.9
513.694	574.7
514.092	577
514.512	573.4
514.91	570.5
515.33	577.7
515.749	568.7
516.148	575.9
516.568	574.2
516.966	572.3
517.386	573.1
517.785	572.3
518.205	568.1
518.603	567.4
519.024	563.8
519.444	574.8
519.843	583.4
520.263	581.7
520.662	578.7
521.082	574.2
521.481	573.7
521.902	573.1
522.301	573.3
522.722	571.4
523.121	568.7
523.542	569.5
523.963	569.3
524.362	570.1
524.783	576.4
525.183	572.5
525.604	579.6
526.003	563.1
526.425	569.1
526.824	577.8
527.246	583.9
527.646	587.7
528.067	573.8
528.467	569.7
528.888	582.4
529.289	571.9
529.71	566.3
530.11	568.4
530.532	574
530.932	562.2
531.354	568.1
531.755	611.1
532.176	581.9
532.577	574.4
532.999	575.7
533.4	564.8
533.822	580.7
534.223	572.2
534.645	572.7
535.046	570.4
535.468	574.4
535.869	585.3
536.292	568.2
536.693	570.9
537.115	575.3
537.516	566.4
537.939	570.6
538.34	582.3
538.742	584.8
539.165	579.9
539.566	575.5
539.989	566.9
540.391	565.7
540.814	574.3
541.216	573.4
541.639	573
542.041	581.4
542.464	572.2
542.866	570.5
543.268	566.4
543.691	577.7
544.093	578.8
544.517	593.6
544.919	565.6
545.343	593.4
545.745	566.3
546.147	573
546.571	568.3
546.974	564.8
547.398	573.1
547.8	583.4
548.224	566.3
548.627	567.4
549.03	577.4
549.454	562.2
549.857	559.9
550.281	568.4
550.684	565.4
551.087	585.2
551.512	579.1
551.915	583.3
552.34	577.8
552.743	565.9
553.146	571
553.571	572.5
553.975	590.7
554.399	566.7
554.803	620.3
555.207	569.1
555.632	565.1
556.036	576.3
556.461	569.6
556.865	570.1
557.268	560.3
557.694	570.4
558.098	574.9
558.502	578.6
558.927	565.4
559.332	565.9
559.736	570.2
560.162	578.3
560.566	576.1
560.992	571.7
561.396	574.4
561.801	572
562.227	571.2
562.631	574
563.036	570.1
563.462	578.5
563.867	574
564.272	560.6
564.698	573.3
565.103	558
565.508	589
565.935	571.1
566.34	567.9
566.745	579.5
567.172	567.7
567.577	589.4
567.982	582.8
568.409	572.6
568.815	567.6
569.22	573.5
569.626	574.9
570.053	556.3
570.459	573.2
570.865	581.2
571.292	577.2
571.698	576.7
572.104	558.1
572.531	559
572.937	579.7
573.343	566.1
573.75	566.3
574.177	571.3
574.583	576.2
574.99	568.1
575.396	576.1
575.824	560.2
576.231	572.8
576.637	569
577.065	592.5
577.472	568
577.879	569
578.286	588.5
578.714	560.1
579.121	558.5
579.528	574.3
579.935	576.9
580.364	566.5
580.771	559.6
581.178	565.9
581.585	574.3
582.014	583.5
582.421	568.5
582.829	568.1
583.236	580.2
583.644	566.8
584.073	565.7
584.481	567.4
584.889	569.6
585.296	572.3
585.726	574
586.134	556.8
586.542	565.1
586.95	585.8
587.358	561.6
587.787	571.3
588.196	554.9
588.604	573.1
589.012	563
589.421	561.6
589.851	561.9
590.259	570.7
590.668	565.8
591.076	603.8
591.485	559
591.894	567.3
592.324	584.4
592.733	583.5
593.142	553.6
593.551	569.1
593.96	600.9
594.369	559.8
594.8	555.8
595.209	561.1
595.618	551.5
596.028	557.2
596.437	560.6
596.847	565.3
597.256	570.5
597.687	570
598.097	567.1
598.507	555.7
598.917	568.2
599.327	573.1
599.736	566.5
600.146	575.9
600.556	565.8
600.988	587
601.398	564.8
601.808	582.4
602.219	556.1
602.629	567.9
603.039	573.2
603.45	592.7
603.86	567.2
604.271	587.6
604.703	567.5
605.114	566.4
605.525	560.2
605.935	573.1
606.346	585.6
606.757	579.9
607.168	571.6
607.579	563.3
607.99	575.1
608.402	573.4
608.813	571.7
609.224	566.3
609.636	555.9
610.047	556.1
610.48	569.5
610.892	569.9
611.303	573.7
611.715	561.3
612.127	560.7
612.539	562.9
612.95	567.3
613.362	555.3
613.774	554.8
614.186	566.1
614.599	564.1
615.011	571.4
615.423	558.9
615.835	557.8
616.248	558.6
616.66	571.1
617.073	555.3
617.485	559.5
617.898	567.4
618.311	570.1
618.723	563.3
619.136	594.4
619.549	576.8
619.962	582.4
620.375	559.7
620.788	570.6
621.201	562
621.614	569.3
622.028	567.1
622.441	570
622.854	575.4
623.268	558
623.681	567.1
624.095	565.5
624.509	578.2
624.922	573.2
625.336	558.3
625.728	564.3
626.142	575
626.556	582.3
626.97	576
627.384	566.3
627.799	565.5
628.213	578.9
628.627	563.1
629.041	563.3
629.456	558.7
629.87	565.5
630.285	572.1
630.699	568.4
631.093	562.8
631.507	574.3
631.922	566.8
632.337	580.6
632.752	553.6
633.167	561.4
633.582	565.1
633.997	558.5
634.412	558.1
634.806	568.6
635.221	555.8
635.637	578.4
636.052	555.5
636.468	568.7
636.883	580.8
637.299	568.6
637.715	550.7
638.109	561.2
638.525	555.3
638.941	576.5
639.357	571.4
639.773	575
640.189	561.7
640.584	564.5
641	567.5
641.416	556.4
641.832	564.3
642.249	558.3
642.665	565.1
643.06	573.7
643.477	572.6
643.894	548.8
644.31	558.1
644.727	568.1
645.123	558.5
645.54	557
645.957	565.9
646.374	574.4
646.77	567.8
647.187	602.1
647.604	571.4
648.021	554.3
648.439	560.3
648.835	569.8
649.252	563.1
649.67	562.5
650.088	564.1
650.484	571
650.902	565.3
651.32	566.1
651.738	562.1
652.134	569.3
652.552	581.7
652.971	571.6
653.389	563.9
653.786	578.8
654.204	566.7
654.622	561.5
655.019	565.6
655.438	569.7
655.857	564.5
656.275	574
656.673	554.9
657.091	636.6
657.51	563.9
657.908	574.4
658.327	580.8
658.746	559.1
659.144	567.3
659.563	578.7
659.982	563.3
660.38	559.5
660.8	564.2
661.219	575.7
661.617	568.5
662.037	568
662.457	574.4
662.855	551.4
663.275	594.1
663.695	565.9
664.094	563.9
664.514	568.6
664.934	559.8
665.333	576.4
665.753	562
666.152	557.1
666.572	560.3
666.993	581.4
667.392	564.5
667.812	567.4
668.212	564.1
668.632	573
669.053	565.4
669.453	565.8
669.874	561.4
670.273	567.3
670.694	558.5
671.116	577.1
671.515	575.5
671.937	564.4
672.337	562.2
672.758	557.7
673.158	575
673.58	551.1
673.98	567.5
674.402	581.2
674.824	564.9
675.224	559.6
675.646	561.8
676.047	557
676.469	561.1
676.869	575.3
677.292	568.8
677.693	559.8
678.115	562.7
678.516	570.1
678.939	564.9
679.34	561.3
679.762	581.3
680.164	572.4
680.586	557.8
680.988	563.7
681.411	587.9
681.812	561.7
682.236	557.4
682.637	556.3
683.061	554.7
683.462	563.7
683.864	563.2
684.288	566.7
684.69	548.9
685.114	571.6
685.516	568.1
685.94	558.5
686.342	570.9
686.766	555.5
687.168	557
687.571	579.6
687.995	567.7
688.398	552.3
688.822	559.5
689.225	576.9
689.628	579
690.052	565.7
690.456	566.4
690.88	559.5
691.284	552.6
691.687	572.3
692.112	555.2
692.515	557.6
692.919	565.7
693.344	569.2
693.747	562.8
694.173	556.9
694.577	571.4
694.98	567.1
695.406	563.8
695.81	564.1
696.214	568
696.64	567.3
697.044	568.4
697.448	572.3
697.874	562.7
698.279	559.3
698.684	550.7
699.11	559.5
699.514	557.7
699.919	557.9
700.324	556.7
700.75	564.9
701.156	565.9
701.561	569.4
701.987	568.6
702.393	571.2
702.798	573
703.203	559.4
703.63	559.9
704.036	559
704.442	565.8
704.847	556.3
705.274	561.7
705.68	564.9
706.086	571.5
706.492	553.3
706.92	558.9
707.326	569.8
707.732	559.5
708.139	553.6
708.545	551.9
708.973	553.8
709.38	560.9
709.786	554.7
710.193	577.6
710.6	563.5
711.028	553.4
711.435	566.2
711.842	565.2
712.249	555.3
712.656	554.2
713.064	569.3
713.492	555.6
713.9	557.4
714.307	568
714.715	560.7
715.123	569.1
715.53	558.6
715.938	568.2
716.367	562
716.775	560.6
717.184	558.1
717.592	553.1
718	564.3
718.408	593.4
718.816	609.1
719.225	565.7
719.633	561
720.042	558.5
720.472	558.8
720.881	580
721.29	569
721.699	559.8
722.108	559.3
722.517	561
722.926	556.9
723.335	575.3
723.744	564
724.154	563.2
724.563	564.5
724.973	560.2
725.382	563.1
725.792	559.8
726.202	553.6
726.612	568.5
727.022	558.1
727.432	555.1
779.813	551.2
780.223	596.2
780.634	556.4
781.044	554.3
781.454	561.6
781.865	577.6
782.276	550.2
782.686	569.4
783.097	560.3
783.508	556.7
783.919	560.3
784.33	568.3
784.741	573.8
785.152	558.1
785.563	553.6
785.974	559.1
786.386	573.1
786.776	555.8
787.188	555.4
787.599	551.5
788.011	561.7
788.423	562.1
788.835	554.1
789.247	552
789.659	553.7
790.071	559.9
790.483	600.5
790.874	554.1
791.286	568.6
791.699	559.9
792.111	564.2
792.524	560.9
792.937	560.2
793.349	557.7
793.741	550.6
794.154	555.7
794.567	578.9
794.98	557.1
795.393	550.4
795.785	573.7
796.198	557.3
796.612	560.6
797.026	555.2
797.439	547.5
797.831	561.7
798.245	555.9
798.659	552.7
799.073	559.4
799.487	551.5
799.88	563.1
800.294	556
800.708	566.4
801.123	562.3
801.516	577.3
801.93	545.6
802.345	549.1
802.76	565.9
803.153	567.8
803.568	573.8
803.983	565.4
804.377	565.9
804.792	553.4
805.207	551.2
805.601	557.1
806.016	596.3
806.432	558.4
806.826	587.3
807.242	570.2
807.658	563.5
808.052	553.9
808.468	559.5
808.884	552.5
809.279	559.9
809.695	575.4
810.111	578.6
810.506	561.4
810.922	577.5
811.339	561.5
811.734	563.3
812.151	558.1
812.546	556.8
812.963	558.1
813.38	559.4
813.776	557.5
814.193	581.3
814.589	553.3
815.006	553.4
815.402	547.6
815.82	552.4
816.237	559.9
816.633	560
817.051	556
817.448	563.9
817.866	548
818.262	582.6
818.68	555.9
819.077	553.7
819.495	560.9
819.892	594.4
820.311	551.1
820.708	553
821.127	556.3
821.524	571.3
821.943	559.9
822.34	574.5
822.759	555
823.157	560.2
823.576	569.3
823.974	569.6
824.393	569.5
824.791	550.8
825.189	555.1
825.609	558
826.007	556.3
826.427	542.8
826.826	555.9
827.246	563.7
827.644	549.4
828.043	569
828.463	555.7
828.862	566.2
829.261	562.5
829.682	548.9
830.081	562.3
830.502	548.3
830.901	560.6
831.301	552.2
831.722	543.8
832.121	558.3
832.521	548.8
832.943	556.4
833.342	548.3
833.742	543.8
834.164	550.8
834.564	549.3
834.965	554.4
835.386	552.8
835.787	555.6
836.188	555.6
836.588	558.5
837.01	555.6
837.411	548.4
837.812	565.9
838.213	556.3
838.636	552
839.037	623.2
839.438	561.1
839.84	552.7
840.263	561.5
840.664	566.7
841.066	560.9
841.468	561.2
841.891	554.1
842.293	569.2
842.695	562.3
843.098	564.8
843.5	558.2
843.902	559.7
844.326	562.8
844.729	558
845.131	566.6
845.534	559.2
845.937	567.6
846.34	574.8
