#lambda/nm	C1
208.295	466.7
208.67	437
209.045	400.3
209.419	409.6
209.794	595.1
210.169	570.4
210.544	700.8
210.919	595.3
211.295	582.5
211.67	586
212.045	593.6
212.421	584.9
212.796	623.9
213.172	583.8
213.547	587.4
213.923	587.5
214.299	581.1
214.675	601.1
215.051	593.6
215.427	588.9
215.803	603.6
216.179	596.2
216.555	581.3
216.932	600.1
217.308	589.8
217.684	593.3
218.061	596.1
218.438	587.8
218.814	591.3
219.191	596.6
219.568	580.7
219.945	591.3
220.322	596
220.699	588.7
221.076	596.5
221.453	591.9
221.83	590.2
222.208	587
222.585	586.3
222.962	591.5
223.34	597.1
223.717	591.8
224.095	587.9
224.473	590.3
224.851	584
225.229	579.4
225.607	609.4
225.985	578.8
226.363	592.6
226.741	600.6
227.119	591.5
227.497	607.4
227.876	584.6
228.254	598.4
228.633	595.7
229.011	591.7
229.39	595
229.769	592
230.148	598.7
230.527	614.1
230.905	593.3
231.284	594.9
231.664	583.8
232.043	604
232.422	597.3
232.801	593.1
233.181	595.7
233.56	586.6
233.94	597.2
234.319	576.6
234.699	586.8
235.079	628.7
235.458	627.9
235.838	606.8
236.218	590.6
236.598	578.3
236.978	585.3
237.358	585.7
237.738	586.1
238.119	596.2
238.499	583.9
238.88	586.1
239.26	603.2
239.641	579.6
240.021	587
240.402	589.2
240.783	595.2
241.163	587.1
241.544	586.5
241.925	592.6
242.306	607.1
242.687	586.2
243.069	585.6
243.45	593.2
243.831	586.7
244.212	587.2
244.594	629.3
244.975	596.5
245.357	593.2
245.739	585.2
246.12	592.9
246.502	604.3
246.884	586.3
247.266	586.2
247.648	599.6
248.03	612.7
248.412	592.4
248.794	600.2
249.176	586
249.559	603.3
249.941	586.4
250.323	591.3
250.706	585.7
251.089	591.1
251.471	592.9
251.854	591.3
252.237	599.8
252.62	598.7
253.002	590.9
253.385	594.5
253.769	604
254.152	592.4
254.535	591.6
254.918	584.6
255.301	587.9
255.685	584.7
256.068	580.6
256.452	610
256.835	593.6
257.219	594.4
257.603	599
257.986	583.4
258.37	598.2
258.754	580.7
259.138	595.9
259.522	601.2
259.906	591.8
260.29	596.3
260.675	587.6
261.059	591.9
261.443	582.8
261.828	600.8
262.212	597.9
262.597	581.1
262.981	584.3
263.366	597.8
263.751	598.1
264.136	590.9
264.521	584.4
264.906	585.1
265.291	602.1
265.676	591.3
266.061	596.9
266.446	610.5
266.831	600
267.217	612.2
267.602	597.3
267.987	595.5
268.373	589
268.759	599
269.144	593.6
269.53	588.6
269.916	588.8
270.302	591.2
270.688	599.2
271.074	593.1
271.46	604.1
271.846	621.8
272.232	596.8
272.618	587.8
273.004	584.8
273.391	600.2
273.777	605.8
274.164	600.4
274.55	607.5
274.937	590
275.324	589.1
275.71	601.1
276.097	606.5
276.484	581.4
276.871	596.2
277.258	598
277.645	580.9
278.032	592.4
278.419	588.7
278.807	592.7
279.194	579.3
279.581	583.6
279.969	595.6
280.356	588.9
280.744	589.7
281.131	615.7
281.519	597.9
281.907	591.3
282.295	589.6
282.682	600.3
283.07	586.5
283.458	598.6
283.846	605.6
284.235	597.5
284.623	601.4
285.011	583.3
285.399	595.6
285.788	593.1
286.176	577.3
286.565	601.5
286.953	584.5
287.342	589.8
287.731	585.1
288.119	579.3
288.508	586.5
288.897	586.8
289.286	580.6
289.675	590
290.064	599.2
290.453	592.9
290.821	592.1
291.21	610
291.599	593.6
291.989	592.6
292.378	598.1
292.768	608.9
293.157	593.5
293.547	593.7
293.936	589.9
294.326	585.1
294.716	592.2
295.106	593.7
295.496	600
295.886	602.6
296.276	589.6
296.666	581
297.056	577
297.446	583.6
297.836	601.8
298.227	589
298.617	595.6
299.008	599.2
299.398	588.9
299.789	581.7
300.179	595
300.57	610.7
300.961	585.9
301.352	588.5
301.742	596.3
302.133	591.1
302.524	586.7
302.915	600
303.307	583.8
303.698	599.7
304.089	597.8
304.48	592.4
304.872	599.4
305.263	589.7
305.655	580.9
306.046	598.1
306.438	592.7
306.829	580
307.221	600.3
307.613	600.9
308.005	606.6
308.397	604.9
308.789	617.2
309.181	620.1
309.573	613.4
309.965	606.8
310.357	595.2
310.749	596.6
311.142	583.5
311.534	594.4
311.926	603.9
312.319	596.5
312.711	584.7
313.104	605.9
313.497	595.1
313.889	630
314.282	610.3
314.675	611.6
315.068	597.5
315.461	599.6
315.854	625.7
316.247	596.9
316.64	593
317.033	590.5
317.405	608
317.798	589.5
318.192	589.3
318.585	584.7
318.979	604.3
319.372	585
319.766	593.1
320.16	599.5
320.553	609.8
320.947	617
321.341	592
321.735	592.8
322.129	583.1
322.523	615.5
322.917	586.6
323.311	604.4
323.705	591.3
324.099	595.9
324.494	605.2
324.888	606.7
325.282	592
325.677	597.2
326.071	605.3
326.466	607.2
326.861	598.2
327.255	606.3
327.65	608.5
328.045	613.2
328.44	597.9
328.835	598.2
329.23	588.8
329.625	624.5
330.02	589
330.415	618.7
330.81	596
331.206	596
331.601	588.6
331.996	600.5
332.37	607.9
332.766	583.8
333.161	619
333.557	593.6
333.953	596.9
334.348	982.7
334.744	597.5
335.14	589.3
335.536	588.9
335.932	602.4
336.328	593.3
336.724	601.6
337.12	587.1
337.516	595.9
337.913	590.9
338.309	607.3
338.705	598.3
339.102	599.5
339.498	588.7
339.895	607.7
340.291	593.3
340.688	605.9
341.085	582.9
341.481	588.4
341.878	594.1
342.275	613.1
342.672	583.4
343.069	585.1
343.466	574.2
343.842	599.8
344.239	585.4
344.636	593.8
345.033	580.5
345.431	587.8
345.828	592.6
346.225	588.9
346.623	603.1
347.02	590.6
347.418	600.9
347.816	610
348.213	589.8
348.611	600.6
349.009	589.7
349.407	606.3
349.805	581.4
350.203	582.2
350.601	603.6
350.999	588.5
351.397	581.3
351.795	587.3
352.193	601.1
352.57	599.5
352.969	593.3
353.367	581
353.766	581.8
354.164	587.6
354.563	600.7
354.961	591.4
355.36	584.6
355.759	584.1
356.158	579.2
356.557	585.4
356.956	577.5
357.355	578.5
357.754	594.3
358.153	599.3
358.552	613.3
358.951	583.7
359.35	604.2
359.75	585.6
360.149	580.4
360.527	577.9
360.926	581.3
361.326	593.1
361.726	587
362.125	583.1
362.525	603.2
362.925	585.4
363.325	592.4
363.724	588.3
364.124	585.7
364.524	581.3
364.924	580.6
365.324	594.9
365.725	575.1
366.125	589.5
366.525	588.7
366.904	582.2
367.304	568.5
367.705	607.9
368.105	600.5
368.506	583.9
368.906	589.2
369.307	591
369.708	595.3
370.108	584.3
370.509	597.8
370.91	582
371.311	593.9
371.712	587.8
372.113	582
372.514	574.1
372.894	589.9
373.295	582.6
373.696	597
374.097	594.4
374.499	610
374.9	582.9
375.301	581.6
375.703	589.2
376.105	576.8
376.506	589.8
376.908	590.7
377.309	584.2
377.711	581.1
378.113	585.6
378.493	591.5
378.895	582.7
379.297	592.1
379.699	579.4
380.102	591.3
380.504	585.4
380.906	578.7
381.308	606
381.71	582.2
382.113	593.1
382.515	582.6
382.918	582.5
383.299	581.1
383.701	588.7
384.104	586
384.507	567.1
384.909	585.3
385.312	579.4
385.715	577.7
386.118	577.7
386.521	572
386.924	593.5
387.327	574.5
387.709	569.2
388.112	569.8
388.515	577.6
388.918	581.1
389.322	587.3
389.725	578.2
390.129	603
390.532	585.5
390.936	580.2
391.339	575.3
391.743	583.2
392.125	577.5
392.529	591.4
392.933	591.8
393.337	588.1
393.74	588.6
394.144	584.9
394.548	576.4
394.953	577.3
395.357	590.9
395.761	581.4
396.144	586.5
396.548	586.4
396.952	584.9
397.357	588.2
397.761	579.3
398.166	574.9
398.57	584.1
398.975	577.1
399.379	584.7
399.763	631.6
400.168	578.8
400.572	582.7
400.977	576.9
401.382	602.6
401.787	592.8
402.192	604.2
402.597	600.8
403.002	575.1
403.386	599.2
403.791	601.2
404.197	578.5
404.602	590.6
405.007	585.3
405.413	578.9
405.818	576.2
406.224	573.6
406.608	578.7
407.014	580.3
407.42	601.9
407.825	576.7
408.231	594.3
408.637	578.8
409.043	597.8
409.449	579.7
409.834	578.5
410.24	583.6
410.646	595.8
411.052	597
411.458	585.2
411.865	590
412.271	598.1
412.677	580.6
413.062	588.9
413.469	578.8
413.875	602.7
414.282	595.7
414.689	587.2
415.095	594.7
415.502	579.9
415.888	586.7
416.294	581.6
416.701	622.9
417.108	578.5
417.515	591.9
417.923	577.1
418.33	607.7
418.715	598.8
419.123	584.2
419.53	576.4
419.937	590.9
420.345	599.3
420.752	582.6
421.16	604.3
421.546	587.8
421.953	598.2
422.361	578
422.769	588.3
423.177	577
423.585	613
423.992	613.2
424.379	603.7
424.787	593.3
425.195	597.8
425.603	588.7
426.011	601.9
426.419	601.2
426.806	586
427.214	587.2
427.623	599.6
428.031	604.4
428.44	593.6
428.848	600.6
429.235	605.9
429.644	586
430.053	589.2
430.461	603.1
430.87	616
431.279	599.2
431.666	582.6
432.075	590.8
432.484	596.5
432.893	585.2
433.302	608
433.711	633.7
434.099	589.5
434.508	591.1
434.918	578.5
435.327	597.3
435.737	596.1
436.125	592.6
436.534	590.7
436.944	604.7
437.353	597.8
437.763	613.1
438.173	580.9
438.561	605.3
438.971	576.7
439.381	593.7
439.791	597.4
440.201	575.9
440.589	598.5
440.999	600.7
441.409	597.3
441.819	583.6
442.23	606.4
442.619	608.1
443.029	604.4
443.439	600.6
443.85	606
444.26	611.9
444.649	604.4
445.06	599.4
445.471	593.8
445.881	598.4
446.292	614.9
446.682	626
447.092	586.3
447.503	655.3
447.914	608.8
448.325	607.4
448.715	596.4
449.126	598.3
449.537	602.7
449.948	603.1
450.338	606.9
450.75	614.8
451.161	605.3
451.572	612.9
451.984	589.5
452.374	589
452.786	607.1
453.197	610.9
453.609	610.7
453.999	595.8
454.411	596.6
454.823	618.1
455.235	612.9
455.647	605
456.037	606.8
456.449	595.8
456.862	605
457.274	614.8
457.665	595.7
458.077	609.4
458.489	623.4
458.902	598.1
459.293	604.6
459.705	609
460.118	601.5
460.53	607.9
460.921	609.4
461.334	607.4
461.747	608.4
462.16	624.3
462.551	617.3
462.964	612.1
463.377	589.8
463.79	594.8
464.182	616.7
464.595	600.4
465.008	611.9
465.421	609.5
465.813	605.4
466.226	614.9
466.64	603.8
467.053	650.9
467.445	610.2
467.859	609.3
468.272	603.7
468.686	615.4
469.078	599.6
469.492	595.6
469.906	604
470.298	613.4
470.712	594.3
471.126	640.8
471.54	587.9
471.933	591.4
472.347	600
472.761	597
473.175	589.1
473.568	601.3
473.982	593.3
474.397	601.4
474.79	605.3
475.204	611.1
475.619	600.5
476.033	602.1
476.426	606.8
476.841	588.1
477.256	628.4
477.649	596.8
478.064	586.3
478.479	591.7
478.872	594.8
479.287	588.7
479.702	587.9
480.118	597.9
480.511	593.8
480.927	593.9
481.342	592.2
481.736	600.2
482.151	589.8
482.566	604.8
482.96	601.3
483.376	606.1
483.792	589.9
484.186	601.8
484.602	596
485.017	597.8
485.412	596.9
485.827	599
486.243	590.8
486.638	615.1
487.054	607.9
487.47	606.4
487.865	593.6
488.281	589.5
488.697	588.9
489.092	592.5
489.508	586.3
489.925	605.8
490.32	582
490.736	598.9
491.153	597.2
491.548	599.8
491.964	601.4
492.381	582.8
492.776	599.2
493.193	592.6
493.61	598.9
494.006	596.4
494.422	597.7
494.84	590.1
495.235	602.8
495.652	593.2
496.069	590.5
496.465	580.5
496.883	593
497.3	616.4
497.696	586.3
498.113	598.8
498.509	583.3
498.927	577.1
499.344	587.1
499.741	584.7
500.158	605
500.576	599.6
500.973	593.7
501.39	589.8
501.787	581.3
502.205	592
502.623	579.9
503.02	580.8
503.438	584.8
503.856	586.9
504.253	589.5
504.671	591.6
505.068	585.8
505.486	588.4
505.905	611.3
506.302	595.1
506.72	596.7
507.118	578.7
507.536	585
507.955	583.8
508.352	584.7
508.771	596.6
509.169	592.3
509.587	580.8
510.006	588.8
510.404	573.3
510.823	582.9
511.221	581.3
511.64	585.9
512.038	598
512.457	586.5
512.877	589.9
513.275	582.6
513.694	587.4
514.092	580.9
514.512	588.2
514.91	579.9
515.33	587.6
515.749	589.5
516.148	589.9
516.568	585.5
516.966	583.9
517.386	581.1
517.785	587
518.205	580.6
518.603	580.7
519.024	580
519.444	588.3
519.843	595.1
520.263	590.5
520.662	581.8
521.082	590.2
521.481	584.7
521.902	585.7
522.301	584.2
522.722	583.2
523.121	578.7
523.542	582.2
523.963	583.9
524.362	589.4
524.783	582.4
525.183	578.5
525.604	592.7
526.003	575
526.425	572.8
526.824	589.7
527.246	585.6
527.646	588.8
528.067	586.4
528.467	580.9
528.888	582.5
529.289	580.3
529.71	582.1
530.11	577.4
530.532	575.2
530.932	577.6
531.354	574.6
531.755	610.9
532.176	582.3
532.577	571.7
532.999	576.6
533.4	575.8
533.822	588.9
534.223	577.4
534.645	575.8
535.046	575.9
535.468	579.8
535.869	590.9
536.292	573.3
536.693	576.5
537.115	581.5
537.516	573.9
537.939	576.4
538.34	597.8
538.742	589.6
539.165	579
539.566	579.9
539.989	572.5
540.391	574
540.814	574.3
541.216	575.3
541.639	580
542.041	584.2
542.464	574.5
542.866	570
543.268	568.5
543.691	579.4
544.093	585.9
544.517	590.3
544.919	571.5
545.343	596.1
545.745	570.6
546.147	582
546.571	574.7
546.974	565.8
547.398	577.4
547.8	586.3
548.224	574.6
548.627	568.1
549.03	582
549.454	566.1
549.857	563.6
550.281	566.9
550.684	569.2
551.087	584.6
551.512	581.8
551.915	582.2
552.34	579.6
552.743	571.8
553.146	579.3
553.571	574.9
553.975	592.9
554.399	568.7
554.803	614.9
555.207	570.2
555.632	563.8
556.036	583.5
556.461	566.2
556.865	580.4
557.268	563.4
557.694	571
558.098	578.4
558.502	574.7
558.927	567.1
559.332	569.5
559.736	577.2
560.162	586
560.566	567.7
560.992	576.2
561.396	575.3
561.801	575.6
562.227	577.3
562.631	574.5
563.036	574.8
563.462	582.8
563.867	574.5
564.272	563.7
564.698	577.7
565.103	562.7
565.508	586.9
565.935	579.4
566.34	571.6
566.745	579.4
567.172	569.9
567.577	592.6
567.982	584.8
568.409	575
568.815	569.8
569.22	578
569.626	578.6
570.053	562.4
570.459	573
570.865	578.3
571.292	576.7
571.698	576.6
572.104	560.9
572.531	570.8
572.937	583.6
573.343	569.8
573.75	564.5
574.177	575.7
574.583	581.8
574.99	570.7
575.396	577.1
575.824	568.7
576.231	571.9
576.637	571.2
577.065	593.4
577.472	559
577.879	568.6
578.286	588.2
578.714	566.4
579.121	569.5
579.528	574
579.935	578.6
580.364	570.5
580.771	557.1
581.178	564
581.585	569.2
582.014	574.3
582.421	561.1
582.829	570.7
583.236	574.5
583.644	559.5
584.073	564.5
584.481	569.9
584.889	558.8
585.296	577
585.726	568.3
586.134	566.1
586.542	567
586.95	585.5
587.358	564.1
587.787	570.6
588.196	558.2
588.604	567.1
589.012	567.1
589.421	561.3
589.851	561.2
590.259	575.5
590.668	564.5
591.076	607.1
591.485	561.2
591.894	566.9
592.324	584.2
592.733	581.1
593.142	557.8
593.551	564.8
593.96	577.7
594.369	561.3
594.8	565.2
595.209	571.3
595.618	552
596.028	564.4
596.437	560
596.847	564.5
597.256	577.1
597.687	578.8
598.097	571.9
598.507	563.2
598.917	572.8
599.327	572
599.736	574.5
600.146	577.2
600.556	568.9
600.988	580.1
601.398	565.5
601.808	576.9
602.219	559.2
602.629	568.6
603.039	573.3
603.45	597.8
603.86	568.2
604.271	586.6
604.703	566.9
605.114	568.9
605.525	568.5
605.935	579.5
606.346	599.9
606.757	578.8
607.168	568
607.579	563.9
607.99	588.4
608.402	570.3
608.813	575.8
609.224	567.2
609.636	559.4
610.047	561
610.48	570.1
610.892	575.5
611.303	577.5
611.715	568.4
612.127	559.4
612.539	562.9
612.95	569.1
613.362	558.7
613.774	557.2
614.186	566.2
614.599	564.2
615.011	572.4
615.423	552.5
615.835	561.5
616.248	558.9
616.66	577.4
617.073	559.1
617.485	564.4
617.898	575.2
618.311	573.2
618.723	566.1
619.136	594.4
619.549	580
619.962	589.9
620.375	565.8
620.788	571.6
621.201	558.7
621.614	575.9
622.028	571.6
622.441	566.8
622.854	578.1
623.268	560
623.681	573.7
624.095	571.1
624.509	569.5
624.922	575.8
625.336	555
625.728	566.4
626.142	577.2
626.556	583.8
626.97	581.7
627.384	556.2
627.799	567.8
628.213	577.1
628.627	561.1
629.041	559.3
629.456	566.2
629.87	573.5
630.285	580
630.699	577.3
631.093	564
631.507	577.3
631.922	571.8
632.337	582.3
632.752	555.1
633.167	567.5
633.582	567.9
633.997	566.3
634.412	562.6
634.806	567.7
635.221	560.7
635.637	575.8
636.052	549.7
636.468	565.7
636.883	583.3
637.299	560.2
637.715	553.9
638.109	560.2
638.525	554.2
638.941	574.1
639.357	575.2
639.773	578.2
640.189	561.7
640.584	567.2
641	569.3
641.416	554.4
641.832	563.9
642.249	565.8
642.665	568.9
643.06	572.3
643.477	573.7
643.894	556
644.31	562.8
644.727	570.4
645.123	566.3
645.54	560.3
645.957	563
646.374	574.2
646.77	567
647.187	589.6
647.604	567.7
648.021	550.9
648.439	561.4
648.835	568.8
649.252	563.3
649.67	566.3
650.088	568.8
650.484	570.8
650.902	573.6
651.32	578.9
651.738	564.4
652.134	570.3
652.552	581
652.971	574
653.389	562.4
653.786	582.2
654.204	575.1
654.622	563.2
655.019	571
655.438	572.2
655.857	565.2
656.275	567.5
656.673	556.8
657.091	628.6
657.51	563.3
657.908	573.4
658.327	584.3
658.746	555.5
659.144	564.4
659.563	576.5
659.982	565.3
660.38	554
660.8	565.2
661.219	570
661.617	566.6
662.037	563.9
662.457	577.2
662.855	549.6
663.275	593.3
663.695	565.4
664.094	564.7
664.514	566.1
664.934	556.1
665.333	572.5
665.753	559.3
666.152	558.1
666.572	560.6
666.993	573
667.392	563.3
667.812	557.7
668.212	555.7
668.632	571.7
669.053	560.2
669.453	567.3
669.874	561.6
670.273	566.9
670.694	560.7
671.116	574.8
671.515	570.5
671.937	566.5
672.337	556.9
672.758	561.9
673.158	572
673.58	554.2
673.98	563.4
674.402	574.7
674.824	565.3
675.224	558
675.646	551.7
676.047	556.6
676.469	551.9
676.869	564
677.292	557.6
677.693	556.9
678.115	560
678.516	563.2
678.939	562.2
679.34	560.9
679.762	576.4
680.164	565.9
680.586	553.2
680.988	561.3
681.411	589.7
681.812	560.4
682.236	553.9
682.637	558
683.061	554
683.462	566.1
683.864	561.6
684.288	568.2
684.69	551.3
685.114	568.6
685.516	571.5
685.94	554.1
686.342	572
686.766	553.8
687.168	561.4
687.571	572.4
687.995	563.2
688.398	553.4
688.822	564.7
689.225	578.5
689.628	576.2
690.052	558.9
690.456	569.7
690.88	567.5
691.284	550.9
691.687	567.8
692.112	559.4
692.515	556.2
692.919	565
693.344	570.3
693.747	562.4
694.173	554.2
694.577	567.9
694.98	564.5
695.406	562.5
695.81	566.7
696.214	572.4
696.64	561.2
697.044	570
697.448	574.9
697.874	563.4
698.279	563.3
698.684	557.8
699.11	553.1
699.514	556.8
699.919	554.7
700.324	559.7
700.75	562.6
701.156	566.2
701.561	573.7
701.987	569.4
702.393	569.6
702.798	573.4
703.203	562.6
703.63	557.7
704.036	559.1
704.442	566
704.847	554.6
705.274	559
705.68	571.5
706.086	572.1
706.492	557.1
706.92	561.9
707.326	574.5
707.732	558.2
708.139	556.1
708.545	546.8
708.973	556.6
709.38	559.9
709.786	553.3
710.193	582.7
710.6	559.7
711.028	555.3
711.435	559.1
711.842	560.6
712.249	561.6
712.656	561.7
713.064	568.8
713.492	553.2
713.9	553.9
714.307	564.8
714.715	561
715.123	564.4
715.53	563.3
715.938	574
716.367	564.1
716.775	560.8
717.184	550.1
717.592	558.2
718	573.5
718.408	597.5
718.816	603.8
719.225	565.1
719.633	561.7
720.042	554.2
720.472	557.9
720.881	578.6
721.29	570.4
721.699	552.2
722.108	563.6
722.517	566.1
722.926	555.6
723.335	569.9
723.744	560.5
724.154	563.1
724.563	555.7
724.973	567.7
725.382	561.5
725.792	559.9
726.202	555.8
726.612	567.2
727.022	559.9
727.432	556.7
779.813	558.6
780.223	604.5
780.634	560.9
781.044	553.3
781.454	562.5
781.865	574.4
782.276	557.5
782.686	571.9
783.097	564.8
783.508	552.7
783.919	565.1
784.33	574.8
784.741	571.8
785.152	555.4
785.563	545.5
785.974	559.7
786.386	576.5
786.776	555.9
787.188	563.3
787.599	556.3
788.011	562.8
788.423	568.7
788.835	553
789.247	548.1
789.659	554.7
790.071	554.3
790.483	605.8
790.874	552.3
791.286	567.7
791.699	558.1
792.111	560.9
792.524	559
792.937	562.3
793.349	552
793.741	551.7
794.154	559.8
794.567	585.5
794.98	558.2
795.393	550.1
795.785	577
796.198	553.4
796.612	560.3
797.026	560
797.439	543.5
797.831	560.6
798.245	547.5
798.659	555.8
799.073	560.9
799.487	552.2
799.88	565.8
800.294	558.1
800.708	565.3
801.123	559.6
801.516	570.6
801.93	551.9
802.345	545.8
802.76	560.1
803.153	577.9
803.568	572.8
803.983	566.2
804.377	564.6
804.792	549.1
805.207	546.5
805.601	561.2
806.016	589.1
806.432	549.7
806.826	592
807.242	572.5
807.658	558.3
808.052	553.4
808.468	550.6
808.884	554
809.279	549.4
809.695	572
810.111	581.1
810.506	564.5
810.922	574.8
811.339	553.1
811.734	562.5
812.151	554.3
812.546	553.5
812.963	552.5
813.38	562.3
813.776	560.4
814.193	576.4
814.589	550.6
815.006	554.1
815.402	548
815.82	551.5
816.237	559.6
816.633	559.6
817.051	546.8
817.448	555.8
817.866	547.6
818.262	573.3
818.68	550.5
819.077	547.9
819.495	559.1
819.892	594.7
820.311	548.4
820.708	555.9
821.127	557.9
821.524	569.3
821.943	560.1
822.34	571.5
822.759	556.1
823.157	554.9
823.576	568.5
823.974	563.1
824.393	572.4
824.791	551.9
825.189	546.5
825.609	551.6
826.007	561.7
826.427	548.8
826.826	554
827.246	562
827.644	541.4
828.043	568.1
828.463	552.1
828.862	565.2
829.261	561.4
829.682	550.6
830.081	562.7
830.502	556.7
830.901	564
831.301	550.4
831.722	547.1
832.121	557.7
832.521	558
832.943	559.2
833.342	554.3
833.742	548.5
834.164	549.9
834.564	548.7
834.965	558.3
835.386	557.6
835.787	554.1
836.188	551.7
836.588	558.8
837.01	558.8
837.411	545.9
837.812	560.9
838.213	560.1
838.636	552.8
839.037	625.9
839.438	557.5
839.84	563.2
840.263	563.7
840.664	556.8
841.066	554.4
841.468	560.7
841.891	549.7
842.293	568.2
842.695	562.6
843.098	563.5
843.5	551.5
843.902	561.1
844.326	561.7
844.729	557
845.131	565.3
845.534	556
845.937	567.9
846.34	572.6
846.764	549.4
847.167	562.8
847.571	550.4
