#lambda/nm	C1
208.295	473.1
208.67	437.1
209.045	403.6
209.419	408
209.794	596.5
210.169	576.5
210.544	693.8
210.919	598.5
211.295	583.3
211.67	593.2
212.045	589.2
212.421	585.7
212.796	622.6
213.172	590.9
213.547	582.4
213.923	589.7
214.299	580.9
214.675	599
215.051	588.4
215.427	598.2
215.803	603
216.179	596.9
216.555	582.9
216.932	598.1
217.308	584.2
217.684	588.7
218.061	595.5
218.438	592.4
218.814	581.3
219.191	598.7
219.568	579.9
219.945	585.1
220.322	594.4
220.699	590.3
221.076	595.4
221.453	588.6
221.83	581.6
222.208	587.9
222.585	592
222.962	593.3
223.34	592.1
223.717	589.9
224.095	590.4
224.473	593.3
224.851	587.9
225.229	581.6
225.607	601.4
225.985	577.2
226.363	592.6
226.741	590.6
227.119	594.5
227.497	603.6
227.876	579.8
228.254	596.7
228.633	594.9
229.011	594.5
229.39	592.5
229.769	594.1
230.148	597.5
230.527	608.7
230.905	592.6
231.284	592.5
231.664	587.7
232.043	603
232.422	599.5
232.801	588
233.181	596.8
233.56	587.2
233.94	592.2
234.319	579.8
234.699	587.3
235.079	629.4
235.458	631.2
235.838	609.6
236.218	584.2
236.598	583
236.978	586.3
237.358	586.9
237.738	584.1
238.119	594.8
238.499	574.6
238.88	589.2
239.26	608.1
239.641	578.5
240.021	584.8
240.402	587.4
240.783	589.3
241.163	596.4
241.544	587.2
241.925	591.1
242.306	601.8
242.687	583.4
243.069	590.9
243.45	600
243.831	588.1
244.212	589.7
244.594	626.1
244.975	595.9
245.357	592.3
245.739	580.4
246.12	592.4
246.502	609.2
246.884	593.7
247.266	588.4
247.648	591.3
248.03	617.9
248.412	591.1
248.794	601.4
249.176	585.6
249.559	604.2
249.941	587.3
250.323	580.5
250.706	577.7
251.089	587.2
251.471	589.9
251.854	597.2
252.237	599.1
252.62	600.9
253.002	587
253.385	593.1
253.769	603.5
254.152	592.8
254.535	594.6
254.918	586.1
255.301	587
255.685	593.8
256.068	586.5
256.452	615.1
256.835	594.9
257.219	599
257.603	594.9
257.986	578.9
258.37	592.3
258.754	582.8
259.138	593.7
259.522	598.5
259.906	587.3
260.29	601.3
260.675	588.3
261.059	594.8
261.443	585.1
261.828	598.7
262.212	594.6
262.597	578.5
262.981	584.7
263.366	598.9
263.751	587.7
264.136	582.1
264.521	586.5
264.906	589
265.291	598.5
265.676	591.8
266.061	594.7
266.446	612.5
266.831	592.3
267.217	605.1
267.602	600.4
267.987	593.6
268.373	590.2
268.759	598.1
269.144	598.6
269.53	596.5
269.916	585.7
270.302	580.6
270.688	596.5
271.074	593
271.46	603.3
271.846	622.2
272.232	591.9
272.618	582.6
273.004	586.1
273.391	600.7
273.777	602.3
274.164	600.4
274.55	602.8
274.937	593.5
275.324	591.7
275.71	596.3
276.097	603.5
276.484	587.9
276.871	589.2
277.258	592.8
277.645	581
278.032	590.7
278.419	590.9
278.807	598.7
279.194	583.2
279.581	582.9
279.969	596.3
280.356	596.2
280.744	595.8
281.131	616.2
281.519	603.5
281.907	589.2
282.295	586.2
282.682	607
283.07	595.8
283.458	599.2
283.846	610
284.235	607.5
284.623	600
285.011	581.4
285.399	594.3
285.788	593.7
286.176	581.2
286.565	606
286.953	591.1
287.342	587.9
287.731	585.8
288.119	584.8
288.508	588.9
288.897	589.1
289.286	579
289.675	590.9
290.064	601.5
290.453	592.8
290.821	598.1
291.21	605.4
291.599	588.4
291.989	588.6
292.378	596.9
292.768	610.6
293.157	595.7
293.547	597.9
293.936	590.2
294.326	586.3
294.716	596.4
295.106	585.3
295.496	593.3
295.886	598.3
296.276	590.8
296.666	578.8
297.056	586.7
297.446	575.4
297.836	610.6
298.227	585.9
298.617	586.9
299.008	601.6
299.398	591.1
299.789	588
300.179	596.1
300.57	603.8
300.961	584.5
301.352	587.3
301.742	601.5
302.133	593.4
302.524	591.2
302.915	599.2
303.307	580.7
303.698	592
304.089	596.2
304.48	594.9
304.872	598.2
305.263	592.4
305.655	588.2
306.046	594
306.438	601.6
306.829	587.3
307.221	601.3
307.613	594.3
308.005	604.5
308.397	610
308.789	611.5
309.181	614.6
309.573	612
309.965	605.2
310.357	591.8
310.749	593.3
311.142	585
311.534	583.3
311.926	607.4
312.319	590.1
312.711	587.5
313.104	603.9
313.497	595.3
313.889	631.1
314.282	611.7
314.675	619.8
315.068	592.6
315.461	598.8
315.854	625.8
316.247	599.1
316.64	593.8
317.033	596.6
317.405	601
317.798	592
318.192	592.7
318.585	586.4
318.979	598.7
319.372	589.4
319.766	594.3
320.16	603.4
320.553	602.5
320.947	616.7
321.341	586.1
321.735	589.3
322.129	583.2
322.523	610
322.917	588
323.311	604.2
323.705	595.1
324.099	599.9
324.494	608.7
324.888	610.9
325.282	589.3
325.677	597.4
326.071	601.8
326.466	604.4
326.861	598.9
327.255	606.9
327.65	607.8
328.045	613.2
328.44	592.6
328.835	597
329.23	586.3
329.625	619.3
330.02	590.9
330.415	617.9
330.81	591.6
331.206	597.7
331.601	587.5
331.996	602.8
332.37	602.2
332.766	587.4
333.161	620.5
333.557	589.1
333.953	594.3
334.348	984.4
334.744	591
335.14	592.3
335.536	588.8
335.932	607.3
336.328	590.3
336.724	605.8
337.12	593.9
337.516	597.4
337.913	597.9
338.309	613.7
338.705	590
339.102	599.2
339.498	591.1
339.895	604.6
340.291	588.8
340.688	602.7
341.085	588.8
341.481	589.9
341.878	588
342.275	606.9
342.672	583
343.069	584.7
343.466	583.2
343.842	599.6
344.239	584.7
344.636	589
345.033	582.2
345.431	586
345.828	591.4
346.225	581.1
346.623	599.5
347.02	589.6
347.418	596.9
347.816	611.6
348.213	581.9
348.611	596.4
349.009	587.4
349.407	596.4
349.805	587.4
350.203	578.4
350.601	601.5
350.999	589.7
351.397	580
351.795	590.6
352.193	601.5
352.57	600.4
352.969	603.4
353.367	581.5
353.766	587.3
354.164	590.4
354.563	596.9
354.961	593.1
355.36	585.7
355.759	585.4
356.158	583.9
356.557	587.7
356.956	582.5
357.355	575.8
357.754	594.5
358.153	594
358.552	612.7
358.951	585.8
359.35	593.8
359.75	584.2
360.149	578.5
360.527	575.7
360.926	581.4
361.326	586.6
361.726	589.3
362.125	581.1
362.525	592.1
362.925	584.8
363.325	588.9
363.724	590
364.124	588.6
364.524	578.5
364.924	579.9
365.324	594.3
365.725	573.5
366.125	591.5
366.525	586.8
366.904	576.7
367.304	561.3
367.705	607.3
368.105	601.8
368.506	586.8
368.906	582.8
369.307	584.2
369.708	591.8
370.108	573.8
370.509	594.2
370.91	577.9
371.311	587.6
371.712	587.8
372.113	585.3
372.514	578
372.894	583.2
373.295	583.7
373.696	596.1
374.097	597.4
374.499	615.5
374.9	589.8
375.301	578.6
375.703	587.2
376.105	579.1
376.506	584.3
376.908	588.8
377.309	583.2
377.711	586.7
378.113	577.9
378.493	582.8
378.895	582.6
379.297	593.9
379.699	571.9
380.102	587.6
380.504	586.4
380.906	583.3
381.308	614.8
381.71	582.6
382.113	592.5
382.515	584.8
382.918	590.9
383.299	587.3
383.701	592.6
384.104	582.1
384.507	565.2
384.909	582.7
385.312	571
385.715	572.9
386.118	582.3
386.521	570.7
386.924	596.1
387.327	575.6
387.709	574.9
388.112	567.6
388.515	580.6
388.918	583.5
389.322	582.6
389.725	586.4
390.129	606.8
390.532	586.2
390.936	576.7
391.339	571
391.743	585.4
392.125	574.2
392.529	588.3
392.933	594.3
393.337	588.2
393.74	585.4
394.144	586.5
394.548	582.3
394.953	577.7
395.357	590.4
395.761	578.5
396.144	588.2
396.548	580.1
396.952	580.2
397.357	590.3
397.761	587.6
398.166	579.7
398.57	581.2
398.975	575.5
399.379	584.7
399.763	627.3
400.168	585.4
400.572	584
400.977	583.2
401.382	605.4
401.787	597.6
402.192	599.4
402.597	601.5
403.002	574.5
403.386	595.9
403.791	602.3
404.197	579.8
404.602	589.1
405.007	586.6
405.413	580.5
405.818	575.4
406.224	581.1
406.608	581.1
407.014	574.3
407.42	599.4
407.825	578.2
408.231	595.6
408.637	584.3
409.043	594.5
409.449	584.4
409.834	579.2
410.24	585.4
410.646	595.1
411.052	593.7
411.458	585.1
411.865	589.9
412.271	599.1
412.677	587.2
413.062	593.1
413.469	573.6
413.875	607.1
414.282	594.5
414.689	588.2
415.095	591.1
415.502	579
415.888	579.1
416.294	575.3
416.701	629.6
417.108	578.5
417.515	593.1
417.923	579.4
418.33	604.9
418.715	595.5
419.123	588.6
419.53	581.5
419.937	586.4
420.345	603.6
420.752	585.7
421.16	601.4
421.546	586.1
421.953	595.9
422.361	577.8
422.769	582.5
423.177	578.3
423.585	612.7
423.992	606.5
424.379	597.1
424.787	599.8
425.195	607.9
425.603	593.3
426.011	596.4
426.419	599.6
426.806	591.9
427.214	591.5
427.623	597.2
428.031	604
428.44	586.3
428.848	597.5
429.235	603.1
429.644	588.7
430.053	593.6
430.461	606.2
430.87	621.6
431.279	600.9
431.666	584.5
432.075	593.7
432.484	599.2
432.893	594.3
433.302	617.9
433.711	630.6
434.099	597.1
434.508	595.4
434.918	588.5
435.327	610.2
435.737	602.5
436.125	602.2
436.534	602.7
436.944	603
437.353	605
437.763	619.6
438.173	598.1
438.561	614.8
438.971	592.4
439.381	604.8
439.791	610
440.201	590.7
440.589	608
440.999	619.1
441.409	611.6
441.819	600.2
442.23	612.7
442.619	613.3
443.029	612.7
443.439	611.6
443.85	619.3
444.26	629
444.649	616.8
445.06	612.8
445.471	606.7
445.881	612.9
446.292	624.1
446.682	629
447.092	597.6
447.503	656.1
447.914	615.1
448.325	608.2
448.715	612.5
449.126	605.5
449.537	617.2
449.948	613.3
450.338	614.7
450.75	623.2
451.161	612.9
451.572	623.3
451.984	607.1
452.374	594.9
452.786	619.1
453.197	623.1
453.609	622
453.999	602.8
454.411	610.8
454.823	630.5
455.235	620.6
455.647	611.6
456.037	616.8
456.449	598.1
456.862	617.4
457.274	617.1
457.665	609.6
458.077	618.1
458.489	627.7
458.902	616
459.293	619.1
459.705	616
460.118	603.6
460.53	613
460.921	615.3
461.334	621
461.747	610.2
462.16	620.7
462.551	627.3
462.964	615
463.377	602.4
463.79	610.1
464.182	626.1
464.595	606.5
465.008	611.4
465.421	619.6
465.813	607.8
466.226	617.9
466.64	610
467.053	659.9
467.445	625.3
467.859	616.7
468.272	616.2
468.686	626.9
469.078	608.9
469.492	602.5
469.906	605.9
470.298	618.5
470.712	600.7
471.126	643.8
471.54	597.5
471.933	604.1
472.347	610.7
472.761	613.5
473.175	600.3
473.568	607.7
473.982	601.3
474.397	608.9
474.79	603.8
475.204	616.4
475.619	602.9
476.033	615
476.426	609.9
476.841	606.8
477.256	633.8
477.649	602.1
478.064	594.6
478.479	598.9
478.872	605.8
479.287	599
479.702	593.1
480.118	600.1
480.511	604.6
480.927	588
481.342	594.8
481.736	601.5
482.151	594.9
482.566	610.5
482.96	602.5
483.376	611
483.792	598.1
484.186	606.3
484.602	595
485.017	604.4
485.412	604.9
485.827	604.5
486.243	601.6
486.638	625.5
487.054	609.5
487.47	613.9
487.865	596.3
488.281	601.9
488.697	599.3
489.092	599.7
489.508	594.4
489.925	609.5
490.32	593.6
490.736	605.8
491.153	603.9
491.548	604.5
491.964	613
492.381	582.6
492.776	598.8
493.193	601.2
493.61	607.9
494.006	598.7
494.422	606.5
494.84	590.6
495.235	604.6
495.652	598.5
496.069	602.4
496.465	587.9
496.883	600
497.3	622.2
497.696	588.2
498.113	602.5
498.509	583.2
498.927	592.3
499.344	587.7
499.741	592.4
500.158	605.6
500.576	602.8
500.973	598.5
501.39	588
501.787	586.4
502.205	595.3
502.623	583.4
503.02	581.1
503.438	590
503.856	588.4
504.253	595.6
504.671	594.6
505.068	591.3
505.486	592.8
505.905	613.7
506.302	594.5
506.72	603
507.118	584.5
507.536	595
507.955	590.2
508.352	596.3
508.771	596.2
509.169	594.5
509.587	590.1
510.006	589.2
510.404	577.1
510.823	577.5
511.221	584.8
511.64	589
512.038	598.4
512.457	594.4
512.877	590.3
513.275	584
513.694	585.5
514.092	587.6
514.512	589.2
514.91	587.7
515.33	591.2
515.749	587.7
516.148	589.1
516.568	593.4
516.966	589.6
517.386	580.8
517.785	591.6
518.205	586
518.603	579.7
519.024	581.2
519.444	595.9
519.843	591.3
520.263	588.5
520.662	584.9
521.082	582.1
521.481	586.6
521.902	581.2
522.301	585.6
522.722	585.3
523.121	587
523.542	576.3
523.963	582.7
524.362	583.7
524.783	589.6
525.183	580.9
525.604	587.8
526.003	577.5
526.425	577.6
526.824	592.1
527.246	592.5
527.646	595.3
528.067	582.9
528.467	584.5
528.888	589.7
529.289	576.7
529.71	578.3
530.11	580.7
530.532	574.6
530.932	573
531.354	577.4
531.755	615.9
532.176	589.3
532.577	578.3
532.999	580.2
533.4	577.7
533.822	588.2
534.223	580.9
534.645	584.8
535.046	575.8
535.468	582.2
535.869	597
536.292	576.5
536.693	580.4
537.115	586.1
537.516	574.5
537.939	577.5
538.34	597.6
538.742	589.6
539.165	577.7
539.566	575.7
539.989	576.6
540.391	572.8
540.814	579.5
541.216	581.1
541.639	577.4
542.041	583
542.464	574.7
542.866	573.9
543.268	567.9
543.691	579.6
544.093	581.7
544.517	597.9
544.919	569.7
545.343	597.7
545.745	573.2
546.147	578.5
546.571	572.4
546.974	570.9
547.398	583.5
547.8	588.7
548.224	575
548.627	569.8
549.03	583.5
549.454	568.6
549.857	568.1
550.281	570.6
550.684	568.8
551.087	585.6
551.512	579.7
551.915	583.6
552.34	580.4
552.743	572.6
553.146	581.7
553.571	574.6
553.975	592.2
554.399	567.1
554.803	624.9
555.207	576.1
555.632	569.1
556.036	578
556.461	565
556.865	575.2
557.268	562.4
557.694	570
558.098	580.1
558.502	574.3
558.927	567.7
559.332	573.1
559.736	569.7
560.162	585
560.566	573.5
560.992	574.4
561.396	574.6
561.801	575.4
562.227	574.1
562.631	572.7
563.036	578.3
563.462	590.2
563.867	575.8
564.272	566.1
564.698	579.4
565.103	564.8
565.508	591.3
565.935	571.3
566.34	571.1
566.745	586.2
567.172	570.8
567.577	586.2
567.982	585.9
568.409	580.4
568.815	566.5
569.22	579.8
569.626	577.9
570.053	557.9
570.459	571.1
570.865	576.4
571.292	576.9
571.698	575.8
572.104	559.5
572.531	568
572.937	576
573.343	569.9
573.75	567.4
574.177	574.2
574.583	574.5
574.99	564.8
575.396	578.1
575.824	567.2
576.231	577.2
576.637	565.2
577.065	597.3
577.472	564.9
577.879	565.5
578.286	580.2
578.714	564.9
579.121	566.7
579.528	568.5
579.935	578.3
580.364	564.2
580.771	560
581.178	565.2
581.585	572.9
582.014	576.2
582.421	569.9
582.829	569
583.236	577.1
583.644	563.2
584.073	573.5
584.481	568.7
584.889	564.7
585.296	574.1
585.726	574.2
586.134	559.7
586.542	566.9
586.95	586.1
587.358	564.7
587.787	567.4
588.196	558.2
588.604	570.7
589.012	569.1
589.421	563.6
589.851	568.3
590.259	575.6
590.668	566.9
591.076	611.1
591.485	562.3
591.894	572.8
592.324	584.9
592.733	584.9
593.142	555.9
593.551	565.8
593.96	602.7
594.369	562.2
594.8	563.6
595.209	568.3
595.618	557.8
596.028	561.7
596.437	554.3
596.847	564.1
597.256	573.1
597.687	567.8
598.097	574.5
598.507	561.4
598.917	571
599.327	576.5
599.736	566.9
600.146	576.8
600.556	569.7
600.988	583.7
601.398	568.7
601.808	577.2
602.219	556.8
602.629	568.7
603.039	573
603.45	587.2
603.86	569.8
604.271	586.9
604.703	573.4
605.114	571.8
605.525	573.5
605.935	574.3
606.346	591.7
606.757	575
607.168	564.3
607.579	562.7
607.99	580.9
608.402	574.4
608.813	573.8
609.224	568.5
609.636	560.8
610.047	561.1
610.48	567.7
610.892	579.8
611.303	576.5
611.715	571.4
612.127	561.8
612.539	566.2
612.95	567.9
613.362	562.5
613.774	559.1
614.186	563.7
614.599	562.1
615.011	576.4
615.423	560
615.835	563.6
616.248	560
616.66	575.8
617.073	556.7
617.485	568
617.898	570.8
618.311	560.9
618.723	570.5
619.136	591.3
619.549	575.4
619.962	594.4
620.375	566
620.788	568
621.201	566
621.614	570.1
622.028	563.7
622.441	570
622.854	574.2
623.268	561.5
623.681	572.5
624.095	570.8
624.509	571.4
624.922	572.6
625.336	556.6
625.728	565.2
626.142	576.3
626.556	585.3
626.97	572.1
627.384	564.4
627.799	560.6
628.213	580.5
628.627	562.3
629.041	561.4
629.456	559.6
629.87	568.8
630.285	576.4
630.699	574.2
631.093	566.3
631.507	572.3
631.922	565.4
632.337	578.6
632.752	563.3
633.167	565.3
633.582	561.7
633.997	557.5
634.412	566.2
634.806	567.5
635.221	555.5
635.637	577.5
636.052	557.3
636.468	574.4
636.883	582.7
637.299	563.8
637.715	557.4
638.109	563.9
638.525	550
638.941	573.4
639.357	568.5
639.773	579.1
640.189	562.7
640.584	565.9
641	566.7
641.416	555.5
641.832	563.1
642.249	566.2
642.665	563.8
643.06	572.3
643.477	573.2
643.894	548.2
644.31	562.6
644.727	564.6
645.123	569.3
645.54	560.2
645.957	564.3
646.374	569.3
646.77	565.1
647.187	592.9
647.604	568.6
648.021	547.3
648.439	559.7
648.835	568.5
649.252	564.7
649.67	562.9
650.088	567.2
650.484	565.8
650.902	572.3
651.32	573.4
651.738	560.5
652.134	565.4
652.552	573.9
652.971	575.9
653.389	562.3
653.786	576.5
654.204	562.4
654.622	551.9
655.019	562.5
655.438	572.5
655.857	566.2
656.275	568.8
656.673	564.6
657.091	632.4
657.51	560.1
657.908	573.7
658.327	579
658.746	555.2
659.144	563
659.563	578.5
659.982	566.7
660.38	554.7
660.8	563.5
661.219	576.5
661.617	566.4
662.037	566.9
662.457	573.4
662.855	550.1
663.275	597.6
663.695	564.2
664.094	565.4
664.514	567.2
664.934	559.2
665.333	570.6
665.753	555.1
666.152	555.3
666.572	551.8
666.993	577.9
667.392	559.9
667.812	560.4
668.212	559.7
668.632	571.3
669.053	561.5
669.453	566.5
669.874	567.4
670.273	571.9
670.694	553.1
671.116	579.8
671.515	576.4
671.937	566.1
672.337	560.8
672.758	563.1
673.158	572.6
673.58	558.4
673.98	566.7
674.402	574.3
674.824	566.5
675.224	556.5
675.646	556.5
676.047	559.7
676.469	565.1
676.869	565.6
677.292	571.4
677.693	556.8
678.115	556.4
678.516	569.3
678.939	566.6
679.34	561.9
679.762	573.3
680.164	569.9
680.586	557.3
680.988	565.4
681.411	590.4
681.812	558.6
682.236	557.1
682.637	557.3
683.061	554.7
683.462	563.2
683.864	562.8
684.288	567.8
684.69	551.9
685.114	578.6
685.516	570.2
685.94	552.9
686.342	572.3
686.766	557.7
687.168	557.9
687.571	585.3
687.995	563.5
688.398	550.6
688.822	560.1
689.225	577.8
689.628	582.6
690.052	564.3
690.456	561.3
690.88	568.7
691.284	554.1
691.687	565
692.112	553.4
692.515	548.5
692.919	563
693.344	567.3
693.747	561.1
694.173	561.3
694.577	569.4
694.98	567.9
695.406	559.6
695.81	565.1
696.214	570.3
696.64	568.1
697.044	566.6
697.448	576
697.874	559.3
698.279	560.6
698.684	555.7
699.11	560.5
699.514	556.6
699.919	552
700.324	553.8
700.75	564.1
701.156	560
701.561	570.7
701.987	565.3
702.393	571.9
702.798	569.8
703.203	562
703.63	555.2
704.036	558.3
704.442	561.1
704.847	551.2
705.274	556.3
705.68	571.4
706.086	568.9
706.492	553.9
706.92	561.6
707.326	572
707.732	561.6
708.139	560.2
708.545	555.6
708.973	555.6
709.38	561.2
709.786	548.1
710.193	578.7
710.6	568.6
711.028	555.8
711.435	562.6
711.842	557
712.249	558.1
712.656	561.1
713.064	566.3
713.492	554.5
713.9	555.5
714.307	567.3
714.715	560.7
715.123	562.5
715.53	560.3
715.938	570.9
716.367	564.6
716.775	556.3
717.184	551.3
717.592	560.1
718	569
718.408	590.7
718.816	604.5
719.225	565.6
719.633	562.2
720.042	555.5
720.472	553.8
720.881	584.1
721.29	565.2
721.699	550.8
722.108	565.5
722.517	560.5
722.926	553.3
723.335	566.9
723.744	557.4
724.154	569.6
724.563	557.5
724.973	565.1
725.382	560.9
725.792	563.4
726.202	551.2
726.612	568.8
727.022	559.9
727.432	552.7
779.813	565.1
780.223	596.8
780.634	550.7
781.044	556.4
781.454	562.5
781.865	577
782.276	549.5
782.686	573.9
783.097	561.3
783.508	558.6
783.919	565.6
784.33	572.7
784.741	573.6
785.152	552.1
785.563	545.4
785.974	559.1
786.386	567.9
786.776	555
787.188	559.2
787.599	551.9
788.011	565.5
788.423	562.4
788.835	553.8
789.247	551.1
789.659	553.2
790.071	555.3
790.483	602.6
790.874	558.2
791.286	567.2
791.699	558.4
792.111	558.4
792.524	560.3
792.937	558.5
793.349	553.3
793.741	559.9
794.154	557.6
794.567	575
794.98	561.1
795.393	554.8
795.785	572.9
796.198	552.8
796.612	565.4
797.026	557.5
797.439	540.5
797.831	560.7
798.245	550.7
798.659	558.9
799.073	553
799.487	549.9
799.88	559.6
800.294	557.5
800.708	563.4
801.123	567.7
801.516	573.6
801.93	545.1
802.345	544.2
802.76	554
803.153	570.1
803.568	572.9
803.983	574.3
804.377	565.3
804.792	548.1
805.207	544.1
805.601	557.7
806.016	600.3
806.432	551.6
806.826	587.6
807.242	573
807.658	565.6
808.052	555.7
808.468	552.9
808.884	556.7
809.279	561.2
809.695	570
810.111	579.1
810.506	569.2
810.922	579.1
811.339	562.1
811.734	570.9
812.151	557.4
812.546	554
812.963	553.3
813.38	565.9
813.776	561.2
814.193	584.1
814.589	551.8
815.006	555.5
815.402	555
815.82	556.7
816.237	564.3
816.633	553.2
817.051	548.4
817.448	559.3
817.866	550.8
818.262	578.5
818.68	554.5
819.077	559.5
819.495	553.2
819.892	595.8
820.311	552.5
820.708	553.8
821.127	555.4
821.524	569.4
821.943	558.7
822.34	571.7
822.759	559
823.157	555.5
823.576	568.3
823.974	560.2
824.393	570.1
824.791	553.1
825.189	548.5
825.609	547.9
826.007	556.9
826.427	545.6
826.826	556.1
827.246	565.5
827.644	544
828.043	565.9
828.463	555.2
828.862	569
829.261	568.1
829.682	543.3
830.081	566.1
830.502	552.5
830.901	563.8
831.301	555.6
831.722	549.3
832.121	558.6
832.521	554.7
832.943	555.3
833.342	563.4
833.742	550.1
834.164	550.3
834.564	547.9
834.965	555.9
835.386	557.4
835.787	559.9
836.188	555.4
836.588	557.5
837.01	554.7
837.411	548.5
837.812	565.1
838.213	560.1
838.636	552.4
839.037	628
839.438	556.5
839.84	560.7
840.263	562.6
840.664	559.4
841.066	551.7
841.468	561
841.891	551.3
842.293	564.8
842.695	562.7
843.098	571
843.5	552.9
843.902	567
844.326	560.2
844.729	561.2
845.131	571.8
845.534	556.6
845.937	567.2
846.34	571
846.764	554.2
