#lambda/nm	C1
208.295	470.4
208.67	441.1
209.045	401
209.419	411.4
209.794	596.3
210.169	577.3
210.544	694.8
210.919	595.8
211.295	580.5
211.67	594.1
212.045	579.7
212.421	579.2
212.796	616.5
213.172	580.7
213.547	583.8
213.923	581.3
214.299	584.3
214.675	594.5
215.051	588.7
215.427	590.7
215.803	611.2
216.179	589.6
216.555	579.8
216.932	595.8
217.308	590.1
217.684	584.3
218.061	593.1
218.438	593.7
218.814	583.9
219.191	594.7
219.568	579.2
219.945	582.4
220.322	595
220.699	594.8
221.076	599.5
221.453	598.7
221.83	573.5
222.208	579.8
222.585	583.6
222.962	590.2
223.34	590.5
223.717	588.2
224.095	582.9
224.473	588.4
224.851	582.8
225.229	575.6
225.607	607.2
225.985	576.5
226.363	593.3
226.741	594
227.119	590.3
227.497	601.9
227.876	574.5
228.254	598.7
228.633	599.8
229.011	581.8
229.39	585.9
229.769	588.7
230.148	599.6
230.527	609.4
230.905	588.8
231.284	588.6
231.664	584.9
232.043	595.1
232.422	594.3
232.801	581.1
233.181	595.6
233.56	582.7
233.94	588.8
234.319	577.7
234.699	585.6
235.079	630.9
235.458	625.3
235.838	601.8
236.218	571.7
236.598	576.7
236.978	583.5
237.358	583.8
237.738	581.7
238.119	594
238.499	575.5
238.88	581.6
239.26	597.9
239.641	582.6
240.021	578.2
240.402	586.8
240.783	578.9
241.163	581.1
241.544	587.4
241.925	585.9
242.306	598.8
242.687	583.3
243.069	587.6
243.45	598.8
243.831	582
244.212	584.4
244.594	622.7
244.975	593.9
245.357	592.5
245.739	579.4
246.12	589
246.502	601.6
246.884	586.8
247.266	591.4
247.648	593
248.03	609.2
248.412	589.6
248.794	596.3
249.176	593.3
249.559	596
249.941	583.7
250.323	584.5
250.706	576.1
251.089	589.8
251.471	591.8
251.854	586.4
252.237	587.7
252.62	596.4
253.002	587.9
253.385	580.7
253.769	603.8
254.152	590.5
254.535	600
254.918	580.7
255.301	591.4
255.685	593
256.068	580.3
256.452	611.7
256.835	594.1
257.219	594.2
257.603	602.1
257.986	577.1
258.37	594.9
258.754	585.8
259.138	599
259.522	596.3
259.906	585.6
260.29	594.9
260.675	594.7
261.059	591.6
261.443	579.9
261.828	596.8
262.212	593.8
262.597	580.3
262.981	583.9
263.366	595
263.751	588.9
264.136	580.9
264.521	582.8
264.906	579
265.291	594.8
265.676	587.7
266.061	595.5
266.446	604.8
266.831	592.2
267.217	614.4
267.602	592.3
267.987	592.3
268.373	585.9
268.759	599.1
269.144	594.7
269.53	589.9
269.916	587.7
270.302	586.6
270.688	596
271.074	595.2
271.46	609.4
271.846	618.2
272.232	588.9
272.618	582.3
273.004	590.6
273.391	597.4
273.777	606
274.164	596
274.55	600.4
274.937	596.3
275.324	589.4
275.71	594.5
276.097	596.6
276.484	583.8
276.871	598.1
277.258	594.5
277.645	576.4
278.032	591.1
278.419	589.2
278.807	594.7
279.194	588.6
279.581	581.3
279.969	594.9
280.356	594.2
280.744	595
281.131	613.7
281.519	598.6
281.907	592.8
282.295	584.2
282.682	601.6
283.07	597.6
283.458	601.1
283.846	602.9
284.235	602.5
284.623	600.1
285.011	584
285.399	593.4
285.788	596.5
286.176	579.5
286.565	599.3
286.953	586.5
287.342	587.5
287.731	583
288.119	587.2
288.508	585.1
288.897	585.1
289.286	582.3
289.675	588
290.064	598.4
290.453	588.6
290.821	591.1
291.21	609
291.599	583.4
291.989	589.1
292.378	593.6
292.768	608
293.157	592.9
293.547	596.7
293.936	587.7
294.326	588.5
294.716	590.4
295.106	589.5
295.496	598.5
295.886	594.4
296.276	592.7
296.666	585.6
297.056	581.2
297.446	577.5
297.836	607.6
298.227	585.8
298.617	587.4
299.008	606.2
299.398	586.8
299.789	584.3
300.179	591.2
300.57	603.4
300.961	589.3
301.352	587.6
301.742	602.8
302.133	590.4
302.524	588
302.915	595.2
303.307	586.4
303.698	599
304.089	598.2
304.48	591.1
304.872	595.4
305.263	592.9
305.655	585
306.046	595.2
306.438	590.6
306.829	584
307.221	601.2
307.613	593.7
308.005	598.8
308.397	599.9
308.789	607.4
309.181	611.6
309.573	609.7
309.965	597
310.357	587.1
310.749	592.9
311.142	584.5
311.534	584.4
311.926	592.9
312.319	586.1
312.711	576.9
313.104	602.6
313.497	585.5
313.889	622.2
314.282	609.6
314.675	617.2
315.068	589.8
315.461	594.5
315.854	619.8
316.247	601.1
316.64	592.5
317.033	595.5
317.405	599
317.798	591.8
318.192	600.1
318.585	584.7
318.979	595
319.372	581.7
319.766	592.3
320.16	595.3
320.553	607.8
320.947	616.7
321.341	589.7
321.735	589.8
322.129	578.7
322.523	622.3
322.917	581
323.311	602.5
323.705	595
324.099	602.1
324.494	605.4
324.888	608.1
325.282	586.3
325.677	601.5
326.071	596.9
326.466	605.5
326.861	603.6
327.255	601.6
327.65	605.3
328.045	605.8
328.44	592.2
328.835	594.4
329.23	589.1
329.625	616.4
330.02	584.2
330.415	607.7
330.81	593.1
331.206	596
331.601	589.7
331.996	601.8
332.37	601.7
332.766	578.8
333.161	611.8
333.557	587.9
333.953	592.1
334.348	837.9
334.744	586.1
335.14	587
335.536	583.6
335.932	597.7
336.328	588.1
336.724	597.1
337.12	592.2
337.516	590.1
337.913	596
338.309	600.7
338.705	583.3
339.102	592.3
339.498	582.8
339.895	601.7
340.291	590.1
340.688	601.9
341.085	580.7
341.481	588.1
341.878	587.5
342.275	611
342.672	583.8
343.069	583.9
343.466	574.2
343.842	594.6
344.239	581.1
344.636	585.8
345.033	582.6
345.431	583.9
345.828	592.4
346.225	580.3
346.623	603.5
347.02	590.4
347.418	599.8
347.816	604.2
348.213	582.9
348.611	597.1
349.009	583.9
349.407	602.3
349.805	582
350.203	575
350.601	596.3
350.999	583
351.397	584.5
351.795	588.3
352.193	594.7
352.57	601.4
352.969	601.9
353.367	582.1
353.766	584.7
354.164	587.3
354.563	599.5
354.961	580.6
355.36	589.2
355.759	588.2
356.158	581.9
356.557	578.8
356.956	574.2
357.355	570.7
357.754	588.1
358.153	590.5
358.552	606.5
358.951	584.3
359.35	597.4
359.75	583.8
360.149	576.9
360.527	569.4
360.926	575.5
361.326	589.8
361.726	585.1
362.125	577.6
362.525	591.6
362.925	585.9
363.325	587.6
363.724	584.5
364.124	583.2
364.524	578.8
364.924	582.3
365.324	592.6
365.725	568.8
366.125	595.8
366.525	582.3
366.904	576.8
367.304	569.9
367.705	598.6
368.105	596
368.506	586.3
368.906	585.8
369.307	581.5
369.708	585.6
370.108	574
370.509	596.2
370.91	576.5
371.311	594.2
371.712	594.5
372.113	581.7
372.514	571.4
372.894	582.1
373.295	576.7
373.696	598.3
374.097	592.7
374.499	612.4
374.9	588.1
375.301	575.2
375.703	586.3
376.105	574.4
376.506	587.6
376.908	582.7
377.309	587.5
377.711	584.2
378.113	584.6
378.493	583.6
378.895	580.8
379.297	594.4
379.699	573.9
380.102	589
380.504	584
380.906	580.9
381.308	611.5
381.71	588.4
382.113	593.3
382.515	578.8
382.918	584.8
383.299	582.3
383.701	591.6
384.104	583.3
384.507	567.3
384.909	580.8
385.312	568.7
385.715	569.7
386.118	578.9
386.521	564.3
386.924	594.9
387.327	577.4
387.709	569.3
388.112	566
388.515	579.8
388.918	585.3
389.322	587.4
389.725	577.5
390.129	600.5
390.532	583.8
390.936	576
391.339	570.5
391.743	578.6
392.125	571.2
392.529	592.4
392.933	594.8
393.337	581.8
393.74	585.1
394.144	580.3
394.548	578.5
394.953	581.6
395.357	587.8
395.761	581.2
396.144	580.2
396.548	579.5
396.952	583.4
397.357	585
397.761	580.8
398.166	581.2
398.57	579.6
398.975	572
399.379	583.4
399.763	635.1
400.168	579.4
400.572	578.7
400.977	581.2
401.382	605.3
401.787	585.3
402.192	598.3
402.597	595.4
403.002	575.3
403.386	601.1
403.791	597.8
404.197	576.8
404.602	581.8
405.007	583
405.413	577.4
405.818	572.8
406.224	569.3
406.608	583.9
407.014	574.2
407.42	598.6
407.825	580
408.231	591
408.637	584
409.043	592.4
409.449	582.1
409.834	577.3
410.24	585.1
410.646	596.7
411.052	597.6
411.458	578.3
411.865	591.2
412.271	591.4
412.677	582.5
413.062	591.7
413.469	572.8
413.875	610.1
414.282	595.9
414.689	585
415.095	586.4
415.502	575
415.888	587.9
416.294	569
416.701	624.8
417.108	573.3
417.515	589.8
417.923	581.8
418.33	605.7
418.715	595.1
419.123	579.4
419.53	582.9
419.937	589.6
420.345	602.4
420.752	582.4
421.16	597.4
421.546	579
421.953	591.3
422.361	576.7
422.769	588.7
423.177	577.9
423.585	616.3
423.992	612.7
424.379	607.4
424.787	611.4
425.195	626.8
425.603	616.4
426.011	628.5
426.419	643.1
426.806	639.6
427.214	647.3
427.623	668.5
428.031	691.1
428.44	696.4
428.848	716.7
429.235	733.4
429.644	745.5
430.053	760.1
430.461	795.2
430.87	822.9
431.279	826
431.666	823.4
432.075	864.3
432.484	880.9
432.893	905.5
433.302	947.7
433.711	996.9
434.099	974
434.508	986.7
434.918	1001
435.327	1033.6
435.737	1046.7
436.125	1066.9
436.534	1076.7
436.944	1098.9
437.353	1104.9
437.763	1159.6
438.173	1150.5
438.561	1180
438.971	1162.1
439.381	1191.3
439.791	1209.2
440.201	1191.6
440.589	1229.7
440.999	1246.8
441.409	1259.8
441.819	1257.8
442.23	1288.2
442.619	1302.1
443.029	1303.2
443.439	1313.7
443.85	1329.6
444.26	1334
444.649	1351
445.06	1352.9
445.471	1351.3
445.881	1361.4
446.292	1387.1
446.682	1402
447.092	1380.1
447.503	1439.3
447.914	1403.5
448.325	1404.2
448.715	1405.9
449.126	1402.2
449.537	1423.8
449.948	1449.4
450.338	1429
450.75	1460.5
451.161	1445.1
451.572	1452.7
451.984	1449.6
452.374	1463.7
452.786	1453.2
453.197	1475.1
453.609	1458.9
453.999	1436.9
454.411	1446.1
454.823	1474
455.235	1471.5
455.647	1468
456.037	1497
456.449	1470.9
456.862	1477
457.274	1488.2
457.665	1461.3
458.077	1483.1
458.489	1486.2
458.902	1475.4
459.293	1473.3
459.705	1484.4
460.118	1464.9
460.53	1477.7
460.921	1477.2
461.334	1482.8
461.747	1467.5
462.16	1474.1
462.551	1468.3
462.964	1477.3
463.377	1447.4
463.79	1446.1
464.182	1465.3
464.595	1447.1
465.008	1456.6
465.421	1453.6
465.813	1441
466.226	1451.9
466.64	1443.7
467.053	1486.1
467.445	1441.8
467.859	1432.8
468.272	1427.5
468.686	1441.9
469.078	1412.8
469.492	1392.9
469.906	1404.7
470.298	1400.3
470.712	1398
471.126	1429.8
471.54	1378.9
471.933	1389.7
472.347	1382.9
472.761	1389.8
473.175	1373.3
473.568	1383
473.982	1371.9
474.397	1368.2
474.79	1368.3
475.204	1367.3
475.619	1347.5
476.033	1344.7
476.426	1337.4
476.841	1333.1
477.256	1364.6
477.649	1336.7
478.064	1326.3
478.479	1330.9
478.872	1317.9
479.287	1311.3
479.702	1323.9
480.118	1313.6
480.511	1301
480.927	1298.8
481.342	1293.1
481.736	1299.4
482.151	1276.5
482.566	1309.7
482.96	1286.7
483.376	1289.7
483.792	1268
484.186	1281.9
484.602	1266.1
485.017	1264.4
485.412	1258.8
485.827	1261.9
486.243	1249.7
486.638	1273.9
487.054	1245.4
487.47	1257.5
487.865	1236.4
488.281	1219
488.697	1223.3
489.092	1219
489.508	1199.9
489.925	1214.7
490.32	1190.9
490.736	1198.6
491.153	1195.4
491.548	1195.4
491.964	1190.5
492.381	1158.6
492.776	1173.7
493.193	1162.6
493.61	1160.9
494.006	1156.8
494.422	1158.8
494.84	1145.1
495.235	1157.5
495.652	1145.3
496.069	1132.2
496.465	1120.1
496.883	1118
497.3	1140.2
497.696	1115.9
498.113	1118.5
498.509	1094.5
498.927	1087.1
499.344	1094.1
499.741	1089.9
500.158	1092
500.576	1089.3
500.973	1082.2
501.39	1062.5
501.787	1060.6
502.205	1057
502.623	1050.5
503.02	1046.2
503.438	1033.7
503.856	1047.1
504.253	1049.1
504.671	1036.9
505.068	1030
505.486	1024.3
505.905	1037.5
506.302	1021.4
506.72	1016
507.118	996.6
507.536	1005.5
507.955	988.3
508.352	995.2
508.771	992.4
509.169	981.1
509.587	977.8
510.006	977.6
510.404	968.6
510.823	965.3
511.221	969.8
511.64	962
512.038	972
512.457	945.8
512.877	956.3
513.275	942.2
513.694	939
514.092	935.3
514.512	937.5
514.91	926.8
515.33	925.1
515.749	923.8
516.148	922.8
516.568	922
516.966	904.5
517.386	898.8
517.785	902.1
518.205	892.2
518.603	900.5
519.024	888.8
519.444	888.6
519.843	897.5
520.263	891.3
520.662	880
521.082	874.3
521.481	875.6
521.902	872.5
522.301	869.5
522.722	864.6
523.121	860.3
523.542	849.5
523.963	841.2
524.362	851.1
524.783	847.2
525.183	841.9
525.604	849.8
526.003	834.4
526.425	817.7
526.824	830.3
527.246	828.7
527.646	836.7
528.067	817.1
528.467	812.6
528.888	814.8
529.289	808.8
529.71	806.4
530.11	804.4
530.532	797.7
530.932	800.3
531.354	786.4
531.755	831.2
532.176	800
532.577	794.2
532.999	790.2
533.4	780.1
533.822	786.8
534.223	782
534.645	766.2
535.046	766.2
535.468	781
535.869	781.4
536.292	759
536.693	762.6
537.115	772.2
537.516	761
537.939	759.6
538.34	772.6
538.742	774.4
539.165	765.8
539.566	758.4
539.989	749.6
540.391	750.5
540.814	752.9
541.216	757.9
541.639	749.9
542.041	759.7
542.464	746.9
542.866	738.8
543.268	729.7
543.691	743.6
544.093	750.7
544.517	756
544.919	726
545.343	751.1
545.745	717.2
546.147	729.4
546.571	726.8
546.974	710
547.398	720.8
547.8	735.3
548.224	718.2
548.627	709.9
549.03	719.9
549.454	706.7
549.857	702.9
550.281	703.6
550.684	699.8
551.087	716.3
551.512	705.3
551.915	710.2
552.34	697.4
552.743	703.3
553.146	700.8
553.571	697.7
553.975	706.7
554.399	691.2
554.803	740.8
555.207	688.8
555.632	683.6
556.036	692.3
556.461	676.2
556.865	688
557.268	669.9
557.694	683.7
558.098	690.6
558.502	674.5
558.927	671.8
559.332	672.4
559.736	676.2
560.162	681
560.566	673.1
560.992	677.9
561.396	672.7
561.801	660.2
562.227	666.9
562.631	665.8
563.036	667
563.462	678.1
563.867	662.4
564.272	648.8
564.698	667.9
565.103	649.2
565.508	672
565.935	655.1
566.34	657.8
566.745	665.8
567.172	650
567.577	669.6
567.982	669
568.409	652.7
568.815	644.3
569.22	654.6
569.626	652.6
570.053	634.7
570.459	646.4
570.865	653.5
571.292	648.7
571.698	643.7
572.104	629.7
572.531	636.5
572.937	652
573.343	634.2
573.75	630.5
574.177	640.2
574.583	641.4
574.99	631.8
575.396	633.8
575.824	631.7
576.231	637.4
576.637	623.8
577.065	657.9
577.472	626.6
577.879	627.9
578.286	644.7
578.714	618.2
579.121	628.7
579.528	636.8
579.935	634
580.364	626.1
580.771	609.1
581.178	623.5
581.585	625.6
582.014	628.6
582.421	616.6
582.829	617.4
583.236	631.3
583.644	617.2
584.073	617
584.481	622.6
584.889	605.4
585.296	619.5
585.726	616.4
586.134	604.2
586.542	604.8
586.95	629.6
587.358	602.5
587.787	610.6
588.196	604.1
588.604	614.2
589.012	607.3
589.421	604.7
589.851	599.7
590.259	611
590.668	605.8
591.076	643.6
591.485	599.5
591.894	603.5
592.324	615.8
592.733	619.6
593.142	586.7
593.551	596.3
593.96	637.2
594.369	589.1
594.8	591.6
595.209	599.7
595.618	589.4
596.028	595.5
596.437	594.7
596.847	602.3
597.256	602.1
597.687	604.4
598.097	595.1
598.507	590.7
598.917	606.5
599.327	602.7
599.736	605.9
600.146	607.3
600.556	592
600.988	605.6
601.398	589.8
601.808	602.5
602.219	580.3
602.629	593.2
603.039	590.9
603.45	616.1
603.86	591.1
604.271	602.5
604.703	586.8
605.114	583.6
605.525	584.1
605.935	595.9
606.346	611.1
606.757	594.3
607.168	584.1
607.579	585.2
607.99	601.8
608.402	589.3
608.813	584.9
609.224	587.2
609.636	579.6
610.047	577.6
610.48	589.2
610.892	592.6
611.303	590.2
611.715	583.1
612.127	571.9
612.539	581.7
612.95	586.6
613.362	572.1
613.774	576.3
614.186	575.6
614.599	577.5
615.011	590.4
615.423	566.2
615.835	578.9
616.248	574.6
616.66	586.7
617.073	572.1
617.485	582.5
617.898	590.1
618.311	583.9
618.723	584
619.136	612.2
619.549	592.7
619.962	600.7
620.375	582.2
620.788	580.6
621.201	569.5
621.614	586.9
622.028	576
622.441	582.5
622.854	589.6
623.268	570
623.681	584.7
624.095	583.1
624.509	588.2
624.922	582.8
625.336	564.6
625.728	582.6
626.142	591.8
626.556	596.9
626.97	586.1
627.384	574.3
627.799	580.3
628.213	587.7
628.627	573.3
629.041	573.7
629.456	576.7
629.87	577.2
630.285	589.5
630.699	587.9
631.093	574.9
631.507	583.2
631.922	579
632.337	593.6
632.752	562.2
633.167	577.3
633.582	573
633.997	578.7
634.412	576.6
634.806	577.1
635.221	569.9
635.637	587.3
636.052	561
636.468	576.7
636.883	594.7
637.299	573.2
637.715	564.9
638.109	574.8
638.525	560.7
638.941	581.1
639.357	580.8
639.773	584.6
640.189	572.6
640.584	570
641	577.2
641.416	563.1
641.832	570.1
642.249	572.6
642.665	571.9
643.06	576.2
643.477	579.3
643.894	561.4
644.31	576
644.727	566.7
645.123	570.2
645.54	570.2
645.957	573.5
646.374	579.6
646.77	568
647.187	600.9
647.604	575.5
648.021	552
648.439	563.6
648.835	578.7
649.252	570.9
649.67	569.3
650.088	569.4
650.484	571.4
650.902	572.7
651.32	582.4
651.738	568.7
652.134	573.9
652.552	586.9
652.971	575.5
653.389	569.1
653.786	583.5
654.204	568.7
654.622	564.8
655.019	572.6
655.438	576.2
655.857	571
656.275	577.4
656.673	570.8
657.091	636
657.51	564.7
657.908	574.4
658.327	587
658.746	560.8
659.144	570.5
659.563	587.7
659.982	565.9
660.38	561.4
660.8	567.7
661.219	579.7
661.617	573.8
662.037	566.7
662.457	575.9
662.855	553.2
663.275	603.2
663.695	572.3
664.094	571.5
664.514	571.5
664.934	557.6
665.333	575.2
665.753	559.7
666.152	557.3
666.572	561
666.993	579.5
667.392	565.4
667.812	568.6
668.212	564.2
668.632	575
669.053	564.4
669.453	565.5
669.874	563.1
670.273	572.4
670.694	556.8
671.116	579.5
671.515	573.8
671.937	564.9
672.337	561.2
672.758	559.5
673.158	575
673.58	556.7
673.98	570.1
674.402	575.5
674.824	562.8
675.224	561.5
675.646	552
676.047	566.4
676.469	561.6
676.869	566.4
677.292	567.9
677.693	553.9
678.115	562.5
678.516	566.3
678.939	573.8
679.34	555.5
679.762	573.4
680.164	573.7
680.586	556.4
680.988	566.4
681.411	591.7
681.812	561.2
682.236	560.6
682.637	555.4
683.061	552.7
683.462	573
683.864	560.3
684.288	573.5
684.69	555
685.114	574.5
685.516	570.9
685.94	551.4
686.342	566.4
686.766	552.8
687.168	559.5
687.571	578.3
687.995	561.3
688.398	555
688.822	562.4
689.225	574
689.628	581.4
690.052	559.8
690.456	564.7
690.88	564.4
691.284	556.1
691.687	563.7
692.112	554.8
692.515	556.2
692.919	562.5
693.344	568.9
693.747	557.5
694.173	554.1
694.577	578
694.98	558.7
695.406	558.7
695.81	558.5
696.214	566.6
696.64	565.3
697.044	567.4
697.448	571.7
697.874	557.8
698.279	558.7
698.684	553.4
699.11	559.6
699.514	559.8
699.919	557.4
700.324	551.2
700.75	558.9
701.156	562.9
701.561	573.6
701.987	566
702.393	576.6
702.798	571.8
703.203	563.3
703.63	560.9
704.036	561.8
704.442	566.6
704.847	555.2
705.274	555.4
705.68	565
706.086	570.9
706.492	549.2
706.92	562
707.326	573
707.732	558.1
708.139	552.1
708.545	553.9
708.973	559.3
709.38	560.2
709.786	547.7
710.193	577.9
710.6	562.3
711.028	551.3
711.435	556.3
711.842	560
712.249	554.2
712.656	556
713.064	561.5
713.492	546
713.9	553.2
714.307	557.9
714.715	549.9
715.123	562.1
715.53	569.2
715.938	561.5
716.367	561.5
716.775	556
717.184	550.8
717.592	557.3
718	568.2
718.408	588.8
718.816	607.2
719.225	563.4
719.633	562.7
720.042	551.2
720.472	556.1
720.881	580.6
721.29	561.9
721.699	553.2
722.108	567.3
722.517	562.6
722.926	552
723.335	566.1
723.744	565.2
724.154	561.9
724.563	561.4
724.973	556.7
725.382	561.4
725.792	562.5
726.202	548.1
726.612	572.3
727.022	559.5
727.432	555.6
779.813	563.7
780.223	604.3
780.634	555.9
781.044	553.4
781.454	558.8
781.865	572
782.276	549.9
782.686	571.7
783.097	556.9
783.508	551.1
783.919	560.9
784.33	569
784.741	575.1
785.152	555.8
785.563	545.6
785.974	552
786.386	571.3
786.776	560.7
787.188	557.9
787.599	543.8
788.011	564.1
788.423	562.7
788.835	554.6
789.247	545.9
789.659	552.2
790.071	554.7
790.483	597.1
790.874	553.8
791.286	563.7
791.699	550.1
792.111	553.9
792.524	558.2
792.937	554.8
793.349	544.5
793.741	549.8
794.154	549.4
794.567	578.7
794.98	553.7
795.393	548.6
795.785	570.1
796.198	550.4
796.612	557.1
797.026	554.8
797.439	544.3
797.831	554.9
798.245	546.2
798.659	556.5
799.073	557.6
799.487	554.8
799.88	561
800.294	552.7
800.708	567.1
801.123	564.2
801.516	575.2
801.93	546.6
802.345	548.8
802.76	562.2
803.153	569.3
803.568	567.5
803.983	568
804.377	562.1
804.792	546.6
805.207	545.9
805.601	554
806.016	590.7
806.432	554.5
806.826	592.3
807.242	571.5
807.658	560.4
808.052	553.9
808.468	551.7
808.884	552.9
809.279	553.4
809.695	571.3
810.111	579.9
810.506	562.7
810.922	574.9
811.339	547.1
811.734	567.3
812.151	554.5
812.546	553.8
812.963	550.8
813.38	562.7
813.776	555.4
814.193	577
814.589	553.5
815.006	553.1
815.402	552.8
815.82	554.5
816.237	555.4
816.633	556.1
817.051	552.2
817.448	565.7
817.866	547.3
818.262	579.2
818.68	547.9
819.077	553.3
819.495	555
819.892	587.1
820.311	550
820.708	550.1
821.127	549.8
821.524	572.5
821.943	554.3
822.34	574.6
822.759	559.2
823.157	557.3
823.576	573.4
823.974	562.5
824.393	563.1
824.791	547.1
825.189	545.1
825.609	555.9
826.007	549.3
826.427	547.2
826.826	553.6
827.246	561.9
827.644	536.1
828.043	564.8
828.463	553.6
828.862	569.1
829.261	562.9
829.682	545
830.081	556.2
830.502	547.7
830.901	559.6
831.301	543.4
831.722	540.7
832.121	552.8
832.521	552.4
832.943	556.7
833.342	556.7
833.742	543.1
834.164	556.2
834.564	539.6
834.965	552.6
835.386	550.5
835.787	551.1
836.188	554.6
836.588	556.1
837.01	552.3
837.411	546.4
837.812	556.8
838.213	560.2
838.636	554.1
839.037	619.7
839.438	552
839.84	553.7
840.263	557.6
840.664	550.8
841.066	556.4
841.468	556
841.891	552.9
842.293	568.4
842.695	560.4
