#lambda/nm	C1
208.295	471.4
208.67	441.4
209.045	403.4
209.419	407.1
209.794	596.4
210.169	571.1
210.544	686.6
210.919	589.9
211.295	580.4
211.67	591.3
212.045	581
212.421	586.6
212.796	627.7
213.172	578.4
213.547	586.8
213.923	586.8
214.299	582.7
214.675	597.2
215.051	593.6
215.427	595.1
215.803	607.4
216.179	593.2
216.555	577.6
216.932	599.1
217.308	583.9
217.684	584.1
218.061	597.8
218.438	594.6
218.814	582.9
219.191	597.6
219.568	580.5
219.945	585.7
220.322	595.2
220.699	590.7
221.076	598.8
221.453	595.6
221.83	579.8
222.208	586.7
222.585	588
222.962	591.1
223.34	595.5
223.717	580.7
224.095	586.6
224.473	593.1
224.851	585.1
225.229	579.9
225.607	604.1
225.985	572.6
226.363	589.1
226.741	589.8
227.119	587.9
227.497	602.6
227.876	577.4
228.254	603.6
228.633	592.4
229.011	590.8
229.39	593.5
229.769	596.9
230.148	591.2
230.527	604.7
230.905	585.1
231.284	586.5
231.664	587.8
232.043	603.1
232.422	591.4
232.801	584.5
233.181	593.2
233.56	586.9
233.94	590.8
234.319	578.5
234.699	589.5
235.079	624.5
235.458	628.2
235.838	601.3
236.218	584
236.598	577.6
236.978	581.5
237.358	579.9
237.738	582.3
238.119	600.3
238.499	583.4
238.88	594
239.26	604.4
239.641	571.8
240.021	583
240.402	589
240.783	581.7
241.163	583.3
241.544	588.9
241.925	589.7
242.306	598.7
242.687	581.5
243.069	587.3
243.45	588.5
243.831	578.5
244.212	583.1
244.594	622.5
244.975	588.3
245.357	590.4
245.739	579.7
246.12	585.2
246.502	599.3
246.884	582.7
247.266	581.6
247.648	590.4
248.03	606.4
248.412	588.4
248.794	592.9
249.176	579.7
249.559	599.6
249.941	577.7
250.323	583.7
250.706	581.3
251.089	588.8
251.471	591.6
251.854	592.9
252.237	587.4
252.62	601.4
253.002	587.3
253.385	587.4
253.769	604.9
254.152	591.8
254.535	596
254.918	584.7
255.301	589.5
255.685	586.8
256.068	585.4
256.452	613
256.835	596.2
257.219	589.7
257.603	599.7
257.986	585.5
258.37	595.5
258.754	578.4
259.138	593.7
259.522	598
259.906	583.4
260.29	597.6
260.675	585.8
261.059	591.3
261.443	581.1
261.828	593.6
262.212	593.5
262.597	574.4
262.981	580.8
263.366	592.5
263.751	587.3
264.136	586.2
264.521	589.2
264.906	580
265.291	599
265.676	582.7
266.061	594.8
266.446	603.2
266.831	587.5
267.217	603.4
267.602	591.6
267.987	591.2
268.373	586.3
268.759	591.5
269.144	592.6
269.53	590.3
269.916	586
270.302	582.4
270.688	594
271.074	591.7
271.46	601.5
271.846	625
272.232	592.2
272.618	584.9
273.004	592.3
273.391	603.4
273.777	601.7
274.164	592.7
274.55	604.8
274.937	591.9
275.324	578.8
275.71	599.5
276.097	600.4
276.484	587.1
276.871	592.4
277.258	594.9
277.645	582.6
278.032	589.2
278.419	582.9
278.807	600.6
279.194	585.3
279.581	584.4
279.969	593.8
280.356	595.2
280.744	594.9
281.131	614.5
281.519	598.1
281.907	584.2
282.295	591.3
282.682	606.2
283.07	592.3
283.458	601.1
283.846	600.5
284.235	603.3
284.623	594.3
285.011	584.8
285.399	589.7
285.788	585.2
286.176	577.9
286.565	603.2
286.953	582.3
287.342	589.9
287.731	583.7
288.119	579.7
288.508	585.6
288.897	591
289.286	573.6
289.675	598.8
290.064	594.9
290.453	590.2
290.821	592.8
291.21	607.5
291.599	585.6
291.989	591.4
292.378	597.6
292.768	611
293.157	595.4
293.547	605.3
293.936	591.4
294.326	587.5
294.716	598.8
295.106	584
295.496	602.5
295.886	598.4
296.276	593
296.666	586.6
297.056	589.1
297.446	577.7
297.836	612.1
298.227	587.1
298.617	592.3
299.008	599
299.398	590.5
299.789	586.5
300.179	594.8
300.57	604.6
300.961	587.7
301.352	585.7
301.742	601.5
302.133	591.5
302.524	590.5
302.915	597
303.307	582.4
303.698	598.9
304.089	595.9
304.48	595.7
304.872	597.4
305.263	595.5
305.655	586.1
306.046	592.8
306.438	595.5
306.829	591.3
307.221	605.9
307.613	598.1
308.005	601.6
308.397	604.4
308.789	608
309.181	614.5
309.573	617.1
309.965	603.1
310.357	586.3
310.749	588.1
311.142	585.5
311.534	581.8
311.926	601.7
312.319	591.3
312.711	584.4
313.104	601.8
313.497	591
313.889	622
314.282	600.3
314.675	617.5
315.068	598.7
315.461	598.2
315.854	622.4
316.247	595
316.64	597.1
317.033	595.3
317.405	600.3
317.798	594.5
318.192	599.8
318.585	582.1
318.979	595.3
319.372	587.7
319.766	588.3
320.16	596.9
320.553	602.9
320.947	609.4
321.341	590.7
321.735	586.7
322.129	580
322.523	615.3
322.917	581.2
323.311	600.8
323.705	589.3
324.099	595.3
324.494	609.5
324.888	602.5
325.282	590
325.677	595
326.071	594.8
326.466	601.7
326.861	594.3
327.255	606.1
327.65	609
328.045	610.7
328.44	598.7
328.835	597.6
329.23	584.9
329.625	622.3
330.02	590.8
330.415	615.4
330.81	591.5
331.206	592.9
331.601	586.9
331.996	603.3
332.37	608.1
332.766	588.6
333.161	615.6
333.557	582.4
333.953	598.6
334.348	928.9
334.744	597.4
335.14	587.8
335.536	584.2
335.932	608
336.328	592.1
336.724	598.9
337.12	593.6
337.516	598.1
337.913	592.9
338.309	604.2
338.705	592.1
339.102	604.4
339.498	584.1
339.895	605.9
340.291	581.1
340.688	588
341.085	581.1
341.481	583.5
341.878	580.6
342.275	604.4
342.672	580.3
343.069	582.5
343.466	569.2
343.842	596
344.239	579.2
344.636	587.6
345.033	581.2
345.431	577.9
345.828	586
346.225	583.7
346.623	594.2
347.02	590.9
347.418	599.5
347.816	602.8
348.213	589.6
348.611	594.5
349.009	581.9
349.407	600.3
349.805	573.7
350.203	574.6
350.601	600.9
350.999	586.2
351.397	587.4
351.795	585.1
352.193	596.6
352.57	592.1
352.969	603.6
353.367	585.2
353.766	579.9
354.164	585.5
354.563	601.2
354.961	582.8
355.36	587.7
355.759	588.2
356.158	579.1
356.557	580
356.956	574.6
357.355	574.2
357.754	590.4
358.153	590.5
358.552	607
358.951	583.5
359.35	600.1
359.75	584
360.149	575.1
360.527	571.9
360.926	575.6
361.326	584.1
361.726	589.3
362.125	578.2
362.525	593.4
362.925	583.1
363.325	588.6
363.724	587.3
364.124	586.2
364.524	575.1
364.924	582.8
365.324	588.4
365.725	568.6
366.125	591
366.525	584.9
366.904	575.1
367.304	568.8
367.705	607.6
368.105	596.6
368.506	582.5
368.906	589.1
369.307	580.1
369.708	590.3
370.108	575.2
370.509	594.2
370.91	577.3
371.311	586.1
371.712	586.6
372.113	582.8
372.514	572.3
372.894	584
373.295	581.9
373.696	595.6
374.097	591.9
374.499	612.9
374.9	586.9
375.301	581.9
375.703	586.3
376.105	576
376.506	590.6
376.908	590.3
377.309	584.2
377.711	577.5
378.113	573.7
378.493	582.5
378.895	575.6
379.297	590.9
379.699	569.4
380.102	585.2
380.504	580.4
380.906	580.3
381.308	606.7
381.71	582.9
382.113	589.9
382.515	584.8
382.918	584.6
383.299	581.8
383.701	588.2
384.104	587.9
384.507	559.6
384.909	584.2
385.312	569.3
385.715	579
386.118	580.3
386.521	570.8
386.924	595.8
387.327	576.8
387.709	571.2
388.112	570.5
388.515	578.7
388.918	576.7
389.322	588
389.725	581.3
390.129	602.4
390.532	580.9
390.936	575.6
391.339	579.7
391.743	590.9
392.125	577.3
392.529	586.4
392.933	595.6
393.337	582.9
393.74	577.8
394.144	580
394.548	575
394.953	575.8
395.357	588.2
395.761	582
396.144	583.6
396.548	585.4
396.952	580.8
397.357	591.2
397.761	574.6
398.166	582.9
398.57	579.3
398.975	568.5
399.379	587
399.763	634.9
400.168	580.7
400.572	583
400.977	576.6
401.382	593.6
401.787	594.2
402.192	601.3
402.597	600.7
403.002	573.4
403.386	593.6
403.791	595.7
404.197	579.2
404.602	585
405.007	585.1
405.413	585.1
405.818	573.2
406.224	569.3
406.608	583.6
407.014	576.3
407.42	600.3
407.825	584
408.231	593.1
408.637	585.1
409.043	599.4
409.449	580.6
409.834	577
410.24	587.9
410.646	599.2
411.052	589.3
411.458	586.8
411.865	592.7
412.271	593.8
412.677	582
413.062	593.1
413.469	575.6
413.875	609.5
414.282	600.9
414.689	591
415.095	587.8
415.502	579.5
415.888	582.6
416.294	573
416.701	619.6
417.108	576.5
417.515	597.5
417.923	581.9
418.33	602.1
418.715	593
419.123	585.8
419.53	577.3
419.937	586
420.345	596.8
420.752	584.7
421.16	610.9
421.546	590
421.953	606.1
422.361	591.8
422.769	603.6
423.177	599.3
423.585	630.7
423.992	634.2
424.379	641.6
424.787	648.3
425.195	663.7
425.603	659.8
426.011	684.2
426.419	699.7
426.806	698.8
427.214	722.2
427.623	752.3
428.031	779.9
428.44	783
428.848	814.9
429.235	830.4
429.644	843.9
430.053	865.4
430.461	901.9
430.87	937.6
431.279	941.3
431.666	948.6
432.075	975.4
432.484	1013.6
432.893	1023.7
433.302	1070.1
433.711	1110.8
434.099	1092
434.508	1093.1
434.918	1109.7
435.327	1141.6
435.737	1154.7
436.125	1180.8
436.534	1192.1
436.944	1204.8
437.353	1217.2
437.763	1239.2
438.173	1229.7
438.561	1263.9
438.971	1265
439.381	1286.2
439.791	1293.4
440.201	1288.4
440.589	1322
440.999	1336.9
441.409	1347.2
441.819	1347.7
442.23	1376.2
442.619	1368.7
443.029	1375.4
443.439	1386.5
443.85	1418
444.26	1440.1
444.649	1442.2
445.06	1440.7
445.471	1431.8
445.881	1449.9
446.292	1456.7
446.682	1451.1
447.092	1439.9
447.503	1511.1
447.914	1494.7
448.325	1492
448.715	1497.8
449.126	1500.1
449.537	1516.3
449.948	1521.4
450.338	1520.2
450.75	1531.4
451.161	1522.6
451.572	1536.6
451.984	1523.1
452.374	1505.2
452.786	1534.5
453.197	1546.3
453.609	1554.7
453.999	1540.9
454.411	1556.1
454.823	1569.7
455.235	1569.7
455.647	1564.3
456.037	1568.2
456.449	1544.6
456.862	1560.3
457.274	1572.8
457.665	1561.4
458.077	1568
458.489	1578.5
458.902	1569.3
459.293	1564.5
459.705	1565.6
460.118	1556.4
460.53	1558.8
460.921	1557.5
461.334	1565.3
461.747	1551.5
462.16	1568.7
462.551	1565.6
462.964	1559.3
463.377	1531
463.79	1531.2
464.182	1538.9
464.595	1532.2
465.008	1540.3
465.421	1525.1
465.813	1518.2
466.226	1510.1
466.64	1500.9
467.053	1539.3
467.445	1500.8
467.859	1498.8
468.272	1498.1
468.686	1483.3
469.078	1463.7
469.492	1458.2
469.906	1473
470.298	1490.3
470.712	1464.7
471.126	1499.1
471.54	1457.1
471.933	1475
472.347	1464.6
472.761	1453.2
473.175	1432.1
473.568	1441
473.982	1430.9
474.397	1425.2
474.79	1436.7
475.204	1432.3
475.619	1424.1
476.033	1434.2
476.426	1419.1
476.841	1415
477.256	1430.5
477.649	1392.6
478.064	1384
478.479	1383.7
478.872	1367.2
479.287	1373.8
479.702	1373.9
480.118	1372.3
480.511	1363.8
480.927	1356
481.342	1365.2
481.736	1370.5
482.151	1333.4
482.566	1359.4
482.96	1345.5
483.376	1355.6
483.792	1329.8
484.186	1342
484.602	1311
485.017	1316.2
485.412	1316.6
485.827	1310.4
486.243	1308.5
486.638	1335.1
487.054	1295.3
487.47	1302.8
487.865	1285.5
488.281	1282.8
488.697	1272.7
489.092	1261.8
489.508	1260.7
489.925	1267.1
490.32	1242.9
490.736	1257.1
491.153	1242.9
491.548	1245.8
491.964	1237
492.381	1206.2
492.776	1216.9
493.193	1218.4
493.61	1216.1
494.006	1206.7
494.422	1207.9
494.84	1181.7
495.235	1203.9
495.652	1178.5
496.069	1171.6
496.465	1165.3
496.883	1162.8
497.3	1187.3
497.696	1160.6
498.113	1160.4
498.509	1140.8
498.927	1135.5
499.344	1131.6
499.741	1129.3
500.158	1131.5
500.576	1118.6
500.973	1112.6
501.39	1098.5
501.787	1096.1
502.205	1092.6
502.623	1088.9
503.02	1086
503.438	1079.6
503.856	1079
504.253	1076.4
504.671	1075.5
505.068	1061.7
505.486	1051
505.905	1075.6
506.302	1048.1
506.72	1056.6
507.118	1036.5
507.536	1038.5
507.955	1031.8
508.352	1028
508.771	1025.6
509.169	1019.3
509.587	1010.7
510.006	1002
510.404	981.3
510.823	995.2
511.221	993.4
511.64	977.7
512.038	996.3
512.457	976
512.877	983.5
513.275	969.9
513.694	967.9
514.092	966.2
514.512	961.6
514.91	952.7
515.33	956.7
515.749	937.4
516.148	945.3
516.568	944.5
516.966	929.4
517.386	924.5
517.785	934.4
518.205	922
518.603	923
519.024	912.6
519.444	919.3
519.843	924.1
520.263	907.8
520.662	898.5
521.082	893.7
521.481	892
521.902	894.3
522.301	891.1
522.722	884.3
523.121	882.7
523.542	873.3
523.963	871.5
524.362	869.5
524.783	874.4
525.183	865.4
525.604	861.6
526.003	854.2
526.425	840.6
526.824	852.3
527.246	853.9
527.646	845.6
528.067	834.8
528.467	835.6
528.888	828.1
529.289	828.2
529.71	829.4
530.11	821.3
530.532	820
530.932	803.8
531.354	808.5
531.755	843.2
532.176	813.2
532.577	797.9
532.999	798.3
533.4	792.7
533.822	799
534.223	789.1
534.645	786.1
535.046	791.5
535.468	797.2
535.869	798.2
536.292	780.5
536.693	777.8
537.115	787.8
537.516	774.7
537.939	776.1
538.34	793
538.742	783.9
539.165	779.1
539.566	775
539.989	765.5
540.391	762.7
540.814	769.8
541.216	766.1
541.639	756.6
542.041	773.3
542.464	753.1
542.866	756.3
543.268	745.9
543.691	757.8
544.093	754.8
544.517	768.6
544.919	734.6
545.343	765.4
545.745	730.2
546.147	735.1
546.571	739.3
546.974	720.8
547.398	731.9
547.8	741
548.224	723.5
548.627	719.3
549.03	727.1
549.454	721.9
549.857	712.6
550.281	715.9
550.684	716.5
551.087	721.4
551.512	717.4
551.915	718.2
552.34	711.1
552.743	702.7
553.146	707.6
553.571	705.5
553.975	720.6
554.399	690.5
554.803	746.2
555.207	695.6
555.632	682.1
556.036	699.7
556.461	686.4
556.865	690.8
557.268	671.7
557.694	693.8
558.098	695.9
558.502	691.8
558.927	677.9
559.332	681.8
559.736	687.5
560.162	687.4
560.566	677.5
560.992	683.4
561.396	680
561.801	674.3
562.227	673.1
562.631	669.9
563.036	672.4
563.462	670.6
563.867	674
564.272	653.5
564.698	667.1
565.103	666
565.508	683.1
565.935	663.3
566.34	664.3
566.745	668.1
567.172	657.7
567.577	679
567.982	667
568.409	660.2
568.815	645.1
569.22	659.6
569.626	658.8
570.053	639.7
570.459	656.8
570.865	656
571.292	658
571.698	654.3
572.104	636.9
572.531	642.2
572.937	660.9
573.343	644.1
573.75	641.8
574.177	641.5
574.583	650.6
574.99	631.7
575.396	642.6
575.824	638.4
576.231	643.1
576.637	636.2
577.065	661.7
577.472	626.5
577.879	630
578.286	652.6
578.714	626.4
579.121	624.7
579.528	637.2
579.935	638.1
580.364	628
580.771	615.4
581.178	622.3
581.585	624.2
582.014	625.2
582.421	626.3
582.829	619.9
583.236	633.7
583.644	615
584.073	616.7
584.481	618.1
584.889	616.7
585.296	630.7
585.726	617.9
586.134	615.3
586.542	616.9
586.95	640.6
587.358	604.6
587.787	614.5
588.196	602.2
588.604	610.8
589.012	611.9
589.421	606.9
589.851	606.7
590.259	612.3
590.668	607
591.076	649.9
591.485	601.1
591.894	609.7
592.324	617
592.733	611.9
593.142	602
593.551	607
593.96	640.8
594.369	599.1
594.8	593
595.209	601.7
595.618	589.9
596.028	603
596.437	598.5
596.847	596.2
597.256	607.2
597.687	607.2
598.097	601
598.507	592.9
598.917	602.1
599.327	607
599.736	601.1
600.146	611.1
600.556	600.6
600.988	614.9
601.398	598
601.808	604
602.219	586.2
602.629	596.7
603.039	599.3
603.45	622.3
603.86	594.7
604.271	610.7
604.703	594.2
605.114	590
605.525	599.4
605.935	595.2
606.346	610.5
606.757	597.3
607.168	588.4
607.579	588.3
607.99	598.4
608.402	585.4
608.813	592.1
609.224	585.9
609.636	580.9
610.047	582.8
610.48	588.5
610.892	596
611.303	599.7
611.715	588.3
612.127	570.9
612.539	582.6
612.95	581.4
613.362	576
613.774	582.9
614.186	580.4
614.599	581.1
615.011	591.7
615.423	579
615.835	585.5
616.248	580.8
616.66	586.5
617.073	581.1
617.485	582
617.898	593.7
618.311	589.3
618.723	582.7
619.136	610
619.549	598.3
619.962	608.1
620.375	582.4
620.788	577.5
621.201	579.3
621.614	589.4
622.028	582.4
622.441	585.3
622.854	594.7
623.268	577.1
623.681	581.7
624.095	574.2
624.509	585.6
624.922	580.4
625.336	567.5
625.728	583.2
626.142	585.3
626.556	591.1
626.97	581.1
627.384	569.1
627.799	577.4
628.213	582.6
628.627	577
629.041	575.7
629.456	573.6
629.87	575.2
630.285	589.3
630.699	585.5
631.093	576.9
631.507	586.2
631.922	576.7
632.337	586.1
632.752	564.8
633.167	580.4
633.582	577
633.997	569.7
634.412	565.3
634.806	577.1
635.221	568.5
635.637	586.5
636.052	569
636.468	579.4
636.883	591.5
637.299	575.7
637.715	562.3
638.109	578.2
638.525	564.7
638.941	585.8
639.357	578.2
639.773	584.3
640.189	569.1
640.584	570.4
641	575.2
641.416	564.4
641.832	572.3
642.249	565.5
642.665	567.9
643.06	579.8
643.477	570.1
643.894	557.3
644.31	565.6
644.727	573.1
645.123	569.2
645.54	563.8
645.957	577.7
646.374	581.1
646.77	570.3
647.187	601
647.604	570.2
648.021	555
648.439	556.4
648.835	569
649.252	571.8
649.67	573.2
650.088	576.1
650.484	572.7
650.902	578.4
651.32	576.6
651.738	565.1
652.134	576.6
652.552	584.6
652.971	579.5
653.389	570.9
653.786	587.2
654.204	571.4
654.622	564.8
655.019	567.3
655.438	573.7
655.857	571.7
656.275	570.3
656.673	558.3
657.091	639.3
657.51	564.8
657.908	582.2
658.327	582.3
658.746	560.1
659.144	573.5
659.563	576.4
659.982	573.5
660.38	561.7
660.8	564.4
661.219	576.8
661.617	572.1
662.037	571.3
662.457	579.5
662.855	552.3
663.275	597.7
663.695	563.3
664.094	564.9
664.514	568.6
664.934	561.5
665.333	571.3
665.753	567.7
666.152	561.5
666.572	557.7
666.993	578.9
667.392	559.8
667.812	565.6
668.212	560.9
668.632	579.6
669.053	563.5
669.453	569.5
669.874	571.7
670.273	570.9
670.694	557.3
671.116	581.4
671.515	574
671.937	557.9
672.337	562.4
672.758	563.1
673.158	578.6
673.58	558.1
673.98	566.4
674.402	577.1
674.824	564.8
675.224	559.7
675.646	559.1
676.047	562.8
676.469	562.4
676.869	569.4
677.292	570.3
677.693	558.4
678.115	562.4
678.516	572.5
678.939	565.7
679.34	565.7
679.762	571.3
680.164	569.4
680.586	562.2
680.988	571.1
681.411	588.9
681.812	573.5
682.236	555.6
682.637	552.9
683.061	555.8
683.462	560.2
683.864	562.6
684.288	570.6
684.69	553.7
685.114	570.7
685.516	571.2
685.94	558.8
686.342	571.5
686.766	559.3
687.168	558.7
687.571	578.7
687.995	564.2
688.398	556.3
688.822	563.5
689.225	577.3
689.628	575.1
690.052	562.9
690.456	570
690.88	569.1
691.284	558
691.687	571.8
692.112	553.4
692.515	553.5
692.919	559.7
693.344	562.9
693.747	558.7
694.173	554.1
694.577	575
694.98	564.1
695.406	554
695.81	564.3
696.214	561.7
696.64	573.3
697.044	565.3
697.448	572.3
697.874	565.5
698.279	561.2
698.684	551.6
699.11	555.5
699.514	561
699.919	557.5
700.324	552.6
700.75	562.7
701.156	564.2
701.561	572.7
701.987	568.2
702.393	572.3
702.798	573.7
703.203	561.2
703.63	557.3
704.036	556.2
704.442	568
704.847	558.4
705.274	561.1
705.68	566.2
706.086	571.5
706.492	550.7
706.92	564.2
707.326	567.8
707.732	554
708.139	553.9
708.545	550.7
708.973	554.2
709.38	564.1
709.786	552
710.193	571.5
710.6	559.4
711.028	555.5
711.435	554.8
711.842	563.9
712.249	555.8
712.656	563.6
713.064	571
713.492	555.4
713.9	561.7
714.307	563.3
714.715	555.6
715.123	567.9
715.53	565.6
715.938	566.2
716.367	562.5
716.775	560.6
717.184	554.7
717.592	556.1
718	570.7
718.408	584.8
718.816	599.2
719.225	563.8
719.633	558.4
720.042	549.7
720.472	551.9
720.881	574.5
721.29	558.1
721.699	549.4
722.108	561.6
722.517	559.6
722.926	553.6
723.335	566.4
723.744	554.9
724.154	558.7
724.563	561.1
724.973	562.3
725.382	557.6
725.792	557.5
726.202	549
726.612	571.7
727.022	560
727.432	553.3
779.813	563.3
780.223	597.8
780.634	556.5
781.044	556.1
781.454	561.9
781.865	570.1
782.276	554
782.686	567.8
783.097	559.3
783.508	557
783.919	557.2
784.33	571.4
784.741	572.6
785.152	556.6
785.563	539.7
785.974	551.5
786.386	572.5
786.776	555.5
787.188	558.9
787.599	549
788.011	566.3
788.423	564.3
788.835	549.3
789.247	545.9
789.659	548.9
790.071	547.4
790.483	596.6
790.874	554.4
791.286	562.8
791.699	549.6
792.111	565.3
792.524	559.7
792.937	556.3
793.349	548.4
793.741	547.6
794.154	557.3
794.567	572.2
794.98	549.7
795.393	545.4
795.785	561.7
796.198	550.3
796.612	557.4
797.026	554.3
797.439	541.8
797.831	556.8
798.245	547.6
798.659	548.2
799.073	552.8
799.487	554.5
799.88	552.5
800.294	562
800.708	557.8
801.123	560
801.516	577.3
801.93	549
802.345	546.4
802.76	559.5
803.153	570.3
803.568	574.9
803.983	572.8
804.377	559.8
804.792	548.1
805.207	544.7
805.601	553.8
806.016	589
806.432	552.3
806.826	584.5
807.242	575.6
807.658	554.6
808.052	552.6
808.468	553.7
808.884	552.3
809.279	558.6
809.695	565.6
810.111	574.3
810.506	560.1
810.922	579.6
811.339	554.1
811.734	565.8
812.151	555.2
812.546	552.2
812.963	550.9
813.38	559
813.776	558
814.193	576.5
814.589	548.3
815.006	555.1
815.402	552.3
815.82	550.1
816.237	556
816.633	558.2
817.051	547
817.448	559
817.866	553.4
818.262	575.1
818.68	549.2
819.077	549.7
819.495	552.6
819.892	594.5
820.311	554.3
820.708	548.5
821.127	549.6
821.524	568.1
821.943	559.5
822.34	574
822.759	561.1
823.157	560.8
823.576	571.9
823.974	565.6
824.393	567.2
824.791	558.8
825.189	548.9
825.609	552.5
826.007	559
826.427	541.1
826.826	555.9
827.246	564.9
827.644	545.7
828.043	565.5
828.463	555.7
828.862	561.5
829.261	564.5
829.682	545.6
830.081	559.3
830.502	547.6
830.901	563.8
831.301	543
831.722	544.1
832.121	557.4
832.521	556.7
832.943	551.8
833.342	556.8
833.742	543
834.164	551.7
834.564	544.9
834.965	547.8
835.386	552.1
835.787	550.6
836.188	557.1
836.588	556.1
837.01	555.6
837.411	552.9
837.812	558.2
838.213	559.8
838.636	551.7
839.037	623.7
839.438	554.7
839.84	560.6
840.263	566.2
840.664	559.9
841.066	559.8
841.468	555.8
841.891	549.3
842.293	563.9
