#lambda/nm	C1
208.295	471.1
208.67	439.5
209.045	402.5
209.419	406.3
209.794	599.4
210.169	575.3
210.544	701.2
210.919	589.8
211.295	583.4
211.67	594.7
212.045	582
212.421	587.3
212.796	626.9
213.172	581.3
213.547	585.9
213.923	584.1
214.299	585.1
214.675	597.5
215.051	590.4
215.427	595.4
215.803	607.4
216.179	587.8
216.555	582.6
216.932	599.4
217.308	588.2
217.684	591.3
218.061	600.1
218.438	588.9
218.814	588.2
219.191	598.3
219.568	580.8
219.945	586.3
220.322	599.4
220.699	587.5
221.076	597.5
221.453	590.1
221.83	581.3
222.208	583.2
222.585	582.9
222.962	586.1
223.34	589.7
223.717	582.3
224.095	587.2
224.473	594.4
224.851	582.5
225.229	578.6
225.607	606.5
225.985	579.8
226.363	587.3
226.741	591.2
227.119	585.7
227.497	609.1
227.876	574.9
228.254	598
228.633	598.6
229.011	588.1
229.39	589.9
229.769	589.8
230.148	591.4
230.527	605.9
230.905	588.4
231.284	585.1
231.664	581.7
232.043	601.2
232.422	594.5
232.801	581.3
233.181	592.3
233.56	578.2
233.94	583.2
234.319	573.7
234.699	579.8
235.079	621.8
235.458	624.8
235.838	601.3
236.218	578
236.598	580.9
236.978	582.5
237.358	584
237.738	582
238.119	596.5
238.499	578
238.88	589
239.26	601.8
239.641	581.4
240.021	583.7
240.402	586.3
240.783	582.6
241.163	591.6
241.544	592.3
241.925	588.4
242.306	607.8
242.687	585.9
243.069	590.2
243.45	596.1
243.831	582.5
244.212	583.7
244.594	618.5
244.975	597.7
245.357	594.1
245.739	583.5
246.12	591.9
246.502	604.6
246.884	587.1
247.266	583.3
247.648	588.2
248.03	611.4
248.412	590.5
248.794	588.2
249.176	589
249.559	597.8
249.941	578.9
250.323	579.4
250.706	579.3
251.089	585.2
251.471	589.9
251.854	585.7
252.237	591.7
252.62	598.9
253.002	588.9
253.385	593.1
253.769	608.4
254.152	587.6
254.535	595.2
254.918	578.6
255.301	585.8
255.685	586.9
256.068	582.1
256.452	606.6
256.835	596.7
257.219	597.3
257.603	596.8
257.986	577.1
258.37	598.2
258.754	577.6
259.138	593.5
259.522	594.1
259.906	584.7
260.29	594.7
260.675	585.9
261.059	592
261.443	577.2
261.828	593.3
262.212	592.8
262.597	572.6
262.981	588.2
263.366	595.3
263.751	586.2
264.136	584.2
264.521	584.4
264.906	583.1
265.291	594.5
265.676	585.4
266.061	591.8
266.446	603.2
266.831	594.3
267.217	601.5
267.602	590.3
267.987	589.2
268.373	581.2
268.759	596.1
269.144	597
269.53	591.2
269.916	586.9
270.302	583.1
270.688	589.5
271.074	595
271.46	598.7
271.846	620.1
272.232	592.9
272.618	584.4
273.004	587.4
273.391	597.7
273.777	599
274.164	595.8
274.55	608
274.937	590.1
275.324	584
275.71	590.4
276.097	598.4
276.484	586.3
276.871	597.4
277.258	594.2
277.645	578.7
278.032	586.1
278.419	590.4
278.807	594
279.194	581.5
279.581	583.9
279.969	597.6
280.356	586.9
280.744	590.1
281.131	612.5
281.519	602.2
281.907	587.5
282.295	585.2
282.682	597.6
283.07	595.2
283.458	596.7
283.846	599.6
284.235	596.7
284.623	601.6
285.011	584.5
285.399	589.1
285.788	587.2
286.176	585.1
286.565	598.3
286.953	586.6
287.342	596.4
287.731	584.4
288.119	581.3
288.508	589.5
288.897	587.1
289.286	577.6
289.675	590.8
290.064	601.8
290.453	583.2
290.821	588.7
291.21	601.9
291.599	587.6
291.989	591.2
292.378	599.1
292.768	610.3
293.157	593.5
293.547	606.1
293.936	592.1
294.326	582.4
294.716	592.1
295.106	585.1
295.496	599.4
295.886	595.8
296.276	590.9
296.666	585.1
297.056	584.8
297.446	584.4
297.836	606.2
298.227	589.7
298.617	591.5
299.008	599.2
299.398	587.8
299.789	581
300.179	590.6
300.57	601.9
300.961	584.5
301.352	580.3
301.742	602
302.133	589
302.524	585
302.915	592
303.307	585.1
303.698	596.7
304.089	597
304.48	589.2
304.872	598.6
305.263	591
305.655	586
306.046	596.1
306.438	591
306.829	586.2
307.221	613.8
307.613	596.9
308.005	606
308.397	601.8
308.789	617.1
309.181	616
309.573	610.5
309.965	600.3
310.357	589.4
310.749	597.6
311.142	580.6
311.534	589.9
311.926	599.7
312.319	595
312.711	581.8
313.104	598.8
313.497	594.2
313.889	631.2
314.282	605
314.675	619.7
315.068	594
315.461	596.5
315.854	625.6
316.247	597.1
316.64	594.6
317.033	590.1
317.405	598.4
317.798	590.2
318.192	597.8
318.585	583.6
318.979	598
319.372	583.5
319.766	591.4
320.16	602.3
320.553	610.6
320.947	611.3
321.341	589.4
321.735	591.2
322.129	578
322.523	614.2
322.917	581.2
323.311	601.9
323.705	594.3
324.099	603.5
324.494	608.3
324.888	602.4
325.282	589.4
325.677	601.8
326.071	600.8
326.466	600.5
326.861	597.2
327.255	597.1
327.65	598.1
328.045	601
328.44	590.4
328.835	591
329.23	587.1
329.625	621.7
330.02	586.6
330.415	612.9
330.81	591.3
331.206	594.2
331.601	582.6
331.996	597.8
332.37	596.2
332.766	585.2
333.161	621.3
333.557	591.7
333.953	591.4
334.348	844.3
334.744	594.8
335.14	584.7
335.536	586
335.932	600.5
336.328	587.5
336.724	598
337.12	591.2
337.516	594
337.913	593.4
338.309	606.3
338.705	592.1
339.102	601.8
339.498	584.6
339.895	606.1
340.291	592
340.688	603.2
341.085	580
341.481	592.3
341.878	588.2
342.275	610.9
342.672	575.6
343.069	582.4
343.466	577
343.842	597.1
344.239	578
344.636	590.7
345.033	581.2
345.431	586.6
345.828	594.5
346.225	589.3
346.623	597.2
347.02	588
347.418	601.1
347.816	601.6
348.213	583
348.611	595.3
349.009	589.9
349.407	601.1
349.805	574.5
350.203	579.9
350.601	607.8
350.999	587.1
351.397	578.9
351.795	582.1
352.193	601.9
352.57	597.4
352.969	599.7
353.367	578.6
353.766	583.1
354.164	585.9
354.563	597.8
354.961	585.1
355.36	587.5
355.759	585.1
356.158	579.1
356.557	584.1
356.956	572
357.355	572.3
357.754	587.9
358.153	589.9
358.552	608.9
358.951	580.8
359.35	600.5
359.75	586.4
360.149	580.9
360.527	573.4
360.926	570.9
361.326	586
361.726	580.6
362.125	577
362.525	589
362.925	576.1
363.325	586.5
363.724	583.2
364.124	578.9
364.524	579.9
364.924	581.9
365.324	596
365.725	569.2
366.125	589.9
366.525	589
366.904	570.5
367.304	571.3
367.705	598.9
368.105	598.5
368.506	583.7
368.906	589.6
369.307	576.6
369.708	590.4
370.108	569.8
370.509	593.8
370.91	576.1
371.311	587.8
371.712	588.6
372.113	583.8
372.514	563.9
372.894	581.5
373.295	579.8
373.696	592.6
374.097	592.1
374.499	615
374.9	589.1
375.301	572.5
375.703	583.9
376.105	572.7
376.506	588.8
376.908	592.8
377.309	584.4
377.711	586
378.113	573.5
378.493	584.9
378.895	586.7
379.297	590.5
379.699	569.8
380.102	590.9
380.504	583.8
380.906	580.3
381.308	606.2
381.71	577.6
382.113	591.6
382.515	580.4
382.918	588.5
383.299	587.1
383.701	592.6
384.104	580.9
384.507	562.3
384.909	585.8
385.312	572.1
385.715	570.1
386.118	579.2
386.521	569.8
386.924	592.3
387.327	580.2
387.709	570.6
388.112	568.3
388.515	574.4
388.918	582.3
389.322	582.1
389.725	577
390.129	601.8
390.532	580.6
390.936	581.3
391.339	573.1
391.743	585.6
392.125	578.2
392.529	590.3
392.933	596.6
393.337	584.2
393.74	579.6
394.144	583.5
394.548	573.9
394.953	574.5
395.357	585.4
395.761	577.2
396.144	587.7
396.548	580.1
396.952	575.3
397.357	582.9
397.761	578.5
398.166	575.9
398.57	577.1
398.975	571.6
399.379	584.3
399.763	630.4
400.168	579
400.572	580.7
400.977	577.8
401.382	600.3
401.787	591
402.192	597.8
402.597	596.5
403.002	570.9
403.386	597.1
403.791	600.2
404.197	575.6
404.602	584.2
405.007	590.2
405.413	585.3
405.818	578.6
406.224	580.3
406.608	576.2
407.014	578.7
407.42	601
407.825	579.8
408.231	594.8
408.637	590
409.043	598.1
409.449	584.4
409.834	577.3
410.24	583.1
410.646	592.4
411.052	590.6
411.458	589.6
411.865	590.8
412.271	591.8
412.677	585.3
413.062	587.2
413.469	573.8
413.875	607.7
414.282	592.8
414.689	582.7
415.095	586
415.502	581.7
415.888	584.7
416.294	572.8
416.701	623.8
417.108	578.9
417.515	592.1
417.923	577.5
418.33	603.7
418.715	593.5
419.123	575.9
419.53	575.8
419.937	589.1
420.345	593.3
420.752	579
421.16	597.7
421.546	582.2
421.953	590.8
422.361	572.9
422.769	583
423.177	568.8
423.585	602
423.992	594.8
424.379	598.7
424.787	592.9
425.195	603.3
425.603	579.9
426.011	595
426.419	602
426.806	585.3
427.214	586.2
427.623	597.6
428.031	605.9
428.44	594.5
428.848	604.4
429.235	612.4
429.644	602.1
430.053	605.8
430.461	619.5
430.87	639.9
431.279	626.3
431.666	619.1
432.075	629.6
432.484	647.1
432.893	646.7
433.302	680.9
433.711	723.9
434.099	692.8
434.508	704.6
434.918	721.3
435.327	748.7
435.737	764.2
436.125	777.7
436.534	799.3
436.944	815.9
437.353	836.7
437.763	872.3
438.173	863.4
438.561	903.5
438.971	898.7
439.381	937.7
439.791	949.3
440.201	950.6
440.589	978.9
440.999	1012.1
441.409	1027.1
441.819	1027.3
442.23	1062
442.619	1076.8
443.029	1085.2
443.439	1112.9
443.85	1119.9
444.26	1142.1
444.649	1145.3
445.06	1157.6
445.471	1162.1
445.881	1186.8
446.292	1213.5
446.682	1215.8
447.092	1194.2
447.503	1281.6
447.914	1227.7
448.325	1242.5
448.715	1244.7
449.126	1239.8
449.537	1264.1
449.948	1273.7
450.338	1289.2
450.75	1294.5
451.161	1297.5
451.572	1313.3
451.984	1310
452.374	1299.5
452.786	1317.7
453.197	1327.5
453.609	1325.5
453.999	1301.7
454.411	1310.5
454.823	1346.7
455.235	1348
455.647	1330.4
456.037	1339
456.449	1337.2
456.862	1354.9
457.274	1349
457.665	1341.5
458.077	1351.6
458.489	1360.2
458.902	1353.3
459.293	1352.9
459.705	1358.9
460.118	1349.5
460.53	1360.1
460.921	1363.3
461.334	1359.9
461.747	1364.4
462.16	1371.8
462.551	1364.6
462.964	1362.7
463.377	1335.1
463.79	1347.4
464.182	1354.5
464.595	1339.7
465.008	1338.6
465.421	1355.5
465.813	1340
466.226	1350.2
466.64	1339.1
467.053	1375.5
467.445	1344.1
467.859	1330
468.272	1332.2
468.686	1329.3
469.078	1311
469.492	1314.5
469.906	1315
470.298	1303.8
470.712	1300.3
471.126	1325
471.54	1281.8
471.933	1291.5
472.347	1296.1
472.761	1290.4
473.175	1285.9
473.568	1291.5
473.982	1281.8
474.397	1286.9
474.79	1277.2
475.204	1280.4
475.619	1266.9
476.033	1261.9
476.426	1264.4
476.841	1259.9
477.256	1274.5
477.649	1255.5
478.064	1246
478.479	1241.9
478.872	1251.8
479.287	1231.8
479.702	1239.9
480.118	1228.8
480.511	1234.4
480.927	1223.1
481.342	1222.2
481.736	1229.9
482.151	1214.9
482.566	1237.8
482.96	1214.9
483.376	1223.7
483.792	1211.1
484.186	1212.9
484.602	1204.1
485.017	1200.9
485.412	1206.8
485.827	1208.9
486.243	1191.6
486.638	1214.2
487.054	1182.6
487.47	1191.3
487.865	1171.7
488.281	1170.7
488.697	1154.2
489.092	1161.8
489.508	1150.8
489.925	1156.4
490.32	1141.7
490.736	1149.6
491.153	1134.3
491.548	1131.8
491.964	1143.5
492.381	1105.2
492.776	1131.7
493.193	1118.8
493.61	1120
494.006	1104.7
494.422	1108.1
494.84	1082.8
495.235	1104.6
495.652	1096.8
496.069	1090.8
496.465	1075.5
496.883	1078.6
497.3	1103.5
497.696	1061.6
498.113	1069
498.509	1047.7
498.927	1046.7
499.344	1050.6
499.741	1047.7
500.158	1048
500.576	1052.7
500.973	1026.3
501.39	1024.2
501.787	1020.3
502.205	1026.4
502.623	1011.8
503.02	1003.8
503.438	996.3
503.856	1000.4
504.253	998.1
504.671	1011
505.068	991
505.486	984.4
505.905	1011.7
506.302	974.5
506.72	988.9
507.118	961.9
507.536	962.3
507.955	963.8
508.352	963.6
508.771	959.9
509.169	960.9
509.587	947.9
510.006	948.5
510.404	925.1
510.823	940.3
511.221	933.6
511.64	930.2
512.038	936.7
512.457	922.6
512.877	922.5
513.275	911.1
513.694	910
514.092	908.5
514.512	911.4
514.91	905.2
515.33	901.4
515.749	896.1
516.148	897.8
516.568	893.4
516.966	876.4
517.386	881
517.785	879.9
518.205	867.5
518.603	862.6
519.024	854.9
519.444	875
519.843	874.5
520.263	868.7
520.662	867.5
521.082	859.4
521.481	854
521.902	849
522.301	841.7
522.722	846.4
523.121	836.1
523.542	834.5
523.963	833.2
524.362	835.2
524.783	829.6
525.183	817.6
525.604	830.1
526.003	817.2
526.425	806.7
526.824	817.7
527.246	816.4
527.646	814.9
528.067	805
528.467	799.6
528.888	799.3
529.289	797.9
529.71	785.9
530.11	787.9
530.532	786.7
530.932	775.7
531.354	777.2
531.755	816
532.176	779.7
532.577	771.9
532.999	768.6
533.4	761
533.822	774.6
534.223	766
534.645	758.6
535.046	751.7
535.468	758.4
535.869	766.1
536.292	749.3
536.693	753.3
537.115	762.2
537.516	748.6
537.939	745
538.34	759.7
538.742	761.9
539.165	749
539.566	744.7
539.989	741.5
540.391	732
540.814	744.5
541.216	736.4
541.639	734.9
542.041	739.7
542.464	727
542.866	724.7
543.268	721.9
543.691	727.6
544.093	727.4
544.517	742.4
544.919	712.1
545.343	746.4
545.745	709.5
546.147	722.6
546.571	709.5
546.974	704
547.398	709.8
547.8	724.7
548.224	705.9
548.627	704.4
549.03	712.6
549.454	700.4
549.857	707.6
550.281	700.5
550.684	698.7
551.087	706.8
551.512	702.8
551.915	702.2
552.34	703
552.743	685
553.146	693.5
553.571	695.5
553.975	707.9
554.399	676.3
554.803	737.1
555.207	678
555.632	675.1
556.036	678
556.461	670.6
556.865	676.1
557.268	671.8
557.694	669.3
558.098	676.5
558.502	674.7
558.927	668.2
559.332	663.3
559.736	670.1
560.162	671.4
560.566	666.3
560.992	671.9
561.396	661.6
561.801	658.9
562.227	672.7
562.631	656
563.036	657.3
563.462	664.5
563.867	662.9
564.272	642.4
564.698	656.1
565.103	637.7
565.508	668.7
565.935	647.7
566.34	646.7
566.745	656.3
567.172	647.3
567.577	658.8
567.982	661.5
568.409	648.6
568.815	635.9
569.22	646.3
569.626	645.5
570.053	628.2
570.459	642.6
570.865	650.9
571.292	643.4
571.698	638.7
572.104	622.7
572.531	631.5
572.937	647.4
573.343	635.2
573.75	626.1
574.177	638.7
574.583	644.7
574.99	639.1
575.396	635.5
575.824	635.2
576.231	640.7
576.637	627.1
577.065	649.3
577.472	625.7
577.879	629.9
578.286	642.1
578.714	620.7
579.121	623.2
579.528	626.4
579.935	631.1
580.364	622.2
580.771	610.4
581.178	625.1
581.585	620.8
582.014	627
582.421	612.4
582.829	610.8
583.236	621.8
583.644	612
584.073	614.1
584.481	617.8
584.889	607.7
585.296	622.8
585.726	615
586.134	604.8
586.542	601.2
586.95	630.1
587.358	599.9
587.787	611.6
588.196	598.5
588.604	609.8
589.012	609.3
589.421	600.2
589.851	596.2
590.259	610.5
590.668	602.4
591.076	644.6
591.485	596.2
591.894	607.1
592.324	614.7
592.733	616.6
593.142	589.9
593.551	598.7
593.96	607.2
594.369	596.6
594.8	589.6
595.209	597.9
595.618	585.9
596.028	593.1
596.437	589.9
596.847	599
597.256	601.7
597.687	594.4
598.097	595.6
598.507	584.1
598.917	590.3
599.327	596.5
599.736	599.8
600.146	604.4
600.556	590.9
600.988	603.8
601.398	590.1
601.808	598.2
602.219	577.3
602.629	591.8
603.039	586.6
603.45	612.3
603.86	586.8
604.271	597.7
604.703	598.1
605.114	590.1
605.525	592.8
605.935	593.7
606.346	610
606.757	594.1
607.168	584.1
607.579	582.5
607.99	593.1
608.402	586.4
608.813	584.7
609.224	577.1
609.636	576.6
610.047	575.4
610.48	586.3
610.892	588.9
611.303	590.1
611.715	578.8
612.127	568.6
612.539	574.4
612.95	580.9
613.362	567.7
613.774	572
614.186	574.6
614.599	579.3
615.011	586.8
615.423	569.1
615.835	569.9
616.248	571.3
616.66	584.4
617.073	574.9
617.485	582.1
617.898	588.4
618.311	579.5
618.723	584.3
619.136	605.3
619.549	596
619.962	600.4
620.375	571.2
620.788	579.9
621.201	570.8
621.614	592
622.028	576.9
622.441	584
622.854	592.5
623.268	577.7
623.681	584.6
624.095	578.3
624.509	583.6
624.922	582.5
625.336	567.2
625.728	572.7
626.142	588
626.556	600.8
626.97	580.4
627.384	576.2
627.799	576.8
628.213	589
628.627	579.2
629.041	574.5
629.456	576.4
629.87	580.4
630.285	590.5
630.699	586.8
631.093	571.5
631.507	586.4
631.922	577.6
632.337	591.6
632.752	569.9
633.167	579
633.582	569.6
633.997	566.9
634.412	569.3
634.806	571.8
635.221	567.6
635.637	584.1
636.052	562.5
636.468	578.1
636.883	590.3
637.299	569.7
637.715	559.5
638.109	574.4
638.525	561.2
638.941	580.6
639.357	571.3
639.773	586.2
640.189	565.5
640.584	572.5
641	573.7
641.416	560.8
641.832	566.6
642.249	567.8
642.665	569.1
643.06	578.6
643.477	580.3
643.894	563.7
644.31	570.5
644.727	574.8
645.123	566.8
645.54	566
645.957	570.6
646.374	577
646.77	569.7
647.187	602.2
647.604	573.4
648.021	549.2
648.439	563.5
648.835	572.3
649.252	568.6
649.67	567.6
650.088	570.9
650.484	569.1
650.902	570.5
651.32	574.7
651.738	568.4
652.134	572.8
652.552	587.7
652.971	572.8
653.389	569.2
653.786	580.1
654.204	574.6
654.622	562.2
655.019	573.2
655.438	565.7
655.857	565.5
656.275	566.5
656.673	563.8
657.091	636.4
657.51	563.4
657.908	579.9
658.327	582.5
658.746	560.7
659.144	566
659.563	584
659.982	568.8
660.38	564.5
660.8	567.9
661.219	575.4
661.617	575.5
662.037	567
662.457	580.6
662.855	555.4
663.275	603
663.695	564.9
664.094	567
664.514	570.9
664.934	561.1
665.333	577
665.753	562.6
666.152	558.7
666.572	563.1
666.993	583.8
667.392	564.6
667.812	568.2
668.212	561.7
668.632	575.9
669.053	562.4
669.453	570.9
669.874	569.9
670.273	572.6
670.694	561.2
671.116	572.8
671.515	577.2
671.937	566.5
672.337	556.7
672.758	564.1
673.158	575.9
673.58	561.2
673.98	569.2
674.402	578.3
674.824	564.1
675.224	558
675.646	559.9
676.047	560.5
676.469	565.6
676.869	572.8
677.292	563.1
677.693	558.2
678.115	559.8
678.516	571
678.939	567.6
679.34	556.6
679.762	570.3
680.164	564.6
680.586	558.9
680.988	566.7
681.411	585.8
681.812	560
682.236	559.5
682.637	559.3
683.061	550
683.462	565.9
683.864	562.4
684.288	568.7
684.69	555.1
685.114	569.9
685.516	575
685.94	560.7
686.342	571.7
686.766	560
687.168	558.7
687.571	586
687.995	560.9
688.398	556.8
688.822	564.2
689.225	581.6
689.628	586.3
690.052	556.9
690.456	566.9
690.88	562.3
691.284	552.5
691.687	571.3
692.112	558.1
692.515	551.8
692.919	566.1
693.344	565
693.747	557.4
694.173	555.8
694.577	568.8
694.98	567
695.406	560.1
695.81	567.7
696.214	564.4
696.64	564.8
697.044	565.9
697.448	571.5
697.874	559.3
698.279	562.1
698.684	553.4
699.11	555.1
699.514	567.4
699.919	559.6
700.324	554.5
700.75	562.3
701.156	562.3
701.561	571
701.987	567.4
702.393	574.8
702.798	571.7
703.203	562.1
703.63	551.5
704.036	563.1
704.442	563.4
704.847	557.9
705.274	552.7
705.68	563
706.086	571.8
706.492	551.7
706.92	555.3
707.326	570.5
707.732	554.6
708.139	549.8
708.545	551.2
708.973	556.2
709.38	556.2
709.786	548.4
710.193	573.3
710.6	561.8
711.028	558.3
711.435	558.3
711.842	563.1
712.249	554.9
712.656	556.7
713.064	570.1
713.492	555.2
713.9	549.8
714.307	563.1
714.715	556.5
715.123	562
715.53	556.1
715.938	563.9
716.367	566.2
716.775	559
717.184	559.1
717.592	559.8
718	573.7
718.408	590.2
718.816	600.3
719.225	564.1
719.633	564.4
720.042	555
720.472	556.5
720.881	580.6
721.29	566.1
721.699	552.1
722.108	564.9
722.517	560.7
722.926	554.6
723.335	574.7
723.744	556.8
724.154	556.9
724.563	561.8
724.973	558.2
725.382	560.4
725.792	560.1
726.202	550.2
726.612	571.4
727.022	557
727.432	557
779.813	552.5
780.223	597.7
780.634	549.2
781.044	551.6
781.454	560.8
781.865	573.1
782.276	543.5
782.686	570.1
783.097	560.2
783.508	556.1
783.919	564.1
784.33	568.6
784.741	570.3
785.152	550.2
785.563	542.7
785.974	552.5
786.386	571.2
786.776	556.3
787.188	562.4
787.599	550.1
788.011	561.8
788.423	554.8
788.835	553.1
789.247	549.9
789.659	555.5
790.071	556.2
790.483	600.7
790.874	552.8
791.286	565.9
791.699	554.8
792.111	556
792.524	561.7
792.937	561
793.349	549.5
793.741	550.4
794.154	558.9
794.567	569.4
794.98	554.8
795.393	541.6
795.785	572.9
796.198	556.5
796.612	558
797.026	555.5
797.439	542.4
797.831	556.5
798.245	549
798.659	555.8
799.073	558.1
799.487	549.5
799.88	557.9
800.294	566
800.708	559.2
801.123	557.5
801.516	571.1
801.93	547
802.345	544.8
802.76	559.7
803.153	568.3
803.568	574
803.983	569.9
804.377	565.8
804.792	545.4
805.207	543.8
805.601	554.2
806.016	590.1
806.432	553.2
806.826	587.1
807.242	567.6
807.658	561.1
808.052	557.2
808.468	554.2
808.884	543.7
809.279	558.8
809.695	570.1
810.111	576.5
810.506	565.6
810.922	573.3
811.339	552
811.734	565.8
812.151	551.3
812.546	553.9
812.963	548.5
813.38	561.8
813.776	561.6
814.193	575.6
814.589	551.2
815.006	551
815.402	551.1
815.82	550.9
816.237	556.9
816.633	561.6
817.051	546.5
817.448	557.1
817.866	544.8
818.262	571.9
818.68	554.7
819.077	552.4
819.495	555.8
819.892	591.2
820.311	547.9
820.708	551.7
821.127	553.2
821.524	565.4
821.943	555.1
822.34	570.5
822.759	557.9
823.157	553
823.576	571.5
823.974	560
824.393	566.9
824.791	553.6
825.189	548.7
825.609	555.2
826.007	557.2
826.427	540.5
826.826	555.6
827.246	559.4
827.644	541.7
828.043	569.6
828.463	549.8
828.862	561.8
829.261	560.6
829.682	542.9
830.081	554.2
830.502	549.4
830.901	559.4
831.301	545.2
831.722	546.6
832.121	549.1
832.521	551.2
832.943	552.3
833.342	554.7
833.742	546.8
834.164	548
834.564	546.5
834.965	553.1
835.386	551.3
835.787	551.6
836.188	556.1
836.588	556.5
837.01	558
837.411	547.5
837.812	567.2
838.213	563.2
838.636	550.5
839.037	619.8
839.438	551.2
839.84	560.9
840.263	558.8
840.664	559.2
841.066	553.7
841.468	559.6
841.891	549.1
842.293	561
842.695	559.4
843.098	563.3
843.5	553.7
