#lambda/nm	C1
208.295	472.9
208.67	440.9
209.045	399.7
209.419	405.1
209.794	597
210.169	571.3
210.544	696.9
210.919	591.8
211.295	582.3
211.67	595.7
212.045	586
212.421	585.8
212.796	627.6
213.172	587.1
213.547	585.6
213.923	588.4
214.299	584.5
214.675	592.4
215.051	594.4
215.427	594.8
215.803	609.9
216.179	597.6
216.555	579.3
216.932	598.1
217.308	595.4
217.684	585.8
218.061	595.2
218.438	595
218.814	581
219.191	593.7
219.568	574.9
219.945	586.3
220.322	594.5
220.699	590.2
221.076	593.6
221.453	589.9
221.83	579.1
222.208	588.3
222.585	586
222.962	587.9
223.34	592.6
223.717	592
224.095	587.5
224.473	590.6
224.851	587.3
225.229	576.2
225.607	603.1
225.985	579.8
226.363	589.4
226.741	591.1
227.119	588.5
227.497	601.6
227.876	580
228.254	602.5
228.633	596.5
229.011	598.1
229.39	598.1
229.769	593.8
230.148	599.4
230.527	608.2
230.905	591.5
231.284	592.1
231.664	585.8
232.043	605
232.422	597.2
232.801	584.6
233.181	596.3
233.56	590.3
233.94	587.5
234.319	580.7
234.699	588.3
235.079	625.2
235.458	629.8
235.838	607.3
236.218	583.6
236.598	583.1
236.978	589
237.358	583
237.738	582
238.119	594.9
238.499	582.4
238.88	591
239.26	602.6
239.641	582.7
240.021	586.6
240.402	596.7
240.783	594.5
241.163	592.5
241.544	597.3
241.925	597.3
242.306	605.8
242.687	586.5
243.069	594.2
243.45	595.3
243.831	585.4
244.212	587.8
244.594	627.7
244.975	599.8
245.357	588
245.739	585.9
246.12	592.4
246.502	600
246.884	591
247.266	585.9
247.648	588.4
248.03	614.9
248.412	594.5
248.794	593.9
249.176	591.3
249.559	601
249.941	588.4
250.323	582.3
250.706	590.7
251.089	593.5
251.471	599
251.854	599.2
252.237	591.2
252.62	602.1
253.002	594.7
253.385	592.2
253.769	606.6
254.152	591.4
254.535	594.9
254.918	579.5
255.301	590.6
255.685	585.1
256.068	587.9
256.452	617.6
256.835	599.3
257.219	599
257.603	605.2
257.986	585.3
258.37	600.1
258.754	584.1
259.138	597.1
259.522	608
259.906	587
260.29	594.6
260.675	589.4
261.059	587.7
261.443	582.7
261.828	598.7
262.212	597.2
262.597	580.1
262.981	589.3
263.366	599.5
263.751	594.3
264.136	581.2
264.521	591.3
264.906	583.3
265.291	596.6
265.676	589.5
266.061	593.3
266.446	612.2
266.831	593
267.217	612.5
267.602	599.3
267.987	595
268.373	588.1
268.759	598.4
269.144	591.6
269.53	590.6
269.916	588.7
270.302	588.9
270.688	589.9
271.074	592.4
271.46	606.6
271.846	620.8
272.232	593
272.618	589.2
273.004	592.5
273.391	599
273.777	603.3
274.164	598
274.55	607.6
274.937	597.7
275.324	588.9
275.71	596.1
276.097	600.5
276.484	578.5
276.871	597
277.258	598.6
277.645	574.5
278.032	592
278.419	588.6
278.807	596.3
279.194	581.5
279.581	581.9
279.969	596.2
280.356	590.4
280.744	595.9
281.131	621.3
281.519	605.1
281.907	588.9
282.295	591.2
282.682	602.4
283.07	594.7
283.458	599.2
283.846	607
284.235	609.3
284.623	601.5
285.011	588.4
285.399	589
285.788	590
286.176	583.3
286.565	598.4
286.953	589
287.342	587.6
287.731	584.5
288.119	583.1
288.508	592.9
288.897	589.7
289.286	578.5
289.675	598.9
290.064	597.5
290.453	592.5
290.821	593
291.21	607.6
291.599	586
291.989	590.7
292.378	600.1
292.768	612.7
293.157	599.7
293.547	607
293.936	592.1
294.326	581.7
294.716	599.1
295.106	591.6
295.496	599.9
295.886	599.6
296.276	594.2
296.666	583
297.056	584.5
297.446	584.5
297.836	612.9
298.227	588.8
298.617	592.6
299.008	607.5
299.398	592.3
299.789	588.2
300.179	598.4
300.57	610.6
300.961	588
301.352	584.2
301.742	602.4
302.133	592.1
302.524	589.3
302.915	596.1
303.307	587.3
303.698	598.2
304.089	592.2
304.48	592.4
304.872	594.3
305.263	593.3
305.655	587.5
306.046	598.6
306.438	594.5
306.829	589.8
307.221	608.4
307.613	594
308.005	600.5
308.397	601.9
308.789	614
309.181	619.2
309.573	601.8
309.965	604.5
310.357	592.7
310.749	595.9
311.142	582.5
311.534	588.8
311.926	602
312.319	590.1
312.711	584.9
313.104	605.2
313.497	588
313.889	630.2
314.282	606.5
314.675	616.1
315.068	595
315.461	600
315.854	623.8
316.247	602.6
316.64	595
317.033	586.6
317.405	597.3
317.798	589.9
318.192	593.2
318.585	586.3
318.979	592.9
319.372	585.4
319.766	594.2
320.16	602.9
320.553	609.8
320.947	613.7
321.341	596.5
321.735	588.6
322.129	577.1
322.523	613.7
322.917	585.6
323.311	601.4
323.705	597.9
324.099	595.1
324.494	609.5
324.888	599.7
325.282	593.1
325.677	595.2
326.071	596.4
326.466	599
326.861	604.6
327.255	605.6
327.65	606.4
328.045	610.1
328.44	597.2
328.835	596.6
329.23	588.6
329.625	621.1
330.02	590.6
330.415	612.3
330.81	596.3
331.206	593.7
331.601	589.7
331.996	598.7
332.37	606.4
332.766	579.9
333.161	611.4
333.557	589.8
333.953	587.2
334.348	983.4
334.744	596
335.14	590.1
335.536	593
335.932	607
336.328	600.4
336.724	599.4
337.12	598.4
337.516	595.4
337.913	593.1
338.309	605.9
338.705	594.6
339.102	602.9
339.498	585.3
339.895	606
340.291	590.2
340.688	603.2
341.085	581.9
341.481	591.9
341.878	592.3
342.275	611.4
342.672	584.8
343.069	587.9
343.466	577.9
343.842	603.5
344.239	588.6
344.636	591.6
345.033	584.8
345.431	585.2
345.828	590.9
346.225	593.5
346.623	602.6
347.02	589
347.418	600.5
347.816	610.2
348.213	579.6
348.611	595.3
349.009	590.2
349.407	606.2
349.805	580.5
350.203	583.4
350.601	606.7
350.999	588.5
351.397	584
351.795	589.6
352.193	598.5
352.57	594.4
352.969	603.9
353.367	574.7
353.766	582.9
354.164	589.9
354.563	606.2
354.961	590.7
355.36	586.6
355.759	587.6
356.158	585.3
356.557	589.6
356.956	583.7
357.355	579.2
357.754	599.7
358.153	597.5
358.552	616.3
358.951	591.3
359.35	595.9
359.75	583.4
360.149	579.9
360.527	572.2
360.926	579.8
361.326	590.3
361.726	586.2
362.125	581.6
362.525	592.9
362.925	579.4
363.325	585.4
363.724	593.2
364.124	584.4
364.524	581.6
364.924	581.3
365.324	603.4
365.725	569.2
366.125	593.5
366.525	586.5
366.904	580.9
367.304	574.2
367.705	606.3
368.105	598.2
368.506	581.8
368.906	591.7
369.307	587.5
369.708	591
370.108	569.2
370.509	593.6
370.91	573
371.311	585.8
371.712	589.8
372.113	584.3
372.514	573.1
372.894	577.6
373.295	580.4
373.696	598.5
374.097	590.8
374.499	613.3
374.9	584.7
375.301	584.2
375.703	589.9
376.105	579
376.506	587.3
376.908	593
377.309	588.9
377.711	591.1
378.113	580.3
378.493	593.1
378.895	580.1
379.297	594
379.699	579.2
380.102	584.9
380.504	591.6
380.906	583.5
381.308	608.5
381.71	584.2
382.113	590
382.515	579.2
382.918	588.8
383.299	583.4
383.701	589.3
384.104	589.8
384.507	566.8
384.909	587
385.312	568.8
385.715	568.8
386.118	582.2
386.521	576.2
386.924	592.5
387.327	580.4
387.709	571.1
388.112	568.8
388.515	582.8
388.918	578.9
389.322	591.6
389.725	581.7
390.129	606.6
390.532	589.3
390.936	582.1
391.339	580.4
391.743	587.8
392.125	574.5
392.529	594.9
392.933	596.8
393.337	590.3
393.74	582.1
394.144	583.4
394.548	576
394.953	576
395.357	589.6
395.761	582.5
396.144	581.4
396.548	582.7
396.952	580.1
397.357	593.7
397.761	576.7
398.166	582.2
398.57	578.2
398.975	575.8
399.379	585.6
399.763	634.2
400.168	584
400.572	586.4
400.977	587.7
401.382	601.4
401.787	590.9
402.192	606
402.597	594.3
403.002	573.1
403.386	596.5
403.791	600.6
404.197	576.9
404.602	584.4
405.007	587.8
405.413	578.2
405.818	571.6
406.224	573.3
406.608	579.3
407.014	576.9
407.42	597.8
407.825	579
408.231	592.7
408.637	580.8
409.043	598
409.449	584.8
409.834	577.8
410.24	586.5
410.646	598.3
411.052	588
411.458	586.6
411.865	588.5
412.271	597.3
412.677	587
413.062	592.3
413.469	581.4
413.875	611.6
414.282	593.5
414.689	587.3
415.095	585.9
415.502	577.7
415.888	584.5
416.294	573.9
416.701	622.4
417.108	581
417.515	590.8
417.923	583.9
418.33	600.2
418.715	592.9
419.123	581.1
419.53	588
419.937	590.7
420.345	599.9
420.752	581.4
421.16	598
421.546	584.3
421.953	596.8
422.361	577.1
422.769	586.4
423.177	578.7
423.585	612.1
423.992	605.4
424.379	596.2
424.787	598.1
425.195	607.2
425.603	589.4
426.011	598.5
426.419	600.7
426.806	589
427.214	588.3
427.623	598.2
428.031	604
428.44	593
428.848	598.6
429.235	605.4
429.644	591.7
430.053	594.4
430.461	605.9
430.87	616.2
431.279	598.6
431.666	577.9
432.075	589.1
432.484	598.8
432.893	584.9
433.302	605.6
433.711	627.5
434.099	595.9
434.508	587.8
434.918	580.5
435.327	594.1
435.737	594.2
436.125	595.2
436.534	593.6
436.944	593.8
437.353	595.6
437.763	612
438.173	584.9
438.561	607.6
438.971	579.2
439.381	594.8
439.791	595.6
440.201	579.7
440.589	601.8
440.999	600
441.409	603.1
441.819	582.1
442.23	609.4
442.619	601.6
443.029	598.2
443.439	607.6
443.85	611.4
444.26	621
444.649	611.5
445.06	605.9
445.471	601.2
445.881	603.2
446.292	619.5
446.682	628.2
447.092	589.6
447.503	655.8
447.914	603.6
448.325	604.9
448.715	605.8
449.126	594.5
449.537	603.6
449.948	605.1
450.338	606.7
450.75	610.4
451.161	610.8
451.572	612.5
451.984	602.2
452.374	593.6
452.786	612.4
453.197	610.1
453.609	618.5
453.999	587.9
454.411	597.2
454.823	621.5
455.235	602.7
455.647	600.7
456.037	611.8
456.449	594
456.862	607
457.274	610.6
457.665	601.8
458.077	610.2
458.489	615.7
458.902	605.8
459.293	614.3
459.705	606.1
460.118	608.3
460.53	610.4
460.921	608.2
461.334	605.9
461.747	609.5
462.16	623.2
462.551	624.1
462.964	613.4
463.377	597.9
463.79	604.5
464.182	610.3
464.595	594.9
465.008	609.8
465.421	607.9
465.813	598.2
466.226	611.1
466.64	607.5
467.053	649.6
467.445	618
467.859	610.1
468.272	610.7
468.686	613.6
469.078	602.3
469.492	597.1
469.906	610.3
470.298	615.1
470.712	596.2
471.126	635.6
471.54	593.9
471.933	598.3
472.347	603.6
472.761	597.4
473.175	593.5
473.568	603
473.982	597.1
474.397	600.4
474.79	606.6
475.204	619
475.619	601.9
476.033	606.1
476.426	598.7
476.841	600.1
477.256	627.6
477.649	595.9
478.064	593.6
478.479	598.3
478.872	594.5
479.287	585.1
479.702	592.6
480.118	598.1
480.511	602.7
480.927	596.6
481.342	589.8
481.736	601.9
482.151	595.5
482.566	606.8
482.96	602.6
483.376	616.1
483.792	588.3
484.186	600.9
484.602	600.4
485.017	602.6
485.412	599.7
485.827	604.7
486.243	596
486.638	626.9
487.054	603.4
487.47	607.3
487.865	595.8
488.281	593.4
488.697	594.7
489.092	594.6
489.508	592.3
489.925	608.6
490.32	583.2
490.736	600.9
491.153	600.4
491.548	596.9
491.964	607.6
492.381	580.2
492.776	602
493.193	603
493.61	606.1
494.006	599.4
494.422	599.2
494.84	587.4
495.235	607.8
495.652	595
496.069	592.8
496.465	577.2
496.883	594.5
497.3	616.6
497.696	588.1
498.113	600.3
498.509	575.9
498.927	577.3
499.344	582.3
499.741	585
500.158	598.2
500.576	602.4
500.973	593.3
501.39	587.5
501.787	581.9
502.205	591.2
502.623	588.9
503.02	578.5
503.438	582.8
503.856	592.1
504.253	594.3
504.671	590.4
505.068	585.6
505.486	582.1
505.905	616
506.302	583
506.72	604.7
507.118	587.1
507.536	586.6
507.955	585.2
508.352	591.3
508.771	594.7
509.169	592.5
509.587	581.6
510.006	586
510.404	578.6
510.823	579
511.221	580.9
511.64	584.5
512.038	590.6
512.457	586
512.877	586.1
513.275	580.9
513.694	587.6
514.092	585.2
514.512	591.6
514.91	585.8
515.33	592.3
515.749	587
516.148	585.2
516.568	587
516.966	584.5
517.386	580.9
517.785	583.4
518.205	584.7
518.603	585.7
519.024	576
519.444	587.5
519.843	593.6
520.263	587.2
520.662	589.2
521.082	579.4
521.481	581.5
521.902	585.1
522.301	587.4
522.722	584.2
523.121	581.5
523.542	574.6
523.963	582.9
524.362	583.6
524.783	585.8
525.183	580.2
525.604	588.1
526.003	572.4
526.425	575
526.824	586.7
527.246	587.3
527.646	584.9
528.067	581.6
528.467	586.8
528.888	586.7
529.289	579
529.71	580.1
530.11	574.3
530.532	577.8
530.932	571
531.354	576.4
531.755	613
532.176	591.2
532.577	577.8
532.999	578.4
533.4	575.2
533.822	589.6
534.223	573.3
534.645	578.3
535.046	573
535.468	580.8
535.869	590.4
536.292	574.5
536.693	579.7
537.115	583.3
537.516	571.9
537.939	577.9
538.34	598
538.742	588.8
539.165	579.7
539.566	583.3
539.989	567.4
540.391	575.9
540.814	577.7
541.216	576.1
541.639	572.7
542.041	587.1
542.464	576
542.866	573.5
543.268	569.1
543.691	584.1
544.093	579.3
544.517	595.8
544.919	566
545.343	601.6
545.745	571.9
546.147	571.1
546.571	574.8
546.974	566.8
547.398	580
547.8	587.5
548.224	580.5
548.627	564.2
549.03	576.8
549.454	570.3
549.857	562.9
550.281	571.3
550.684	574.1
551.087	585.5
551.512	578.9
551.915	585.2
552.34	573.8
552.743	570.4
553.146	577.1
553.571	574.9
553.975	594.3
554.399	572.5
554.803	629.9
555.207	575.2
555.632	568
556.036	579.3
556.461	571.2
556.865	576.4
557.268	568.5
557.694	571.9
558.098	580.2
558.502	577
558.927	570.8
559.332	573.6
559.736	573.8
560.162	575.9
560.566	572.5
560.992	578.6
561.396	572.4
561.801	570.7
562.227	572.2
562.631	570.1
563.036	574.9
563.462	582.1
563.867	578.6
564.272	564.7
564.698	573.9
565.103	560.7
565.508	594
565.935	575
566.34	574.2
566.745	583.5
567.172	572.5
567.577	590.3
567.982	591.1
568.409	577.9
568.815	566.5
569.22	575.6
569.626	580.8
570.053	560.1
570.459	576.5
570.865	578.8
571.292	575.5
571.698	577.7
572.104	556.5
572.531	573
572.937	582.4
573.343	566.9
573.75	567.2
574.177	572.1
574.583	577.2
574.99	568.8
575.396	576
575.824	566
576.231	574
576.637	560.7
577.065	591.2
577.472	569.4
577.879	567.3
578.286	581.9
578.714	564.7
579.121	569.7
579.528	573.2
579.935	579.3
580.364	572
580.771	558
581.178	563.4
581.585	574.6
582.014	580.3
582.421	567.2
582.829	565.2
583.236	580.5
583.644	568.7
584.073	571.8
584.481	572.5
584.889	567.2
585.296	577.8
585.726	567.5
586.134	560.2
586.542	561.9
586.95	589.4
587.358	561.2
587.787	572.6
588.196	565.1
588.604	573.1
589.012	565.1
589.421	560.5
589.851	560.9
590.259	573.1
590.668	564.7
591.076	603.5
591.485	569.8
591.894	565
592.324	583.9
592.733	582.3
593.142	553.2
593.551	560.8
593.96	574.3
594.369	557.1
594.8	558.8
595.209	565.5
595.618	555.3
596.028	563.1
596.437	559.2
596.847	571.7
597.256	570.8
597.687	572.6
598.097	564.2
598.507	559.4
598.917	569
599.327	576.1
599.736	573.4
600.146	579.7
600.556	568.5
600.988	581.4
601.398	564.4
601.808	579.9
602.219	557.4
602.629	570.7
603.039	571.4
603.45	594
603.86	574
604.271	584.9
604.703	568.6
605.114	567.9
605.525	573.2
605.935	570.9
606.346	591.7
606.757	574.6
607.168	566.3
607.579	564.9
607.99	579.3
608.402	569.7
608.813	572.8
609.224	561.7
609.636	559.6
610.047	555.9
610.48	570
610.892	577.3
611.303	575.9
611.715	570.9
612.127	553.6
612.539	564
612.95	567.5
613.362	552.6
613.774	556.6
614.186	566
614.599	565.6
615.011	571.5
615.423	554.2
615.835	564.4
616.248	556
616.66	572.6
617.073	560
617.485	560.5
617.898	572.4
618.311	569.9
618.723	563.7
619.136	594.2
619.549	583.8
619.962	585.5
620.375	560.6
620.788	568.8
621.201	565.4
621.614	577
622.028	562.4
622.441	569.5
622.854	582.7
623.268	558.4
623.681	566.6
624.095	568.1
624.509	577.5
624.922	573
625.336	556.5
625.728	569.7
626.142	579.8
626.556	582.2
626.97	574.7
627.384	565.9
627.799	568.2
628.213	576.1
628.627	561.8
629.041	565
629.456	565.3
629.87	572.6
630.285	571.3
630.699	577.1
631.093	567.4
631.507	569.6
631.922	570.9
632.337	579.3
632.752	560.4
633.167	569.2
633.582	567.9
633.997	562.7
634.412	558.9
634.806	569
635.221	556
635.637	577.5
636.052	554.9
636.468	567.9
636.883	587.7
637.299	565.5
637.715	554.3
638.109	561
638.525	553.8
638.941	577.1
639.357	570.4
639.773	574.4
640.189	568.5
640.584	562.2
641	569.7
641.416	550
641.832	562.5
642.249	558.5
642.665	566.9
643.06	568.2
643.477	573.6
643.894	554
644.31	564.9
644.727	557.8
645.123	565.8
645.54	555.9
645.957	565.4
646.374	571.1
646.77	565.6
647.187	594.5
647.604	562.7
648.021	550.7
648.439	559.7
648.835	572.7
649.252	565.8
649.67	566.2
650.088	567.8
650.484	566.9
650.902	571.6
651.32	574.7
651.738	562.9
652.134	573.7
652.552	583.5
652.971	573.7
653.389	567.1
653.786	581.8
654.204	567.4
654.622	558.4
655.019	569.9
655.438	572.2
655.857	570.9
656.275	569
656.673	553.1
657.091	632.1
657.51	561.7
657.908	570.7
658.327	579.9
658.746	554.5
659.144	565.5
659.563	571
659.982	571.8
660.38	550.9
660.8	557.9
661.219	574
661.617	570.7
662.037	566.4
662.457	573.9
662.855	553.4
663.275	600.3
663.695	560.5
664.094	564.3
664.514	575.6
664.934	558.9
665.333	570.4
665.753	563
666.152	552.8
666.572	556.5
666.993	576
667.392	563.1
667.812	564.2
668.212	559.2
668.632	577.9
669.053	559.7
669.453	570.1
669.874	564.9
670.273	566.7
670.694	560.7
671.116	581.7
671.515	567.8
671.937	561.2
672.337	558.7
672.758	561.8
673.158	572.5
673.58	554.2
673.98	564
674.402	575.2
674.824	560
675.224	561.8
675.646	555.2
676.047	561.1
676.469	562
676.869	568.6
677.292	565.6
677.693	554.4
678.115	562.4
678.516	568.5
678.939	567.5
679.34	562.1
679.762	578
680.164	568.8
680.586	555.9
680.988	568.3
681.411	587
681.812	564.3
682.236	560.1
682.637	556.8
683.061	555.5
683.462	566.2
683.864	559.2
684.288	569.1
684.69	555.7
685.114	570.3
685.516	568.2
685.94	547.3
686.342	572.9
686.766	558.5
687.168	554.8
687.571	580.8
687.995	559.5
688.398	554.2
688.822	557.4
689.225	577.9
689.628	581.5
690.052	561.8
690.456	567
690.88	562.5
691.284	553
691.687	568.8
692.112	552
692.515	549.2
692.919	560.5
693.344	576
693.747	560.1
694.173	552.7
694.577	571.5
694.98	560.9
695.406	559.3
695.81	562
696.214	567.7
696.64	568.3
697.044	567.3
697.448	570.3
697.874	557.9
698.279	560.6
698.684	558.3
699.11	551.9
699.514	555.9
699.919	558.5
700.324	550.5
700.75	557.8
701.156	565.3
701.561	573.4
701.987	571.5
702.393	571.4
702.798	574.3
703.203	563
703.63	552.5
704.036	557
704.442	563.4
704.847	552.5
705.274	563.8
705.68	568.4
706.086	567.7
706.492	550.6
706.92	565.8
707.326	569.5
707.732	560.7
708.139	546.2
708.545	549.8
708.973	558.3
709.38	566.2
709.786	555.8
710.193	576.1
710.6	561.4
711.028	555.2
711.435	561.5
711.842	560.8
712.249	554.4
712.656	562.3
713.064	570.7
713.492	555.4
713.9	557.6
714.307	560.6
714.715	556.5
715.123	561
715.53	562.6
715.938	566.9
716.367	560.6
716.775	564.4
717.184	549.9
717.592	561.1
718	572.9
718.408	592.7
718.816	603.3
719.225	558.6
719.633	561
720.042	548.9
720.472	553.1
720.881	580.9
721.29	569.5
721.699	553.8
722.108	563.2
722.517	561.7
722.926	555.6
723.335	574.7
723.744	562.5
724.154	557.6
724.563	564.4
724.973	561.5
725.382	561.5
725.792	566.8
726.202	554
726.612	566.8
727.022	562.2
727.432	561.6
779.813	564.8
780.223	601.2
780.634	555.3
781.044	558.1
781.454	561.8
781.865	575.6
782.276	551.7
782.686	567.3
783.097	564.6
783.508	559.2
783.919	569
784.33	567.5
784.741	576
785.152	558.3
785.563	546.4
785.974	556.6
786.386	570.9
786.776	551.6
787.188	564.8
787.599	550.2
788.011	563.1
788.423	562.3
788.835	557.2
789.247	557.5
789.659	553.5
790.071	553
790.483	601.1
790.874	559.4
791.286	569.7
791.699	560.9
792.111	559.4
792.524	565.4
792.937	559.1
793.349	552.2
793.741	555.8
794.154	553
794.567	579.3
794.98	559
795.393	550.4
795.785	570.6
796.198	556.5
796.612	564.8
797.026	552.8
797.439	547.4
797.831	554.2
798.245	545.9
798.659	552.8
799.073	555.1
799.487	556.9
799.88	559.5
800.294	559.4
800.708	563.4
801.123	562.8
801.516	576.2
801.93	551.2
802.345	551.1
802.76	559.4
803.153	571.2
803.568	574.6
803.983	567.1
804.377	564.4
804.792	551.3
805.207	545.8
805.601	555
806.016	592.9
806.432	546.1
806.826	591.3
807.242	567.8
807.658	562.1
808.052	557.6
808.468	555.5
808.884	547.8
809.279	557.5
809.695	573.9
810.111	576.9
810.506	562.9
810.922	576.8
811.339	559.1
811.734	564.8
812.151	554.3
812.546	552.2
812.963	554.8
813.38	562.9
813.776	558.4
814.193	576.2
814.589	556
815.006	555.3
815.402	548.8
815.82	560.4
816.237	561.4
816.633	555
817.051	546.8
817.448	559.8
817.866	546.8
818.262	574.6
818.68	557.9
819.077	559.7
819.495	558
819.892	592
820.311	554.4
820.708	556.5
821.127	549.4
821.524	569.2
821.943	562.6
822.34	577.3
822.759	561.4
823.157	561.4
823.576	572.5
823.974	567.7
824.393	570.5
824.791	556
825.189	549.9
825.609	554.6
826.007	561.9
826.427	546.2
826.826	555.5
827.246	566.6
827.644	548.1
828.043	568.8
828.463	555.2
828.862	564.8
829.261	572.5
829.682	548.1
830.081	562.1
830.502	544.2
830.901	561.6
831.301	553.4
831.722	546.2
832.121	558.5
832.521	553.1
832.943	552.5
833.342	557.2
833.742	548.2
834.164	548.4
834.564	547.3
834.965	554.5
835.386	550.6
835.787	554.9
836.188	552.7
836.588	556.4
837.01	560.1
837.411	549.2
837.812	559.3
838.213	557.7
838.636	550.6
839.037	621.4
839.438	559
839.84	558.2
840.263	561.7
840.664	563.6
841.066	553.3
841.468	557.1
841.891	552.8
842.293	566.5
842.695	556
843.098	563.3
843.5	553.3
843.902	561.5
844.326	564.4
844.729	554.1
845.131	569.9
845.534	556.5
845.937	572
846.34	574
846.764	547.5
847.167	558.8
847.571	551.3
847.974	556.2
848.377	552.8
848.781	604.2
