#lambda/nm	C1
208.295	470.1
208.67	440.8
209.045	403.9
209.419	405.8
209.794	600.9
210.169	579
210.544	695.7
210.919	592.6
211.295	584.5
211.67	591.4
212.045	579.6
212.421	585.6
212.796	620.5
213.172	587.1
213.547	580
213.923	586.2
214.299	583.3
214.675	597.5
215.051	592.2
215.427	592.8
215.803	607.6
216.179	590.1
216.555	578.3
216.932	590.5
217.308	585.6
217.684	585.4
218.061	594.5
218.438	589.1
218.814	580.2
219.191	597.2
219.568	581.8
219.945	588.2
220.322	593.5
220.699	592
221.076	598.6
221.453	592.9
221.83	577.2
222.208	587.3
222.585	582.3
222.962	594.6
223.34	593.2
223.717	580.3
224.095	584
224.473	591.9
224.851	582.6
225.229	579.1
225.607	603.2
225.985	580.5
226.363	590.9
226.741	593.4
227.119	591.7
227.497	599.5
227.876	572.2
228.254	600.6
228.633	593.9
229.011	581.9
229.39	588.4
229.769	592
230.148	598.3
230.527	604
230.905	588.7
231.284	594.5
231.664	581.9
232.043	599
232.422	596
232.801	579.5
233.181	593.4
233.56	585.3
233.94	587.7
234.319	575.2
234.699	583.9
235.079	628.4
235.458	628
235.838	603.6
236.218	584.2
236.598	575.7
236.978	584.3
237.358	584.6
237.738	586
238.119	598.1
238.499	576.6
238.88	591.1
239.26	605.3
239.641	582.9
240.021	580.5
240.402	589.3
240.783	589.6
241.163	594.1
241.544	591.5
241.925	592.7
242.306	601.7
242.687	584.3
243.069	589.6
243.45	600.2
243.831	585.4
244.212	588.4
244.594	623.5
244.975	591.6
245.357	594.1
245.739	585.4
246.12	594.7
246.502	600.8
246.884	587.5
247.266	584.4
247.648	596.1
248.03	608
248.412	592.6
248.794	591.3
249.176	586.8
249.559	599.6
249.941	583.1
250.323	580.9
250.706	581.9
251.089	585.9
251.471	590.6
251.854	590.9
252.237	589.8
252.62	599.4
253.002	589
253.385	592.3
253.769	601.2
254.152	591.3
254.535	594.3
254.918	578.2
255.301	587.6
255.685	585.8
256.068	585
256.452	611.9
256.835	599.3
257.219	596.2
257.603	598.7
257.986	580.9
258.37	593.1
258.754	578.9
259.138	589.2
259.522	600.6
259.906	582
260.29	595.4
260.675	583.1
261.059	591
261.443	582.9
261.828	597
262.212	595.2
262.597	581.8
262.981	582.2
263.366	597.2
263.751	588.5
264.136	581.4
264.521	588.9
264.906	580.6
265.291	598.6
265.676	585.3
266.061	595.9
266.446	609.4
266.831	591.6
267.217	599.9
267.602	586.3
267.987	589.8
268.373	583
268.759	595.8
269.144	598.1
269.53	587.3
269.916	583.5
270.302	586.9
270.688	589.7
271.074	592.2
271.46	601
271.846	620.9
272.232	588.8
272.618	584
273.004	586.6
273.391	602.8
273.777	601.8
274.164	591.6
274.55	601.1
274.937	594.5
275.324	589.7
275.71	589.9
276.097	595.5
276.484	580.4
276.871	596.9
277.258	593.3
277.645	578.1
278.032	590.8
278.419	587
278.807	590
279.194	583.2
279.581	582.6
279.969	590.2
280.356	589.4
280.744	589.3
281.131	612.6
281.519	598.8
281.907	589.6
282.295	591.2
282.682	598.1
283.07	593.4
283.458	596.4
283.846	598.1
284.235	600.8
284.623	603
285.011	577.7
285.399	589.3
285.788	592.6
286.176	583.3
286.565	601.2
286.953	584.6
287.342	594.8
287.731	582.7
288.119	580.9
288.508	596.3
288.897	591.3
289.286	581
289.675	591
290.064	597.8
290.453	589.9
290.821	590.7
291.21	609.8
291.599	585.9
291.989	592.6
292.378	601.8
292.768	609.9
293.157	590
293.547	600.8
293.936	591.5
294.326	587.6
294.716	593.8
295.106	586.7
295.496	591.8
295.886	600.8
296.276	588.1
296.666	585.7
297.056	582.4
297.446	577.1
297.836	603.2
298.227	583.9
298.617	589.1
299.008	602.4
299.398	584.1
299.789	584.6
300.179	598.1
300.57	600.2
300.961	582.1
301.352	583
301.742	598.3
302.133	588
302.524	585.3
302.915	588.4
303.307	581.8
303.698	597.6
304.089	594.8
304.48	587.6
304.872	596.9
305.263	587.3
305.655	579.6
306.046	597.9
306.438	596.5
306.829	589
307.221	607.8
307.613	598
308.005	603.4
308.397	598.7
308.789	615.5
309.181	614.8
309.573	606.8
309.965	607.5
310.357	591.1
310.749	595.9
311.142	587.5
311.534	584.9
311.926	598.2
312.319	594.1
312.711	587
313.104	602.6
313.497	587.6
313.889	626.8
314.282	613.8
314.675	620.6
315.068	593.1
315.461	593.3
315.854	618
316.247	595.9
316.64	591.8
317.033	594.5
317.405	604.6
317.798	593.1
318.192	600.8
318.585	589
318.979	599.2
319.372	585
319.766	591.2
320.16	602.9
320.553	608.2
320.947	611.9
321.341	588.4
321.735	589.1
322.129	579.1
322.523	614.3
322.917	585.9
323.311	598
323.705	596.2
324.099	600.5
324.494	612.1
324.888	603
325.282	595.4
325.677	598.2
326.071	604
326.466	607.8
326.861	595.3
327.255	600.6
327.65	601.9
328.045	613
328.44	597.2
328.835	591.2
329.23	585.2
329.625	618.7
330.02	584.5
330.415	610.8
330.81	597.1
331.206	594.7
331.601	583.7
331.996	597.5
332.37	602.9
332.766	581.6
333.161	611
333.557	587
333.953	587.9
334.348	1031.3
334.744	594.1
335.14	581.9
335.536	588.3
335.932	610.3
336.328	593.3
336.724	599.7
337.12	590.7
337.516	592.3
337.913	594.9
338.309	609.1
338.705	596.2
339.102	605.1
339.498	583.1
339.895	604.1
340.291	586.6
340.688	600
341.085	585.7
341.481	589.9
341.878	587.6
342.275	611.3
342.672	579.4
343.069	585.5
343.466	577.4
343.842	600.7
344.239	585.7
344.636	585.3
345.033	581.2
345.431	582.8
345.828	587.4
346.225	582.9
346.623	599.5
347.02	587.7
347.418	600.3
347.816	602
348.213	579
348.611	593.1
349.009	586
349.407	606
349.805	580.1
350.203	575.1
350.601	598.3
350.999	587.9
351.397	583.9
351.795	591.1
352.193	598.5
352.57	596.9
352.969	594.7
353.367	582.1
353.766	582.7
354.164	586.4
354.563	591.6
354.961	588.9
355.36	591.6
355.759	591.4
356.158	582.4
356.557	579.9
356.956	578.4
357.355	575.5
357.754	590.4
358.153	586.3
358.552	610.3
358.951	586.3
359.35	604.5
359.75	588.5
360.149	579.9
360.527	572.7
360.926	573.3
361.326	583.1
361.726	589.8
362.125	582.7
362.525	597.7
362.925	583.7
363.325	584.2
363.724	585.4
364.124	580.5
364.524	576.2
364.924	582.2
365.324	596.4
365.725	574.4
366.125	590.2
366.525	585.9
366.904	576.1
367.304	567.8
367.705	604.7
368.105	593.8
368.506	585.5
368.906	583.7
369.307	578.4
369.708	589.3
370.108	574.3
370.509	596.5
370.91	575.8
371.311	584
371.712	589
372.113	583.7
372.514	566.7
372.894	583.4
373.295	575.7
373.696	596.6
374.097	593.5
374.499	611.2
374.9	589.6
375.301	578.6
375.703	589.9
376.105	575.6
376.506	584.5
376.908	587.3
377.309	585
377.711	585.4
378.113	581.5
378.493	582.9
378.895	580.3
379.297	593.7
379.699	569.7
380.102	587.3
380.504	582.8
380.906	581.9
381.308	612.4
381.71	586.3
382.113	591.8
382.515	588
382.918	584.2
383.299	585.2
383.701	593.2
384.104	587.3
384.507	568.9
384.909	585.5
385.312	569.6
385.715	569.1
386.118	582.5
386.521	570.8
386.924	598.5
387.327	580.2
387.709	568
388.112	568.4
388.515	576.2
388.918	578.8
389.322	585.9
389.725	581.5
390.129	602
390.532	583.5
390.936	578.5
391.339	577.3
391.743	584.6
392.125	577.6
392.529	588.5
392.933	594.5
393.337	587.1
393.74	571.4
394.144	578.5
394.548	576.1
394.953	580.7
395.357	581.3
395.761	579
396.144	581.5
396.548	578.5
396.952	582.5
397.357	584.5
397.761	577.8
398.166	578
398.57	579.6
398.975	567.3
399.379	585.7
399.763	631.3
400.168	583.4
400.572	584.8
400.977	580
401.382	600.7
401.787	595.9
402.192	602.3
402.597	600.1
403.002	577.6
403.386	595.9
403.791	604.5
404.197	581.6
404.602	586.8
405.007	585.8
405.413	581.6
405.818	572.2
406.224	583.3
406.608	577.4
407.014	571.8
407.42	596.9
407.825	580.1
408.231	589.1
408.637	590.2
409.043	597.2
409.449	580.5
409.834	573.3
410.24	581.5
410.646	594.3
411.052	596.8
411.458	585
411.865	596.1
412.271	594.6
412.677	588
413.062	599.6
413.469	580.6
413.875	611
414.282	595.8
414.689	591.6
415.095	591.4
415.502	581.7
415.888	587.3
416.294	575
416.701	627.6
417.108	578.6
417.515	592
417.923	582.6
418.33	605.7
418.715	595.4
419.123	585.9
419.53	584.8
419.937	598.2
420.345	601.3
420.752	588.6
421.16	607.2
421.546	595.5
421.953	610
422.361	595.1
422.769	607.8
423.177	604.9
423.585	635.9
423.992	639.5
424.379	642.4
424.787	656.4
425.195	675.4
425.603	675.1
426.011	697.8
426.419	719.7
426.806	728
427.214	748.4
427.623	779.1
428.031	804.7
428.44	815.5
428.848	847.8
429.235	869.9
429.644	874
430.053	901.4
430.461	942.5
430.87	978.2
431.279	983.5
431.666	1000.8
432.075	1040
432.484	1062.7
432.893	1076.8
433.302	1113.3
433.711	1165.1
434.099	1141
434.508	1149.8
434.918	1164.5
435.327	1205.7
435.737	1209.5
436.125	1228.8
436.534	1247.3
436.944	1261.8
437.353	1280.9
437.763	1329.1
438.173	1298.4
438.561	1334.2
438.971	1321.5
439.381	1347.4
439.791	1361.5
440.201	1361.9
440.589	1388.7
440.999	1408.1
441.409	1418.3
441.819	1423.6
442.23	1454.7
442.619	1456.4
443.029	1482.5
443.439	1466.9
443.85	1466
444.26	1486.2
444.649	1485.8
445.06	1500.9
445.471	1510.3
445.881	1531.8
446.292	1554
446.682	1565.6
447.092	1537.8
447.503	1615.8
447.914	1569
448.325	1575.2
448.715	1584.2
449.126	1575.8
449.537	1579
449.948	1597.4
450.338	1606.3
450.75	1615.6
451.161	1619.7
451.572	1630.4
451.984	1622.9
452.374	1617.1
452.786	1631.8
453.197	1643.3
453.609	1638.7
453.999	1634.9
454.411	1636.7
454.823	1659.6
455.235	1642.2
455.647	1638.8
456.037	1663.9
456.449	1644.5
456.862	1647.1
457.274	1655
457.665	1643.6
458.077	1657.6
458.489	1653.9
458.902	1649.7
459.293	1641.1
459.705	1643.9
460.118	1628.4
460.53	1648.9
460.921	1642.8
461.334	1645.3
461.747	1654.4
462.16	1643.6
462.551	1655.8
462.964	1649
463.377	1609.5
463.79	1612.7
464.182	1621.5
464.595	1584.2
465.008	1604.6
465.421	1613.8
465.813	1583.3
466.226	1584.2
466.64	1578.1
467.053	1619
467.445	1610.8
467.859	1587.8
468.272	1576.8
468.686	1599.5
469.078	1581.5
469.492	1558.2
469.906	1564.5
470.298	1569.5
470.712	1547
471.126	1586.1
471.54	1523.1
471.933	1525.2
472.347	1536.1
472.761	1530.4
473.175	1518.3
473.568	1515.3
473.982	1505.8
474.397	1504.9
474.79	1504.8
475.204	1497.7
475.619	1494.3
476.033	1478.7
476.426	1479.4
476.841	1471.4
477.256	1485.6
477.649	1452.1
478.064	1450.5
478.479	1448.2
478.872	1444.2
479.287	1425.6
479.702	1451
480.118	1439.9
480.511	1432.5
480.927	1408.6
481.342	1419
481.736	1425.8
482.151	1417.8
482.566	1426.4
482.96	1407.1
483.376	1408.4
483.792	1396.1
484.186	1384.6
484.602	1382.4
485.017	1373.2
485.412	1368.6
485.827	1374
486.243	1370.3
486.638	1375.2
487.054	1363.9
487.47	1355.3
487.865	1334.3
488.281	1336.4
488.697	1321.1
489.092	1312.6
489.508	1311.3
489.925	1311
490.32	1296.9
490.736	1304.7
491.153	1296.3
491.548	1280.1
491.964	1285.8
492.381	1271.1
492.776	1282.4
493.193	1267
493.61	1274.7
494.006	1273
494.422	1267
494.84	1243.7
495.235	1249.2
495.652	1238
496.069	1228.3
496.465	1219.6
496.883	1215.7
497.3	1228.7
497.696	1192.9
498.113	1202
498.509	1179.5
498.927	1167.2
499.344	1170.8
499.741	1159
500.158	1182.4
500.576	1165.9
500.973	1155.4
501.39	1147.5
501.787	1125.8
502.205	1137.6
502.623	1124.1
503.02	1106.3
503.438	1115.6
503.856	1114
504.253	1107
504.671	1104.9
505.068	1097.3
505.486	1092.5
505.905	1108.5
506.302	1083.9
506.72	1086.2
507.118	1060.4
507.536	1069.3
507.955	1050.5
508.352	1058.9
508.771	1063.1
509.169	1056.2
509.587	1033.1
510.006	1041.4
510.404	1017.2
510.823	1021
511.221	1017.6
511.64	1021.3
512.038	1032.2
512.457	1008.6
512.877	999.7
513.275	996.2
513.694	992.2
514.092	989.3
514.512	983.8
514.91	979.8
515.33	974.3
515.749	964.6
516.148	974.2
516.568	971.5
516.966	952.7
517.386	954.5
517.785	956.2
518.205	936.9
518.603	933.1
519.024	936.6
519.444	935.9
519.843	936.2
520.263	941.5
520.662	935.1
521.082	922
521.481	928.7
521.902	914.9
522.301	905.3
522.722	901.7
523.121	896.7
523.542	898.1
523.963	896.2
524.362	887.9
524.783	885.7
525.183	871.2
525.604	886.5
526.003	868.7
526.425	867.8
526.824	879.8
527.246	873.5
527.646	868.3
528.067	859
528.467	853.4
528.888	855.8
529.289	847
529.71	850.4
530.11	837.1
530.532	833.9
530.932	819.6
531.354	819.5
531.755	859.7
532.176	838.9
532.577	818.7
532.999	822
533.4	811.7
533.822	825.3
534.223	816.2
534.645	811.5
535.046	802.3
535.468	811.1
535.869	804.3
536.292	794.4
536.693	796.4
537.115	794.1
537.516	794.6
537.939	791.1
538.34	800.5
538.742	803.6
539.165	790.2
539.566	791.1
539.989	775.8
540.391	780.7
540.814	783.1
541.216	782.3
541.639	780.8
542.041	780.6
542.464	774.8
542.866	766
543.268	761.3
543.691	764
544.093	768.5
544.517	779.1
544.919	745.9
545.343	783.6
545.745	744.3
546.147	755
546.571	750.1
546.974	733.6
547.398	739.8
547.8	756.7
548.224	736.1
548.627	731.9
549.03	741.8
549.454	733.6
549.857	721.3
550.281	725.6
550.684	726.7
551.087	733.6
551.512	730.9
551.915	728.7
552.34	718.9
552.743	711.2
553.146	721.3
553.571	716.9
553.975	731
554.399	702.8
554.803	757.3
555.207	709.9
555.632	700
556.036	704.6
556.461	691.9
556.865	701.4
557.268	693.9
557.694	701.7
558.098	696.5
558.502	695.9
558.927	687.8
559.332	693.4
559.736	683.9
560.162	694.2
560.566	691.4
560.992	683.2
561.396	680.7
561.801	686.9
562.227	686.9
562.631	684.2
563.036	677.1
563.462	683.4
563.867	681.6
564.272	666.3
564.698	680.1
565.103	661.2
565.508	690.2
565.935	667.8
566.34	668.1
566.745	682.5
567.172	661.2
567.577	682.5
567.982	674.9
568.409	666.5
568.815	657.2
569.22	663.7
569.626	673.4
570.053	645.1
570.459	661.6
570.865	663.1
571.292	667.7
571.698	657.4
572.104	642.5
572.531	647
572.937	664.2
573.343	653.3
573.75	640
574.177	652.1
574.583	654.6
574.99	647.5
575.396	650
575.824	636.2
576.231	643.9
576.637	639.5
577.065	665.8
577.472	638.4
577.879	633.7
578.286	658.5
578.714	629.8
579.121	637.1
579.528	638.4
579.935	644.1
580.364	631.9
580.771	615.2
581.178	632.2
581.585	627.2
582.014	639.7
582.421	626
582.829	625.4
583.236	638.9
583.644	623.1
584.073	625.1
584.481	631.4
584.889	615.4
585.296	628.7
585.726	619.7
586.134	619.4
586.542	614.2
586.95	634.1
587.358	612.2
587.787	620.2
588.196	610.5
588.604	613.2
589.012	615.4
589.421	606.3
589.851	610
590.259	616
590.668	611.2
591.076	648.8
591.485	610.5
591.894	611.9
592.324	625.4
592.733	621.9
593.142	602.9
593.551	602.8
593.96	616.2
594.369	598.2
594.8	598.9
595.209	605.5
595.618	600
596.028	601.4
596.437	599.1
596.847	599.5
597.256	611.3
597.687	607.8
598.097	604.7
598.507	595.8
598.917	604.9
599.327	608.1
599.736	604.6
600.146	614.7
600.556	604.3
600.988	614.2
601.398	598.5
601.808	612.3
602.219	586.5
602.629	593.8
603.039	598.4
603.45	621.8
603.86	593.6
604.271	609.4
604.703	595.8
605.114	594.2
605.525	593.9
605.935	597.1
606.346	608.9
606.757	597.5
607.168	592.3
607.579	592.9
607.99	599.4
608.402	594.5
608.813	595
609.224	585.7
609.636	584.3
610.047	578.5
610.48	594.7
610.892	600.6
611.303	599.8
611.715	583.2
612.127	583.6
612.539	578.9
612.95	586.5
613.362	577.1
613.774	568
614.186	580.4
614.599	581.8
615.011	595
615.423	574.1
615.835	582.9
616.248	579.2
616.66	594.3
617.073	583.5
617.485	585.5
617.898	592.3
618.311	581.5
618.723	579.2
619.136	616.5
619.549	601
619.962	604.7
620.375	578.2
620.788	591.4
621.201	579.5
621.614	591.4
622.028	580
622.441	582.5
622.854	598.6
623.268	578.1
623.681	586.5
624.095	589.1
624.509	590.1
624.922	585.6
625.336	571.9
625.728	581.2
626.142	593.7
626.556	595.6
626.97	586.1
627.384	573.4
627.799	579.8
628.213	591.1
628.627	582.4
629.041	580.7
629.456	580.9
629.87	581.5
630.285	585.7
630.699	588.6
631.093	572.5
631.507	581.5
631.922	587.6
632.337	586.9
632.752	568.9
633.167	580.5
633.582	569.8
633.997	576.8
634.412	574.8
634.806	579.8
635.221	575
635.637	589.1
636.052	565.7
636.468	577.3
636.883	597.8
637.299	573.2
637.715	560.2
638.109	577.4
638.525	561.2
638.941	589.9
639.357	583.7
639.773	588.1
640.189	575
640.584	580
641	583.7
641.416	565.5
641.832	568.5
642.249	571.3
642.665	576.5
643.06	579
643.477	582.5
643.894	561
644.31	568.1
644.727	567.9
645.123	572.9
645.54	559.3
645.957	575.1
646.374	577
646.77	574.6
647.187	603
647.604	570.2
648.021	554.9
648.439	561.4
648.835	576.7
649.252	577.3
649.67	568.4
650.088	572.8
650.484	579
650.902	575.9
651.32	578.7
651.738	565
652.134	573.7
652.552	588.8
652.971	574.3
653.389	574.5
653.786	583
654.204	571.5
654.622	565.7
655.019	572.8
655.438	575.6
655.857	570.1
656.275	573.5
656.673	561.6
657.091	641.9
657.51	560
657.908	578
658.327	583
658.746	561.6
659.144	571.5
659.563	585.9
659.982	572.5
660.38	560.8
660.8	576.8
661.219	579.7
661.617	573.9
662.037	575.8
662.457	580
662.855	553.8
663.275	603.9
663.695	576.2
664.094	571
664.514	575.5
664.934	560.1
665.333	571.8
665.753	563.7
666.152	563.2
666.572	561.5
666.993	581.7
667.392	566.3
667.812	562.9
668.212	562.7
668.632	578.2
669.053	568.4
669.453	575.8
669.874	571.7
670.273	574.1
670.694	559
671.116	575
671.515	576.6
671.937	565.7
672.337	559.2
672.758	564.1
673.158	574.4
673.58	553.7
673.98	565.7
674.402	576.2
674.824	569.8
675.224	562.3
675.646	555.4
676.047	563.3
676.469	568.9
676.869	570.4
677.292	566.7
677.693	559.5
678.115	567.8
678.516	570.1
678.939	566.9
679.34	563.7
679.762	577.6
680.164	570
680.586	562.5
680.988	571.3
681.411	589.7
681.812	563.2
682.236	561.1
682.637	558.8
683.061	551
683.462	570.4
683.864	560.1
684.288	566.4
684.69	561.2
685.114	578.4
685.516	572.1
685.94	552.4
686.342	571.3
686.766	556.7
687.168	559.8
687.571	582
687.995	561.8
688.398	556.3
688.822	563.8
689.225	582.4
689.628	583.6
690.052	555.7
690.456	567.5
690.88	557.5
691.284	559.3
691.687	569.2
692.112	560.3
692.515	554.7
692.919	564
693.344	564.9
693.747	560.3
694.173	557.2
694.577	575.4
694.98	560.8
695.406	565.7
695.81	565.3
696.214	564.6
696.64	568.9
697.044	566.7
697.448	572.9
697.874	555.4
698.279	561.1
698.684	550.4
699.11	558.1
699.514	561.4
699.919	563.3
700.324	550.6
700.75	564.8
701.156	559.6
701.561	574.3
701.987	566.1
702.393	571.2
702.798	573.6
703.203	563.7
703.63	559.7
704.036	560.5
704.442	563.5
704.847	554.6
705.274	554.6
705.68	563.9
706.086	574.2
706.492	556.4
706.92	553.2
707.326	564
707.732	563.2
708.139	552.4
708.545	552.2
708.973	550.2
709.38	564
709.786	550.3
710.193	573.6
710.6	559.9
711.028	554.5
711.435	559.9
711.842	556.6
712.249	557.3
712.656	558.6
713.064	567.5
713.492	551.2
713.9	559.5
714.307	565.3
714.715	558
715.123	562.9
715.53	562.3
715.938	566.8
716.367	564.2
716.775	560.4
717.184	558
717.592	560.4
718	568.9
718.408	592.8
718.816	605.5
719.225	567.5
719.633	561.3
720.042	553.3
720.472	558.5
720.881	581.9
721.29	559.2
721.699	552
722.108	567.4
722.517	558.3
722.926	561.5
723.335	566.5
723.744	560
724.154	565.3
724.563	563
724.973	562.4
725.382	562.1
725.792	552.2
726.202	551.3
726.612	567.3
727.022	566.9
727.432	554.8
779.813	557.5
780.223	600.4
780.634	552.7
781.044	553.4
781.454	554.9
781.865	569.3
782.276	549
782.686	569.3
783.097	555.8
783.508	558.4
783.919	566.3
784.33	571.4
784.741	570.5
785.152	550.6
785.563	543.6
785.974	551.5
786.386	559.9
786.776	554.9
787.188	563.1
787.599	547.9
788.011	565.2
788.423	558.6
788.835	551.1
789.247	555
789.659	549.4
790.071	551.9
790.483	598.2
790.874	553
791.286	564
791.699	556.5
792.111	556.8
792.524	562.5
792.937	553
793.349	550.3
793.741	553.2
794.154	553.7
794.567	571.8
794.98	555.1
795.393	551.8
795.785	571.1
796.198	548.3
796.612	561.1
797.026	555.5
797.439	538.7
797.831	551.7
798.245	548.8
798.659	554.4
799.073	555
799.487	551.6
799.88	556.2
800.294	557.2
800.708	557.3
801.123	555.5
801.516	574.7
801.93	546.4
802.345	543
802.76	558.5
803.153	570.1
803.568	575.3
803.983	563.8
804.377	553.6
804.792	546.3
805.207	542.4
805.601	562.6
806.016	594.3
806.432	551.5
806.826	589.9
807.242	572.9
807.658	556.9
808.052	556.8
808.468	552.9
808.884	551
809.279	555
809.695	561.6
810.111	582.1
810.506	559.7
810.922	575
811.339	556
811.734	559.5
812.151	555.8
812.546	555.7
812.963	556
813.38	560.3
813.776	555
814.193	577.8
814.589	553
815.006	552.2
815.402	554.4
815.82	547.7
816.237	550
816.633	561.1
817.051	542.6
817.448	561.7
817.866	552.7
818.262	571.7
818.68	550.8
819.077	547.4
819.495	555.1
819.892	596.5
820.311	549.6
820.708	552.9
821.127	547.5
821.524	565.6
821.943	556.2
822.34	574.2
822.759	561.6
823.157	547.8
823.576	567.4
823.974	567.9
824.393	566.9
824.791	551.9
825.189	548.8
825.609	554.2
826.007	559.7
826.427	542.1
826.826	555.8
827.246	553.7
827.644	546
828.043	569.6
828.463	557.3
828.862	562.3
829.261	565.1
829.682	542.7
830.081	563.7
830.502	549.7
830.901	559.2
831.301	549.4
831.722	544.4
832.121	557
832.521	549.1
832.943	556.4
833.342	553.7
833.742	549.6
834.164	548.5
834.564	545.3
834.965	548.2
835.386	552.7
835.787	548.5
836.188	553.1
836.588	549.5
837.01	553
837.411	551.6
837.812	560.9
838.213	562
838.636	553.3
839.037	620.8
839.438	556.3
839.84	560.3
840.263	560.9
840.664	558
841.066	552.8
841.468	562.3
841.891	548.5
842.293	563.2
