#lambda/nm	C1
208.295	470.7
208.67	440.5
209.045	401.7
209.419	411.1
209.794	600.2
210.169	574.3
210.544	699.5
210.919	597.3
211.295	579.7
211.67	590.1
212.045	585.8
212.421	586.8
212.796	627.4
213.172	586.6
213.547	592.6
213.923	587.7
214.299	588
214.675	596.8
215.051	596.8
215.427	597.7
215.803	604.6
216.179	593.1
216.555	580.2
216.932	602.1
217.308	586.7
217.684	586.9
218.061	596
218.438	592.9
218.814	589.4
219.191	595.1
219.568	582
219.945	588.3
220.322	595.5
220.699	594.2
221.076	604
221.453	593.6
221.83	580.2
222.208	589.9
222.585	591.9
222.962	593.5
223.34	595.9
223.717	584
224.095	590.3
224.473	594.4
224.851	588.2
225.229	581.6
225.607	606.4
225.985	581.4
226.363	598.3
226.741	594.8
227.119	591.1
227.497	604.5
227.876	580.8
228.254	597.3
228.633	596.7
229.011	590.6
229.39	591.8
229.769	593.5
230.148	598
230.527	602.6
230.905	593.8
231.284	589.7
231.664	582.9
232.043	602
232.422	601.2
232.801	584.1
233.181	590.3
233.56	585.5
233.94	591
234.319	580.1
234.699	591.5
235.079	634
235.458	634.8
235.838	612.4
236.218	585.6
236.598	580.7
236.978	591.3
237.358	583.3
237.738	584.5
238.119	599
238.499	584.9
238.88	593
239.26	607.9
239.641	583.7
240.021	586.2
240.402	590.9
240.783	591.1
241.163	591.1
241.544	597.7
241.925	591.2
242.306	600
242.687	580.4
243.069	590
243.45	599.8
243.831	587.9
244.212	588.1
244.594	626.3
244.975	600.4
245.357	592.2
245.739	584
246.12	590.7
246.502	604
246.884	588.9
247.266	586.4
247.648	594.4
248.03	614.2
248.412	590.8
248.794	596.4
249.176	584.1
249.559	598.4
249.941	579.6
250.323	576.7
250.706	580.9
251.089	594.3
251.471	594.1
251.854	589.8
252.237	594.6
252.62	597.5
253.002	595.6
253.385	592.5
253.769	601.1
254.152	588.4
254.535	595.9
254.918	589.2
255.301	589.5
255.685	588.9
256.068	582.4
256.452	612.6
256.835	596.2
257.219	598.3
257.603	606.4
257.986	585.3
258.37	595.5
258.754	580.2
259.138	598.5
259.522	605.5
259.906	587.3
260.29	596.8
260.675	589.9
261.059	589.8
261.443	581.4
261.828	596.6
262.212	595.7
262.597	584.6
262.981	587.7
263.366	597.8
263.751	595.5
264.136	586.6
264.521	594.5
264.906	590.1
265.291	600.1
265.676	586.7
266.061	597.9
266.446	610.9
266.831	595.5
267.217	609.6
267.602	597.3
267.987	598.8
268.373	589
268.759	598.3
269.144	598.1
269.53	588.2
269.916	594.9
270.302	586.5
270.688	596.6
271.074	595.5
271.46	602.5
271.846	624.4
272.232	598.3
272.618	585.1
273.004	588.2
273.391	605.9
273.777	600.2
274.164	601.1
274.55	610.2
274.937	596.1
275.324	590.9
275.71	600
276.097	602.1
276.484	585.1
276.871	591.3
277.258	597.1
277.645	576.7
278.032	598.3
278.419	597.3
278.807	605.2
279.194	587.2
279.581	586.7
279.969	598.5
280.356	591.7
280.744	598.3
281.131	622.6
281.519	609.8
281.907	587.9
282.295	585.5
282.682	600.8
283.07	593.3
283.458	598.4
283.846	601.5
284.235	600.6
284.623	600.1
285.011	582.8
285.399	595.7
285.788	588.9
286.176	586.6
286.565	603
286.953	585.3
287.342	595.9
287.731	589.6
288.119	581.3
288.508	590.5
288.897	590.1
289.286	580.1
289.675	593.5
290.064	600.7
290.453	586.8
290.821	592.8
291.21	603.2
291.599	584.6
291.989	599.4
292.378	598.6
292.768	616.2
293.157	594.3
293.547	605.1
293.936	590.4
294.326	594.1
294.716	597.9
295.106	589.5
295.496	600
295.886	600
296.276	594.3
296.666	589.8
297.056	589.4
297.446	585
297.836	615.4
298.227	589.8
298.617	593.1
299.008	606.4
299.398	590.6
299.789	584.7
300.179	597.1
300.57	609
300.961	583.3
301.352	583.4
301.742	602.5
302.133	589.5
302.524	592.5
302.915	591.9
303.307	587.1
303.698	604.3
304.089	599.3
304.48	588
304.872	595
305.263	595.4
305.655	588.3
306.046	598.7
306.438	598.3
306.829	592.1
307.221	607.2
307.613	601.4
308.005	601.7
308.397	606.3
308.789	612.5
309.181	616.4
309.573	609.2
309.965	605.4
310.357	592.5
310.749	595.3
311.142	578.6
311.534	587.9
311.926	599.4
312.319	593.2
312.711	585.2
313.104	600.9
313.497	591.8
313.889	630.9
314.282	610.3
314.675	615.9
315.068	593.3
315.461	596.7
315.854	620.6
316.247	600.9
316.64	592.2
317.033	593.6
317.405	599.1
317.798	595.6
318.192	595.1
318.585	581
318.979	597.9
319.372	590.4
319.766	595.3
320.16	606.6
320.553	603.4
320.947	611.1
321.341	592.7
321.735	586
322.129	582.7
322.523	619.1
322.917	586.3
323.311	602.8
323.705	598.9
324.099	603.4
324.494	611.9
324.888	605.4
325.282	598.3
325.677	601.9
326.071	604.8
326.466	601.5
326.861	599.5
327.255	602.1
327.65	604.7
328.045	611.2
328.44	599.3
328.835	595.7
329.23	591.4
329.625	620.8
330.02	588.9
330.415	617.6
330.81	598.7
331.206	598.9
331.601	594.3
331.996	606.2
332.37	606.2
332.766	587.9
333.161	621.7
333.557	589.7
333.953	601.6
334.348	841.3
334.744	592.4
335.14	598.4
335.536	590.8
335.932	604
336.328	595
336.724	603.8
337.12	590.8
337.516	600.8
337.913	596
338.309	605.7
338.705	593.3
339.102	603.9
339.498	589.8
339.895	604.2
340.291	591.1
340.688	606.9
341.085	581.5
341.481	588.6
341.878	587.4
342.275	611.2
342.672	586.9
343.069	585.2
343.466	580.6
343.842	600.4
344.239	587.9
344.636	589.8
345.033	583.2
345.431	587.4
345.828	594.1
346.225	586.2
346.623	597.4
347.02	591.8
347.418	606
347.816	609.4
348.213	579.7
348.611	597.5
349.009	585.3
349.407	603.2
349.805	583.2
350.203	584.7
350.601	602.1
350.999	590.9
351.397	584
351.795	589.5
352.193	601.7
352.57	597.4
352.969	600.9
353.367	582.9
353.766	580.2
354.164	591.5
354.563	597.2
354.961	589.8
355.36	585.6
355.759	584.7
356.158	579.1
356.557	579.7
356.956	583.1
357.355	573.6
357.754	594.2
358.153	590.9
358.552	615.2
358.951	587
359.35	598.1
359.75	593.7
360.149	579.4
360.527	576.5
360.926	576.6
361.326	597.3
361.726	587.8
362.125	581.3
362.525	589.3
362.925	584.8
363.325	590.5
363.724	587.9
364.124	577.2
364.524	583.8
364.924	586.9
365.324	598.8
365.725	576.9
366.125	591.3
366.525	589.8
366.904	581
367.304	569.5
367.705	602.8
368.105	599.9
368.506	579.9
368.906	589.7
369.307	584.2
369.708	595.9
370.108	577.7
370.509	597.1
370.91	585.8
371.311	585.1
371.712	584.1
372.113	582.6
372.514	582.5
372.894	583.4
373.295	583.9
373.696	593.7
374.097	594.7
374.499	618.4
374.9	589.5
375.301	577.7
375.703	588.7
376.105	577.2
376.506	587
376.908	589.7
377.309	584.1
377.711	585.1
378.113	581.3
378.493	584.8
378.895	578.9
379.297	590.4
379.699	575.9
380.102	595.8
380.504	585.9
380.906	580.6
381.308	609.4
381.71	581.7
382.113	591.2
382.515	588.5
382.918	586.6
383.299	583.6
383.701	594
384.104	585.4
384.507	567.2
384.909	582.4
385.312	572.5
385.715	574.9
386.118	585.5
386.521	565.4
386.924	592.7
387.327	571.7
387.709	571.8
388.112	568.1
388.515	577.3
388.918	585.5
389.322	591
389.725	576.9
390.129	602
390.532	590.3
390.936	581.8
391.339	575.4
391.743	586.1
392.125	580.2
392.529	595.3
392.933	600.8
393.337	585.2
393.74	577
394.144	579.1
394.548	581.3
394.953	578.3
395.357	595.7
395.761	582.2
396.144	582.6
396.548	580.6
396.952	578.1
397.357	584.1
397.761	579.1
398.166	576.4
398.57	584.5
398.975	574.1
399.379	591.5
399.763	633
400.168	585
400.572	583.6
400.977	578.4
401.382	600.8
401.787	593.6
402.192	601.6
402.597	594.3
403.002	571
403.386	594.4
403.791	600.2
404.197	578.6
404.602	585.3
405.007	585.7
405.413	582
405.818	577.9
406.224	578.9
406.608	574.3
407.014	578.9
407.42	596.5
407.825	581.8
408.231	590.1
408.637	586.1
409.043	593.4
409.449	579.5
409.834	577.2
410.24	590.8
410.646	598.1
411.052	593.9
411.458	588.7
411.865	593.1
412.271	593
412.677	585.6
413.062	589.9
413.469	574.1
413.875	610
414.282	598.4
414.689	590.6
415.095	592.4
415.502	581.7
415.888	581.9
416.294	576.3
416.701	625.1
417.108	582.8
417.515	596
417.923	576.8
418.33	604
418.715	597.3
419.123	582.1
419.53	581.5
419.937	585.7
420.345	598.8
420.752	581.9
421.16	600.4
421.546	589.7
421.953	594.2
422.361	576.8
422.769	584.3
423.177	578.3
423.585	606.2
423.992	600.6
424.379	600.3
424.787	595.5
425.195	604.8
425.603	590.2
426.011	599
426.419	602.3
426.806	588.4
427.214	585
427.623	599.5
428.031	601.1
428.44	595.2
428.848	600.8
429.235	603.4
429.644	590.4
430.053	590
430.461	608.2
430.87	614.7
431.279	598.4
431.666	587.1
432.075	591.6
432.484	596
432.893	591.7
433.302	602.1
433.711	629.2
434.099	589
434.508	586.9
434.918	578
435.327	596.9
435.737	590.2
436.125	584
436.534	588.2
436.944	592.3
437.353	592.8
437.763	611.9
438.173	579.6
438.561	600.7
438.971	568.6
439.381	585.1
439.791	587.8
440.201	560.9
440.589	587.5
440.999	590.4
441.409	589.6
441.819	576
442.23	590.4
442.619	593.1
443.029	588.4
443.439	592.3
443.85	600.1
444.26	599.7
444.649	595.3
445.06	593.2
445.471	583.1
445.881	586
446.292	607.4
446.682	612.4
447.092	570.9
447.503	635
447.914	590.8
448.325	587.5
448.715	583.2
449.126	580.7
449.537	589.8
449.948	581.7
450.338	588.8
450.75	595.2
451.161	582.7
451.572	592.4
451.984	579.4
452.374	572.5
452.786	582.2
453.197	588.4
453.609	588.3
453.999	575
454.411	578.6
454.823	596.4
455.235	592.5
455.647	575.6
456.037	585.1
456.449	573.6
456.862	588
457.274	583.3
457.665	576.4
458.077	592.6
458.489	596.2
458.902	579.6
459.293	583.4
459.705	586
460.118	573.6
460.53	586.9
460.921	588.1
461.334	590.5
461.747	585.1
462.16	590.7
462.551	595.9
462.964	592.8
463.377	569.8
463.79	582
464.182	586.6
464.595	577.3
465.008	587
465.421	594.8
465.813	585.8
466.226	585.2
466.64	571.8
467.053	626.6
467.445	595.4
467.859	586.2
468.272	587.1
468.686	595.9
469.078	581.4
469.492	575.6
469.906	583.2
470.298	586.2
470.712	573.8
471.126	612
471.54	567.5
471.933	573.6
472.347	575.8
472.761	576
473.175	573.8
473.568	577.4
473.982	569
474.397	579.4
474.79	576.5
475.204	587.4
475.619	583.3
476.033	581.5
476.426	579.7
476.841	572.3
477.256	601
477.649	571.3
478.064	569.6
478.479	574.5
478.872	571
479.287	562.5
479.702	568.5
480.118	579.7
480.511	576.2
480.927	565.2
481.342	575.8
481.736	580.7
482.151	570.9
482.566	589.1
482.96	575.9
483.376	594.1
483.792	572.3
484.186	582.4
484.602	571.8
485.017	575.9
485.412	575.5
485.827	581.1
486.243	577.6
486.638	604.2
487.054	580.6
487.47	595.7
487.865	574.2
488.281	577.2
488.697	575.5
489.092	574.9
489.508	571.8
489.925	584.4
490.32	571.8
490.736	582
491.153	581.8
491.548	580.2
491.964	589.4
492.381	571.1
492.776	586.4
493.193	587.2
493.61	584.5
494.006	579.7
494.422	585
494.84	569.9
495.235	585.6
495.652	580.9
496.069	571.9
496.465	567.8
496.883	577.2
497.3	599.7
497.696	570
498.113	581.8
498.509	562.2
498.927	567
499.344	567.4
499.741	561
500.158	581.2
500.576	583.9
500.973	578.5
501.39	568.8
501.787	568.3
502.205	581.1
502.623	570.5
503.02	562
503.438	568.4
503.856	575.3
504.253	575.8
504.671	576
505.068	577.9
505.486	572.4
505.905	596.9
506.302	577
506.72	590.4
507.118	561.8
507.536	576.1
507.955	573.4
508.352	581.4
508.771	586.1
509.169	576.4
509.587	568.9
510.006	578.3
510.404	564.7
510.823	569.4
511.221	572.7
511.64	570.7
512.038	589.4
512.457	574.9
512.877	574.9
513.275	571.8
513.694	573.4
514.092	572.1
514.512	576.3
514.91	574.6
515.33	567.8
515.749	573.1
516.148	578.2
516.568	577
516.966	580.1
517.386	570.5
517.785	574.4
518.205	569.5
518.603	572.8
519.024	569.9
519.444	577.3
519.843	585.2
520.263	580.4
520.662	579
521.082	573.4
521.481	571
521.902	576.5
522.301	573
522.722	578.6
523.121	567.2
523.542	575.6
523.963	571.4
524.362	573.6
524.783	576.8
525.183	570.7
525.604	576.7
526.003	568
526.425	569.1
526.824	578.9
527.246	585.4
527.646	589.7
528.067	578.7
528.467	577.4
528.888	585
529.289	579.7
529.71	573.8
530.11	571.5
530.532	567
530.932	562.8
531.354	563.2
531.755	607.9
532.176	586.2
532.577	574.6
532.999	576.6
533.4	570.5
533.822	581.5
534.223	574.3
534.645	573.4
535.046	573.1
535.468	577.5
535.869	587.9
536.292	567.4
536.693	573.4
537.115	575
537.516	563.1
537.939	567.3
538.34	587.4
538.742	583
539.165	575.5
539.566	574.7
539.989	566.6
540.391	571
540.814	572.8
541.216	573.1
541.639	569.2
542.041	576.6
542.464	567.6
542.866	564.3
543.268	561.5
543.691	576.9
544.093	576
544.517	591.9
544.919	563.5
545.343	593.3
545.745	563.2
546.147	572.7
546.571	565.7
546.974	564.3
547.398	574.6
547.8	585.4
548.224	567.4
548.627	562.2
549.03	579.2
549.454	565.1
549.857	559.5
550.281	564.6
550.684	566.1
551.087	584.7
551.512	576.7
551.915	579
552.34	568.6
552.743	567.3
553.146	568.3
553.571	565.6
553.975	590.5
554.399	563
554.803	614.7
555.207	576.6
555.632	562.5
556.036	572.3
556.461	560.8
556.865	570.7
557.268	561.3
557.694	569.7
558.098	574.6
558.502	575.8
558.927	568.8
559.332	572
559.736	575.1
560.162	571.2
560.566	564.6
560.992	576.2
561.396	575.4
561.801	570.3
562.227	569.3
562.631	565.3
563.036	574.3
563.462	582.8
563.867	568.9
564.272	560.3
564.698	571.5
565.103	556.3
565.508	591.1
565.935	565.8
566.34	569.5
566.745	580.1
567.172	569.2
567.577	591
567.982	580.5
568.409	573.5
568.815	564.2
569.22	568.1
569.626	573.4
570.053	560.4
570.459	572.5
570.865	568.8
571.292	572.5
571.698	565.7
572.104	551.8
572.531	564
572.937	579
573.343	572.9
573.75	565.7
574.177	573.5
574.583	582
574.99	571.5
575.396	573.7
575.824	566.9
576.231	568.5
576.637	561.2
577.065	588.3
577.472	566.9
577.879	569.3
578.286	579.6
578.714	558.7
579.121	567.9
579.528	572.7
579.935	572.1
580.364	564.8
580.771	549.3
581.178	563.8
581.585	571.2
582.014	574.2
582.421	566.3
582.829	567.3
583.236	580.2
583.644	563.9
584.073	562.3
584.481	569.5
584.889	559.7
585.296	578.3
585.726	569.2
586.134	555.2
586.542	560.8
586.95	583
587.358	561
587.787	568.7
588.196	552.5
588.604	565.9
589.012	563.6
589.421	562.9
589.851	558.5
590.259	575.2
590.668	568.9
591.076	602.5
591.485	557.6
591.894	561
592.324	578
592.733	579
593.142	559.6
593.551	565.6
593.96	599.2
594.369	553.7
594.8	556.9
595.209	569.5
595.618	554.3
596.028	559.1
596.437	558.3
596.847	567
597.256	569.4
597.687	570.8
598.097	570.8
598.507	556.3
598.917	570.8
599.327	572.9
599.736	566.3
600.146	579.1
600.556	565
600.988	576.9
601.398	571.3
601.808	577.7
602.219	558.5
602.629	567.5
603.039	566.9
603.45	592.4
603.86	569.1
604.271	583.6
604.703	571.5
605.114	567.9
605.525	568.8
605.935	573.2
606.346	588.9
606.757	574.8
607.168	567.4
607.579	561.8
607.99	578.8
608.402	570
608.813	569.3
609.224	558.2
609.636	557.7
610.047	565.7
610.48	573.8
610.892	575.2
611.303	574.9
611.715	565.9
612.127	560.1
612.539	566.1
612.95	571
613.362	556.7
613.774	557.1
614.186	562.1
614.599	561.4
615.011	570.2
615.423	552.6
615.835	560.5
616.248	561.7
616.66	566.3
617.073	563.1
617.485	560.9
617.898	577.3
618.311	565.5
618.723	567.8
619.136	599.6
619.549	582.5
619.962	595.5
620.375	560.4
620.788	567.5
621.201	561.7
621.614	573.9
622.028	563.5
622.441	565.8
622.854	579.5
623.268	561.4
623.681	572.4
624.095	567.1
624.509	579.2
624.922	573.8
625.336	555.5
625.728	567.2
626.142	578.7
626.556	587.5
626.97	567.2
627.384	562.9
627.799	563.7
628.213	573.3
628.627	560.9
629.041	561.5
629.456	554.6
629.87	566.3
630.285	574.9
630.699	571.4
631.093	565.2
631.507	569.9
631.922	574.4
632.337	572.3
632.752	561.4
633.167	562.4
633.582	561.2
633.997	563.3
634.412	565.3
634.806	572.7
635.221	553
635.637	580.7
636.052	545.5
636.468	567.5
636.883	582.2
637.299	564.3
637.715	554.9
638.109	562.7
638.525	548.3
638.941	574
639.357	571.5
639.773	576.7
640.189	560
640.584	559.7
641	567.2
641.416	552.9
641.832	563.7
642.249	564.6
642.665	565.7
643.06	574.1
643.477	576.4
643.894	552.9
644.31	563.7
644.727	560.5
645.123	568.9
645.54	554.9
645.957	567.5
646.374	574.8
646.77	569.7
647.187	597.6
647.604	563.6
648.021	552.4
648.439	556.3
648.835	567.7
649.252	562.2
649.67	557
650.088	565.9
650.484	569.6
650.902	566.6
651.32	572.5
651.738	558.6
652.134	568.4
652.552	582.2
652.971	571.3
653.389	565.7
653.786	577.3
654.204	559.6
654.622	557.8
655.019	567.8
655.438	567.6
655.857	567.3
656.275	569.9
656.673	559
657.091	629.9
657.51	562.3
657.908	575.8
658.327	579.5
658.746	552.9
659.144	561.7
659.563	578.6
659.982	566.4
660.38	558.7
660.8	559.5
661.219	576.3
661.617	570.9
662.037	563.9
662.457	578.7
662.855	554.5
663.275	598.7
663.695	566.9
664.094	562.3
664.514	568.6
664.934	553.8
665.333	568.8
665.753	559.7
666.152	553
666.572	558.1
666.993	575.7
667.392	561.2
667.812	555.7
668.212	558.6
668.632	568
669.053	565.5
669.453	568.1
669.874	566.6
670.273	567.3
670.694	556.1
671.116	579.4
671.515	572.9
671.937	560.1
672.337	556.8
672.758	556.6
673.158	570
673.58	554.3
673.98	563
674.402	574.5
674.824	558.7
675.224	561.8
675.646	556.6
676.047	560.7
676.469	558
676.869	564
677.292	565.8
677.693	561
678.115	560.1
678.516	566.2
678.939	566
679.34	561.3
679.762	571.6
680.164	571.7
680.586	562.8
680.988	560
681.411	584.8
681.812	559.7
682.236	558
682.637	556.3
683.061	549.3
683.462	566
683.864	563.2
684.288	574.6
684.69	559
685.114	573.3
685.516	574.2
685.94	553.3
686.342	576.7
686.766	554.9
687.168	562
687.571	583.6
687.995	561.1
688.398	555.1
688.822	563.1
689.225	574.2
689.628	580.9
690.052	562.7
690.456	569.1
690.88	568.3
691.284	560.2
691.687	566.7
692.112	554.9
692.515	556.8
692.919	560.9
693.344	559.2
693.747	560.2
694.173	557.5
694.577	574.9
694.98	559.6
695.406	559.7
695.81	561.4
696.214	564.8
696.64	568.6
697.044	566.2
697.448	572.5
697.874	561.3
698.279	565.6
698.684	559
699.11	565.6
699.514	557.9
699.919	563.5
700.324	557.6
700.75	567.9
701.156	561
701.561	572.3
701.987	570.4
702.393	569.9
702.798	574.4
703.203	563.9
703.63	554.2
704.036	555
704.442	563.6
704.847	551.3
705.274	558.8
705.68	564.2
706.086	573.8
706.492	555.1
706.92	560.9
707.326	572
707.732	559.6
708.139	557.2
708.545	552.4
708.973	560.1
709.38	557.8
709.786	551.4
710.193	580.6
710.6	570.9
711.028	555.4
711.435	559.2
711.842	564.6
712.249	561
712.656	553.6
713.064	572.1
713.492	556.4
713.9	559.3
714.307	565.2
714.715	561.4
715.123	570.1
715.53	564.6
715.938	576
716.367	560.6
716.775	560
717.184	554.9
717.592	568.2
718	569.6
718.408	592.7
718.816	607.4
719.225	566.5
719.633	565.1
720.042	555.1
720.472	559.1
720.881	588.2
721.29	564.7
721.699	557.3
722.108	564.1
722.517	564.2
722.926	556.6
723.335	570
723.744	564.6
724.154	564.3
724.563	559.5
724.973	563.6
725.382	560.7
725.792	560.4
726.202	551.9
726.612	563.1
727.022	561.1
727.432	553.6
779.813	563
780.223	603.1
780.634	559.2
781.044	555
781.454	558
781.865	569.8
782.276	556.9
782.686	569
783.097	559.9
783.508	553
783.919	566.4
784.33	572.5
784.741	572.5
785.152	554.9
785.563	550.2
785.974	557.5
786.386	569.9
786.776	557.5
787.188	561
787.599	550.5
788.011	573.5
788.423	560.9
788.835	553.2
789.247	551
789.659	552.2
790.071	552.4
790.483	602.5
790.874	554.5
791.286	561.8
791.699	554.2
792.111	557.6
792.524	562.8
792.937	558.8
793.349	552.5
793.741	551.6
794.154	555.9
794.567	575.2
794.98	561.2
795.393	553.8
795.785	571.2
796.198	551.2
796.612	557.2
797.026	555.9
797.439	548.6
797.831	558.1
798.245	553
798.659	555.4
799.073	559.1
799.487	549.6
799.88	564.8
800.294	560
800.708	562.4
801.123	562.4
801.516	574.7
801.93	548.1
802.345	549.5
802.76	557
803.153	571.8
803.568	574
803.983	564.5
804.377	566.3
804.792	554
805.207	547.5
805.601	562.4
806.016	594.2
806.432	553.7
806.826	589.4
807.242	570.9
807.658	563.5
808.052	556.4
808.468	558.4
808.884	552.2
809.279	559.6
809.695	570.8
810.111	577.2
810.506	563.9
810.922	584.6
811.339	556.7
811.734	562.7
812.151	558.2
812.546	555.9
812.963	554.1
813.38	569.9
813.776	559
814.193	575.9
814.589	553.1
815.006	561.1
815.402	548.5
815.82	552.5
816.237	558.9
816.633	567.8
817.051	549.9
817.448	557
817.866	555.1
818.262	577.8
818.68	552
819.077	562
819.495	562.3
819.892	594.2
820.311	548
820.708	552.4
821.127	552.9
821.524	574.1
821.943	558.5
822.34	574.9
822.759	557.3
823.157	558.5
823.576	572.1
823.974	564.3
824.393	570.5
824.791	552.3
825.189	548.1
825.609	559.3
826.007	555.9
826.427	549.1
826.826	552.6
827.246	562
827.644	545.3
828.043	568.9
828.463	551.4
828.862	566.4
829.261	562.5
829.682	552.9
830.081	566.4
830.502	549.3
830.901	563
831.301	549.1
831.722	550.2
832.121	559.6
832.521	551.8
832.943	559.7
833.342	558.6
833.742	551.7
834.164	556.3
834.564	550.6
834.965	560.6
835.386	558.5
835.787	556.1
836.188	556.8
836.588	561
837.01	549.7
837.411	551.8
837.812	559.8
838.213	559.8
838.636	549.6
839.037	625.9
839.438	555.3
839.84	560
840.263	562.6
840.664	556.4
841.066	556.3
841.468	564
841.891	556.8
842.293	570
842.695	568.4
843.098	563.4
843.5	556.5
843.902	564.8
844.326	555.3
844.729	558
845.131	567.7
845.534	556.8
845.937	567.5
846.34	577.7
846.764	551.7
847.167	560.3
847.571	553.4
847.974	556.5
848.377	555.5
