#lambda/nm	C1
208.295	470.6
208.67	437.8
209.045	397.1
209.419	408.2
209.794	592.4
210.169	577.3
210.544	695
210.919	599.1
211.295	578.4
211.67	591.5
212.045	587.9
212.421	589.6
212.796	623.7
213.172	586
213.547	583.2
213.923	582.8
214.299	585.6
214.675	595.7
215.051	590.6
215.427	587.7
215.803	615.4
216.179	595.9
216.555	583.2
216.932	596.9
217.308	588.4
217.684	583.7
218.061	597.5
218.438	590.8
218.814	586.5
219.191	603.2
219.568	586.9
219.945	588.8
220.322	597.1
220.699	590.5
221.076	600.2
221.453	594.3
221.83	578.9
222.208	585.5
222.585	588.6
222.962	595
223.34	598.4
223.717	591
224.095	591.4
224.473	586.9
224.851	578.4
225.229	577.1
225.607	614.5
225.985	579.9
226.363	596.1
226.741	596.2
227.119	596.2
227.497	600.4
227.876	583
228.254	598.8
228.633	593.2
229.011	592.3
229.39	598.8
229.769	595.8
230.148	597.2
230.527	607.6
230.905	596.7
231.284	591.3
231.664	587.8
232.043	600.1
232.422	592.4
232.801	583.9
233.181	591.4
233.56	587.8
233.94	588.8
234.319	573.3
234.699	587
235.079	625.7
235.458	631
235.838	605.9
236.218	581.7
236.598	582.3
236.978	587.3
237.358	583.1
237.738	582.1
238.119	595.4
238.499	579.6
238.88	593.5
239.26	606.5
239.641	583.7
240.021	586.1
240.402	584.6
240.783	585.4
241.163	591.3
241.544	588.9
241.925	588.8
242.306	604.2
242.687	588
243.069	592.3
243.45	597.6
243.831	585.6
244.212	589.4
244.594	623.3
244.975	598.9
245.357	594.1
245.739	582.4
246.12	594.6
246.502	600.1
246.884	590.8
247.266	587.8
247.648	590.5
248.03	610.4
248.412	594.7
248.794	593.5
249.176	586.4
249.559	597.3
249.941	584.1
250.323	585.8
250.706	586
251.089	595
251.471	591
251.854	587.2
252.237	588.9
252.62	599.4
253.002	592.2
253.385	591.5
253.769	602.1
254.152	590.8
254.535	599.8
254.918	584.2
255.301	583.2
255.685	586.8
256.068	579.9
256.452	615.9
256.835	595.8
257.219	597.5
257.603	602.9
257.986	579.8
258.37	590.7
258.754	579.6
259.138	597.4
259.522	602
259.906	589.8
260.29	591.6
260.675	590.7
261.059	587.2
261.443	585.1
261.828	596.2
262.212	590.7
262.597	579.7
262.981	584.2
263.366	597.5
263.751	591.3
264.136	586.7
264.521	589.6
264.906	582
265.291	598.6
265.676	586.4
266.061	589.6
266.446	605.8
266.831	591.5
267.217	606.9
267.602	593.2
267.987	590.9
268.373	592.6
268.759	595.3
269.144	601.9
269.53	583.4
269.916	583.3
270.302	584.4
270.688	595.7
271.074	591.5
271.46	603.6
271.846	622.5
272.232	586.2
272.618	582.5
273.004	592.5
273.391	602.8
273.777	600
274.164	590.5
274.55	603.6
274.937	587
275.324	585.9
275.71	594.6
276.097	598.2
276.484	580.9
276.871	593.6
277.258	592.1
277.645	579.6
278.032	591.5
278.419	583.7
278.807	591.7
279.194	582.1
279.581	581.5
279.969	601.9
280.356	590
280.744	588
281.131	612.7
281.519	593.5
281.907	588.2
282.295	586.1
282.682	600
283.07	590.1
283.458	601.3
283.846	603.1
284.235	602.2
284.623	601.9
285.011	589.8
285.399	593
285.788	594.8
286.176	573
286.565	602.4
286.953	588.1
287.342	589.2
287.731	586.9
288.119	580.8
288.508	587
288.897	594.9
289.286	580.7
289.675	588
290.064	603.9
290.453	589.5
290.821	588.8
291.21	602
291.599	588.5
291.989	593.2
292.378	600.3
292.768	613.2
293.157	601.7
293.547	599.5
293.936	590.8
294.326	585.7
294.716	600.1
295.106	590.4
295.496	597.8
295.886	606.3
296.276	590.4
296.666	584.1
297.056	584.1
297.446	573.9
297.836	603.8
298.227	584.6
298.617	587.2
299.008	607.9
299.398	587.8
299.789	584.4
300.179	596.4
300.57	606.6
300.961	586.3
301.352	585.7
301.742	602.9
302.133	593.7
302.524	592.9
302.915	598.1
303.307	581.7
303.698	602.3
304.089	597.7
304.48	586.2
304.872	587.7
305.263	587
305.655	580.9
306.046	595.5
306.438	594.6
306.829	588.9
307.221	602.7
307.613	595.4
308.005	602.2
308.397	605
308.789	615.5
309.181	616.1
309.573	607.2
309.965	606.1
310.357	587.7
310.749	596.8
311.142	587
311.534	589.2
311.926	595.6
312.319	587.9
312.711	589.4
313.104	601.2
313.497	595
313.889	633.2
314.282	610.5
314.675	614
315.068	596.8
315.461	600.5
315.854	628
316.247	602.7
316.64	597.7
317.033	593.7
317.405	599.1
317.798	585.2
318.192	602.5
318.585	587
318.979	601.6
319.372	587.1
319.766	590.6
320.16	602.4
320.553	613.4
320.947	611.9
321.341	587.5
321.735	597.3
322.129	582.9
322.523	620.1
322.917	585.1
323.311	601.5
323.705	595.7
324.099	601.4
324.494	610.1
324.888	604
325.282	591
325.677	596.5
326.071	601.7
326.466	600.4
326.861	598.6
327.255	613.2
327.65	607.7
328.045	607
328.44	594.9
328.835	588.2
329.23	587.7
329.625	613
330.02	585.9
330.415	612.7
330.81	594.6
331.206	595.7
331.601	588.3
331.996	599.3
332.37	601.7
332.766	587.4
333.161	613.5
333.557	585
333.953	593.6
334.348	921
334.744	586.8
335.14	587.3
335.536	587
335.932	606.7
336.328	595.2
336.724	603.9
337.12	588.2
337.516	594.8
337.913	594.8
338.309	602.6
338.705	588.3
339.102	603.7
339.498	590.7
339.895	606.4
340.291	590.1
340.688	603.6
341.085	587.9
341.481	589.3
341.878	591.3
342.275	613.9
342.672	587.5
343.069	589.8
343.466	578
343.842	600.6
344.239	582
344.636	586.3
345.033	582.1
345.431	585.4
345.828	587.6
346.225	586.8
346.623	603.1
347.02	592.2
347.418	606.4
347.816	608.2
348.213	581.3
348.611	589.8
349.009	584.3
349.407	599.7
349.805	578.7
350.203	575.8
350.601	602
350.999	586.7
351.397	586.3
351.795	593.7
352.193	593.8
352.57	594.7
352.969	607
353.367	580.8
353.766	584.8
354.164	586.8
354.563	599.6
354.961	587.1
355.36	587.2
355.759	581.5
356.158	583.1
356.557	583.1
356.956	578.5
357.355	577.8
357.754	592.8
358.153	596.8
358.552	611.4
358.951	579.2
359.35	594.8
359.75	586.5
360.149	579.2
360.527	574.3
360.926	577.7
361.326	586.3
361.726	586
362.125	573.9
362.525	586.6
362.925	584.8
363.325	594.6
363.724	583.2
364.124	579.9
364.524	575.2
364.924	583.1
365.324	596.9
365.725	570.1
366.125	590.7
366.525	589.1
366.904	582.2
367.304	573.1
367.705	602.3
368.105	599.1
368.506	581.5
368.906	590.6
369.307	588
369.708	590.5
370.108	577.8
370.509	598.6
370.91	578.4
371.311	582.4
371.712	588.3
372.113	579
372.514	574.4
372.894	576.5
373.295	580.3
373.696	594.2
374.097	589.9
374.499	613.1
374.9	589.7
375.301	576.9
375.703	585.1
376.105	571
376.506	585.9
376.908	585.8
377.309	585.1
377.711	587.1
378.113	581.1
378.493	586.1
378.895	577.5
379.297	593.1
379.699	573.4
380.102	588.7
380.504	586
380.906	581.7
381.308	607.6
381.71	582
382.113	594.6
382.515	578.3
382.918	589.8
383.299	578.5
383.701	595.2
384.104	583
384.507	564.9
384.909	584.5
385.312	576
385.715	577.3
386.118	582.7
386.521	567.9
386.924	593.6
387.327	581
387.709	569.1
388.112	567.3
388.515	579.3
388.918	580.6
389.322	588.5
389.725	578
390.129	603.5
390.532	584.6
390.936	579.1
391.339	579.7
391.743	585.8
392.125	570.8
392.529	594.8
392.933	600.5
393.337	584.6
393.74	580.8
394.144	584.4
394.548	581.3
394.953	579.5
395.357	590
395.761	580.1
396.144	586.8
396.548	583.4
396.952	582.5
397.357	589.7
397.761	578.7
398.166	580.6
398.57	581.6
398.975	574.6
399.379	590.5
399.763	627
400.168	585.8
400.572	576.1
400.977	584.9
401.382	605.9
401.787	589.1
402.192	600
402.597	594.3
403.002	568.4
403.386	593.2
403.791	600.1
404.197	574.6
404.602	583.2
405.007	584.8
405.413	569.8
405.818	580.7
406.224	575.4
406.608	575
407.014	572.6
407.42	598.7
407.825	577.4
408.231	586.7
408.637	591.2
409.043	595.7
409.449	579.7
409.834	579.9
410.24	585.6
410.646	598
411.052	598.1
411.458	589.1
411.865	593.9
412.271	595.3
412.677	584.1
413.062	591.1
413.469	574.5
413.875	606.4
414.282	594.2
414.689	583.4
415.095	590.3
415.502	578.3
415.888	585.7
416.294	569
416.701	625.9
417.108	582.9
417.515	595.7
417.923	581.6
418.33	601.3
418.715	592.3
419.123	587.2
419.53	580.9
419.937	586.1
420.345	597.1
420.752	582.8
421.16	598.3
421.546	584.3
421.953	593.9
422.361	580.4
422.769	587
423.177	580.6
423.585	608.3
423.992	608.5
424.379	592.6
424.787	598.7
425.195	607.8
425.603	583.1
426.011	602.1
426.419	600.2
426.806	589.6
427.214	592
427.623	599.8
428.031	610.2
428.44	602
428.848	610
429.235	620.3
429.644	614.4
430.053	620.8
430.461	642.5
430.87	660.7
431.279	648.3
431.666	651
432.075	669.7
432.484	694.2
432.893	697.4
433.302	732.9
433.711	769.5
434.099	757
434.508	766.2
434.918	784.9
435.327	819.4
435.737	825
436.125	857.5
436.534	870.4
436.944	897.1
437.353	920.5
437.763	948.8
438.173	942.6
438.561	982.2
438.971	978.7
439.381	1017.8
439.791	1036
440.201	1043.6
440.589	1077.7
440.999	1097.2
441.409	1110.9
441.819	1104.4
442.23	1153.5
442.619	1159.4
443.029	1181.1
443.439	1188.7
443.85	1218.5
444.26	1232
444.649	1246.1
445.06	1256.4
445.471	1264.2
445.881	1272.3
446.292	1310.2
446.682	1308.9
447.092	1287.5
447.503	1353.5
447.914	1317.6
448.325	1338.1
448.715	1346.4
449.126	1356.6
449.537	1373.2
449.948	1382.6
450.338	1385.6
450.75	1398.5
451.161	1398.2
451.572	1402.1
451.984	1404.3
452.374	1392.3
452.786	1398.4
453.197	1420.2
453.609	1431.5
453.999	1422.1
454.411	1416.6
454.823	1452.5
455.235	1428.3
455.647	1437.8
456.037	1441
456.449	1419.7
456.862	1447.2
457.274	1435.7
457.665	1437.2
458.077	1443.3
458.489	1447.4
458.902	1425.4
459.293	1442.3
459.705	1453.7
460.118	1448.1
460.53	1447.6
460.921	1434.9
461.334	1449.4
461.747	1435.1
462.16	1451.3
462.551	1440.3
462.964	1431.9
463.377	1416.6
463.79	1416.8
464.182	1427.9
464.595	1423.1
465.008	1427.4
465.421	1420.9
465.813	1421
466.226	1426.1
466.64	1428
467.053	1459.2
467.445	1419.8
467.859	1415.7
468.272	1408.7
468.686	1400.6
469.078	1407.3
469.492	1391.6
469.906	1394.2
470.298	1395.8
470.712	1379.1
471.126	1412.8
471.54	1371.5
471.933	1368.1
472.347	1370.3
472.761	1362.8
473.175	1351.7
473.568	1357.8
473.982	1354.6
474.397	1357.9
474.79	1347.2
475.204	1365.4
475.619	1334.2
476.033	1341.7
476.426	1339.9
476.841	1332
477.256	1349.2
477.649	1327.8
478.064	1309.9
478.479	1309.8
478.872	1313.7
479.287	1299.9
479.702	1292.1
480.118	1296.5
480.511	1301.9
480.927	1291
481.342	1289.4
481.736	1288.3
482.151	1271.2
482.566	1287.2
482.96	1281.9
483.376	1273.6
483.792	1273.7
484.186	1272.2
484.602	1267.6
485.017	1270.4
485.412	1259.7
485.827	1254.8
486.243	1241.4
486.638	1264.6
487.054	1235.4
487.47	1244
487.865	1226.6
488.281	1212.2
488.697	1218.1
489.092	1217.5
489.508	1205.2
489.925	1218.4
490.32	1207.4
490.736	1205.1
491.153	1192.7
491.548	1197.2
491.964	1193
492.381	1171.5
492.776	1183.2
493.193	1167.8
493.61	1172.1
494.006	1157.4
494.422	1169.6
494.84	1142.5
495.235	1150.7
495.652	1134.7
496.069	1127.8
496.465	1116.7
496.883	1126.3
497.3	1145.1
497.696	1115.8
498.113	1110.3
498.509	1103
498.927	1086.2
499.344	1089.2
499.741	1084.7
500.158	1082.9
500.576	1084.1
500.973	1085.7
501.39	1065.7
501.787	1057.9
502.205	1059.6
502.623	1055.7
503.02	1054.1
503.438	1046.3
503.856	1043.8
504.253	1035.2
504.671	1040.1
505.068	1023.5
505.486	1025.3
505.905	1039
506.302	1020.9
506.72	1024.4
507.118	991.7
507.536	1002.7
507.955	996
508.352	1000.7
508.771	994.5
509.169	988.5
509.587	979.2
510.006	970.9
510.404	964.8
510.823	965.5
511.221	966.5
511.64	960.1
512.038	972.1
512.457	958.5
512.877	956.6
513.275	952.5
513.694	951.8
514.092	935.4
514.512	940.9
514.91	937.2
515.33	928.6
515.749	921
516.148	917.1
516.568	912.3
516.966	909.2
517.386	904.9
517.785	912.8
518.205	897
518.603	899.5
519.024	891
519.444	891.9
519.843	892.3
520.263	885.3
520.662	877
521.082	875.5
521.481	873.3
521.902	864.3
522.301	872.3
522.722	870.9
523.121	858.5
523.542	859.3
523.963	853.8
524.362	861.1
524.783	855.4
525.183	834.5
525.604	853.1
526.003	840.4
526.425	830.8
526.824	839.9
527.246	845.4
527.646	840
528.067	822
528.467	816.4
528.888	824.7
529.289	819.3
529.71	813.4
530.11	804.4
530.532	802
530.932	793.2
531.354	791.1
531.755	825.8
532.176	796.2
532.577	786.5
532.999	792.8
533.4	781
533.822	792.8
534.223	780.8
534.645	770.3
535.046	775
535.468	773.7
535.869	787.6
536.292	767.6
536.693	771.7
537.115	769.9
537.516	762.7
537.939	760.6
538.34	782.9
538.742	774.7
539.165	766.3
539.566	760.7
539.989	746.7
540.391	751
540.814	756.6
541.216	759.4
541.639	753.8
542.041	755.6
542.464	746.2
542.866	740.2
543.268	733.2
543.691	750.7
544.093	744.9
544.517	761.2
544.919	728.3
545.343	754
545.745	717.3
546.147	729.4
546.571	727.5
546.974	715.2
547.398	720.8
547.8	738.2
548.224	716.5
548.627	711
549.03	723.3
549.454	710.4
549.857	711.8
550.281	708.2
550.684	708
551.087	720.3
551.512	706.6
551.915	714.1
552.34	704
552.743	700.5
553.146	703.8
553.571	691.7
553.975	719.3
554.399	691.1
554.803	737.2
555.207	688.2
555.632	682.9
556.036	693.9
556.461	682.6
556.865	682.1
557.268	674.3
557.694	681.2
558.098	688.8
558.502	691.3
558.927	676.3
559.332	677.1
559.736	675.1
560.162	682
560.566	677.3
560.992	680.9
561.396	673.5
561.801	666.1
562.227	662.4
562.631	666.3
563.036	661.2
563.462	668.8
563.867	663.1
564.272	650.5
564.698	654.7
565.103	649.1
565.508	672
565.935	652.3
566.34	658.9
566.745	666.5
567.172	654.5
567.577	676.6
567.982	663.7
568.409	654.1
568.815	647.7
569.22	647.5
569.626	658.5
570.053	633
570.459	649
570.865	656.1
571.292	653.4
571.698	654.6
572.104	626.2
572.531	636.8
572.937	646.6
573.343	643.1
573.75	633.7
574.177	635.9
574.583	645.7
574.99	640.4
575.396	639.4
575.824	628.8
576.231	637.1
576.637	633.6
577.065	662.3
577.472	626.6
577.879	623.3
578.286	644.4
578.714	623.8
579.121	628.9
579.528	631.7
579.935	639
580.364	626.6
580.771	606.4
581.178	616.7
581.585	632.4
582.014	630.8
582.421	619.6
582.829	619.1
583.236	629
583.644	616.8
584.073	610.5
584.481	624.5
584.889	619.9
585.296	623.9
585.726	617.6
586.134	616.1
586.542	613.1
586.95	636.7
587.358	605.3
587.787	618.5
588.196	608.2
588.604	609
589.012	608.5
589.421	609.1
589.851	602
590.259	614.4
590.668	604.2
591.076	641.3
591.485	604.7
591.894	605.1
592.324	621.6
592.733	616.4
593.142	590
593.551	604.3
593.96	635.8
594.369	597.6
594.8	598.4
595.209	604
595.618	594.6
596.028	596.4
596.437	586.7
596.847	601.7
597.256	600.7
597.687	601.9
598.097	602.9
598.507	588
598.917	602.5
599.327	602.9
599.736	600.8
600.146	604.4
600.556	596.1
600.988	608.9
601.398	591.9
601.808	605
602.219	588.4
602.629	591.8
603.039	591.1
603.45	619.4
603.86	588.1
604.271	604.9
604.703	589.2
605.114	587.2
605.525	588.1
605.935	593.5
606.346	606.3
606.757	591.8
607.168	593.8
607.579	583.1
607.99	596.2
608.402	585.2
608.813	584.9
609.224	582.4
609.636	581.2
610.047	582.1
610.48	585.9
610.892	600.5
611.303	597
611.715	582
612.127	574.5
612.539	584.6
612.95	589.7
613.362	578.6
613.774	578.3
614.186	578.2
614.599	585.5
615.011	592.2
615.423	576.8
615.835	575.4
616.248	577.8
616.66	585
617.073	576.3
617.485	581.4
617.898	591.1
618.311	583.9
618.723	587.4
619.136	609.5
619.549	597.3
619.962	607.9
620.375	579.1
620.788	592.1
621.201	575.7
621.614	585.1
622.028	576.4
622.441	583.8
622.854	599.5
623.268	569.9
623.681	584.1
624.095	582.8
624.509	588.3
624.922	592.5
625.336	572.3
625.728	582.1
626.142	591.1
626.556	596.4
626.97	586.3
627.384	577.2
627.799	584.9
628.213	586.3
628.627	580.1
629.041	575
629.456	577.5
629.87	580.3
630.285	588.2
630.699	584.7
631.093	572
631.507	585.6
631.922	587.7
632.337	583.6
632.752	570
633.167	582.1
633.582	576
633.997	580
634.412	577.1
634.806	578.9
635.221	563.8
635.637	591.2
636.052	569
636.468	578.7
636.883	595.3
637.299	571.8
637.715	562.4
638.109	578.4
638.525	567.2
638.941	587.9
639.357	581.4
639.773	585.7
640.189	569.7
640.584	570.4
641	574.1
641.416	566.2
641.832	571.6
642.249	568
642.665	574.3
643.06	573.7
643.477	576.9
643.894	562.7
644.31	571.2
644.727	568
645.123	565.8
645.54	565.5
645.957	577.1
646.374	571.9
646.77	574.6
647.187	596.9
647.604	570.2
648.021	556.5
648.439	555.5
648.835	572.3
649.252	572.4
649.67	567.1
650.088	566.1
650.484	574.2
650.902	573.3
651.32	579.8
651.738	567.6
652.134	573.1
652.552	584.8
652.971	574.3
653.389	564.7
653.786	583.7
654.204	572.7
654.622	566.7
655.019	573.4
655.438	579.7
655.857	571.9
656.275	575.8
656.673	571.8
657.091	643.8
657.51	559.6
657.908	573.8
658.327	581.1
658.746	555.3
659.144	562.1
659.563	582.5
659.982	570.1
660.38	554.2
660.8	571.1
661.219	580.4
661.617	581.4
662.037	568.9
662.457	576
662.855	562.1
663.275	599.6
663.695	568.7
664.094	564.7
664.514	568.3
664.934	563
665.333	571.6
665.753	566.1
666.152	554.2
666.572	555.2
666.993	580.8
667.392	566
667.812	570.3
668.212	566.1
668.632	578.5
669.053	564.6
669.453	571.3
669.874	567
670.273	572.1
670.694	561.4
671.116	573.6
671.515	577.8
671.937	558.1
672.337	558.3
672.758	567.5
673.158	576.2
673.58	560.3
673.98	570
674.402	575.5
674.824	563.2
675.224	562.4
675.646	558.3
676.047	566.2
676.469	563.3
676.869	573.1
677.292	568
677.693	558.5
678.115	565.7
678.516	569
678.939	573.7
679.34	564.4
679.762	579.2
680.164	564.8
680.586	557
680.988	570.8
681.411	587.7
681.812	560
682.236	559.4
682.637	558.4
683.061	555.9
683.462	568.4
683.864	566.5
684.288	568.3
684.69	556.8
685.114	576.2
685.516	577.6
685.94	554.9
686.342	576.3
686.766	560.7
687.168	563.5
687.571	588
687.995	561.3
688.398	555.2
688.822	563.7
689.225	577.3
689.628	587.9
690.052	560.4
690.456	566.4
690.88	569
691.284	555.7
691.687	569
692.112	553.3
692.515	560.5
692.919	563.5
693.344	570.1
693.747	559.2
694.173	560.9
694.577	575.8
694.98	561.3
695.406	563.3
695.81	564.4
696.214	571.9
696.64	567.6
697.044	566.7
697.448	577.1
697.874	561.9
698.279	561.9
698.684	546.8
699.11	556
699.514	562.5
699.919	561.4
700.324	553.1
700.75	568.7
701.156	561.7
701.561	573.6
701.987	571.8
702.393	568.2
702.798	580
703.203	559.1
703.63	559.2
704.036	559.5
704.442	565.9
704.847	553.5
705.274	561.8
705.68	567.3
706.086	570.1
706.492	548.2
706.92	554.4
707.326	573.8
707.732	561.2
708.139	551.9
708.545	548.9
708.973	552.3
709.38	557.5
709.786	549.9
710.193	572
710.6	563.5
711.028	550.6
711.435	561.5
711.842	559.1
712.249	557.1
712.656	559.8
713.064	566.7
713.492	557.6
713.9	557.4
714.307	565.3
714.715	556.3
715.123	562.1
715.53	563.9
715.938	569.4
716.367	563.3
716.775	560.1
717.184	551.5
717.592	563.5
718	571.7
718.408	598.2
718.816	606.8
719.225	564.3
719.633	560.2
720.042	555.7
720.472	561
720.881	577.3
721.29	566.2
721.699	553.3
722.108	561.9
722.517	563.3
722.926	560.5
723.335	570.9
723.744	560.9
724.154	564.3
724.563	559.9
724.973	566.1
725.382	567.3
725.792	553
726.202	560.8
726.612	569.7
727.022	554.7
727.432	553.1
779.813	560.3
780.223	604.7
780.634	557
781.044	556.5
781.454	564.3
781.865	579.1
782.276	558.3
782.686	567
783.097	567.2
783.508	561.6
783.919	561.3
784.33	576.5
784.741	577.6
785.152	557.4
785.563	551.5
785.974	555
786.386	568.3
786.776	555.3
787.188	557.6
787.599	551.7
788.011	558.7
788.423	561.1
788.835	561.5
789.247	549.6
789.659	553.8
790.071	553
790.483	593.6
790.874	553.4
791.286	562.2
791.699	558.1
792.111	555.7
792.524	559.4
792.937	557.4
793.349	551.6
793.741	554.3
794.154	555
794.567	579.9
794.98	551
795.393	545.2
795.785	571.8
796.198	551.4
796.612	556.7
797.026	555.1
797.439	541.4
797.831	553.4
798.245	544.6
798.659	555.4
799.073	549.9
799.487	547.5
799.88	559.6
800.294	556.9
800.708	562.1
801.123	554.8
801.516	577.6
801.93	547.9
802.345	549.6
802.76	556.2
803.153	563.9
803.568	568.1
803.983	568.1
804.377	566.7
804.792	541.2
805.207	546.6
805.601	556.6
806.016	585
806.432	552.6
806.826	589.2
807.242	570.7
807.658	565.5
808.052	554.5
808.468	554.1
808.884	550
809.279	552.4
809.695	568.4
810.111	572.8
810.506	557.1
810.922	578
811.339	549.7
811.734	563.6
812.151	555.1
812.546	553.3
812.963	558.3
813.38	562.7
813.776	557.6
814.193	580.5
814.589	552.6
815.006	558.5
815.402	553.2
815.82	555
816.237	559.7
816.633	560.6
817.051	551
817.448	558.1
817.866	548.5
818.262	572.8
818.68	553.1
819.077	555.9
819.495	556.4
819.892	597.2
820.311	552.1
820.708	554.4
821.127	555.4
821.524	564.6
821.943	557.6
822.34	577.7
822.759	561.2
823.157	555.5
823.576	568.4
823.974	565.7
824.393	564.2
824.791	553.2
825.189	556.1
825.609	555.1
826.007	560.9
826.427	541
826.826	554.2
827.246	563.4
827.644	545.2
828.043	567.6
828.463	550.5
828.862	563.8
829.261	563.2
829.682	550.5
830.081	565.4
830.502	549.5
830.901	557.3
831.301	548.3
831.722	548.1
832.121	560
832.521	554.6
832.943	555.1
833.342	555.3
833.742	543.5
834.164	556.4
834.564	546.7
834.965	552.4
835.386	552.2
835.787	555.5
836.188	554.8
836.588	560.4
837.01	550
837.411	544.6
837.812	561.7
838.213	554.2
838.636	551.3
839.037	620.6
839.438	556.4
839.84	560.3
840.263	560.6
840.664	562.9
841.066	555.7
841.468	559.5
841.891	549.3
842.293	560.1
842.695	554
843.098	565.6
