#lambda/nm	C1
208.295	473.4
208.67	439
209.045	404.7
209.419	406.5
209.794	599.1
210.169	571.5
210.544	696.4
210.919	593.9
211.295	580.4
211.67	599.1
212.045	587.3
212.421	587.1
212.796	628.2
213.172	586.9
213.547	590.5
213.923	586.2
214.299	584.1
214.675	597.2
215.051	590.2
215.427	593.6
215.803	607.3
216.179	597.4
216.555	586.4
216.932	597.4
217.308	591.9
217.684	584.4
218.061	596.9
218.438	595.5
218.814	582.2
219.191	603.6
219.568	578
219.945	589.2
220.322	597.1
220.699	599.3
221.076	599.5
221.453	597.9
221.83	582.5
222.208	586.8
222.585	585.3
222.962	591.9
223.34	591.8
223.717	593.7
224.095	586.2
224.473	591.7
224.851	585.7
225.229	584.3
225.607	601.4
225.985	579
226.363	594.5
226.741	588.5
227.119	588.2
227.497	607
227.876	575.2
228.254	598.5
228.633	595.4
229.011	594.5
229.39	595.3
229.769	590.6
230.148	595.3
230.527	612.4
230.905	595.6
231.284	592.3
231.664	586.5
232.043	599.1
232.422	600.1
232.801	585.9
233.181	595
233.56	585.9
233.94	593.6
234.319	583.4
234.699	586.6
235.079	627.1
235.458	625.4
235.838	607.5
236.218	589.9
236.598	586.5
236.978	583.1
237.358	584.8
237.738	592.4
238.119	591.8
238.499	579.1
238.88	586.1
239.26	606.1
239.641	580.2
240.021	586.5
240.402	586.8
240.783	589.7
241.163	584.5
241.544	594.1
241.925	586.2
242.306	604.2
242.687	580.8
243.069	593.7
243.45	596.2
243.831	579.1
244.212	592.3
244.594	625.2
244.975	603.7
245.357	592.6
245.739	581.3
246.12	587.7
246.502	605.5
246.884	583.4
247.266	590.2
247.648	594.7
248.03	617
248.412	596.2
248.794	593.9
249.176	590.3
249.559	602.9
249.941	580.9
250.323	581.2
250.706	582.6
251.089	593.3
251.471	592.8
251.854	591.2
252.237	588.1
252.62	594.1
253.002	593.3
253.385	593.9
253.769	603.9
254.152	589.5
254.535	592.7
254.918	577.9
255.301	593.5
255.685	589.2
256.068	591.4
256.452	617.5
256.835	594
257.219	601.6
257.603	597.6
257.986	583.7
258.37	599.7
258.754	585.3
259.138	593.4
259.522	598
259.906	589.9
260.29	591
260.675	588.9
261.059	590.6
261.443	581.7
261.828	595.9
262.212	600.6
262.597	582.2
262.981	590
263.366	600.4
263.751	597.5
264.136	588.8
264.521	592.3
264.906	580.1
265.291	594.2
265.676	587.2
266.061	596.7
266.446	608.9
266.831	593.7
267.217	614.1
267.602	597
267.987	597.8
268.373	588.1
268.759	604.6
269.144	595.1
269.53	589.3
269.916	585.6
270.302	586.1
270.688	594.9
271.074	590.8
271.46	601.5
271.846	620.6
272.232	589.9
272.618	590.8
273.004	590.8
273.391	609.3
273.777	599.4
274.164	594.8
274.55	605.7
274.937	591
275.324	586.8
275.71	597.9
276.097	599.9
276.484	588.2
276.871	589.4
277.258	601.7
277.645	580.6
278.032	588.4
278.419	586.4
278.807	597.9
279.194	578.5
279.581	584.7
279.969	596.9
280.356	596.2
280.744	590.2
281.131	618
281.519	605.6
281.907	587.8
282.295	588.8
282.682	609.4
283.07	594.8
283.458	605.9
283.846	608.6
284.235	601
284.623	601.4
285.011	578.5
285.399	590.1
285.788	592.6
286.176	582.6
286.565	603.4
286.953	584.3
287.342	595.1
287.731	585.4
288.119	586.1
288.508	591.3
288.897	584.7
289.286	587.2
289.675	594.8
290.064	603.9
290.453	589.2
290.821	593.9
291.21	608.2
291.599	592.5
291.989	593.4
292.378	602.6
292.768	612
293.157	602.1
293.547	603.4
293.936	587.4
294.326	590.3
294.716	597.7
295.106	590
295.496	602
295.886	600.5
296.276	591.1
296.666	585.5
297.056	589.2
297.446	582.4
297.836	608.9
298.227	593.1
298.617	593.2
299.008	608.9
299.398	589.9
299.789	586.5
300.179	597.1
300.57	602.2
300.961	585.8
301.352	592.2
301.742	603.8
302.133	596.6
302.524	593.5
302.915	594.4
303.307	586.3
303.698	598.1
304.089	597.9
304.48	593.4
304.872	599.1
305.263	596.9
305.655	587.9
306.046	599.3
306.438	596.9
306.829	589.9
307.221	604.8
307.613	597.5
308.005	603.3
308.397	606.7
308.789	616.9
309.181	620
309.573	608.7
309.965	603.8
310.357	594.5
310.749	592.2
311.142	589.4
311.534	586.5
311.926	597
312.319	591.6
312.711	587.4
313.104	605.8
313.497	594.5
313.889	630.5
314.282	604.5
314.675	617.5
315.068	597.7
315.461	601.3
315.854	628
316.247	601.2
316.64	591.7
317.033	590
317.405	603.7
317.798	591.2
318.192	601.3
318.585	582.7
318.979	602.6
319.372	585.4
319.766	594.4
320.16	610.5
320.553	610.2
320.947	616.8
321.341	590.1
321.735	593.3
322.129	583.2
322.523	618.5
322.917	585.8
323.311	599.4
323.705	592.7
324.099	600.2
324.494	608.4
324.888	601.6
325.282	595.1
325.677	596.8
326.071	601.5
326.466	604.4
326.861	595.3
327.255	598.7
327.65	604.6
328.045	614.2
328.44	593.7
328.835	589.9
329.23	586.7
329.625	616.1
330.02	585.5
330.415	620.3
330.81	594.2
331.206	595.6
331.601	589.4
331.996	593.6
332.37	603.8
332.766	581.6
333.161	611
333.557	587.3
333.953	589
334.348	1038.3
334.744	597.4
335.14	585.3
335.536	590.5
335.932	604.1
336.328	584.2
336.724	602.3
337.12	596.8
337.516	596.9
337.913	593.6
338.309	608.2
338.705	591.1
339.102	599.1
339.498	588.3
339.895	604.7
340.291	584.8
340.688	595.9
341.085	582.2
341.481	592.4
341.878	588.6
342.275	612.7
342.672	581
343.069	586
343.466	576.1
343.842	602.8
344.239	588.9
344.636	592.4
345.033	583.7
345.431	583.8
345.828	592.4
346.225	583.3
346.623	602.6
347.02	593.4
347.418	602.4
347.816	605.3
348.213	581.6
348.611	598.6
349.009	582.9
349.407	602
349.805	577.9
350.203	577.5
350.601	601
350.999	591.5
351.397	576.6
351.795	586.2
352.193	597.7
352.57	598.7
352.969	608
353.367	578.8
353.766	585.7
354.164	591.5
354.563	597.1
354.961	591.9
355.36	589.1
355.759	590.9
356.158	578.6
356.557	582.7
356.956	580.4
357.355	574.9
357.754	595.7
358.153	596
358.552	609.2
358.951	587.1
359.35	603.6
359.75	587.7
360.149	579.4
360.527	571.2
360.926	577.4
361.326	586.5
361.726	587.4
362.125	583.2
362.525	598.1
362.925	583.5
363.325	587
363.724	584.7
364.124	588.3
364.524	577.1
364.924	591.1
365.324	594.1
365.725	575
366.125	591.7
366.525	587.8
366.904	583
367.304	572.4
367.705	602.4
368.105	599.8
368.506	584
368.906	587
369.307	584.2
369.708	592
370.108	573.3
370.509	595.1
370.91	581
371.311	590.6
371.712	590.4
372.113	589.9
372.514	572.9
372.894	582.4
373.295	583.5
373.696	594.2
374.097	593.5
374.499	613.5
374.9	591.7
375.301	579
375.703	590.2
376.105	578.2
376.506	584.8
376.908	591.3
377.309	584.5
377.711	586.8
378.113	583.8
378.493	587.4
378.895	582.3
379.297	594
379.699	575.8
380.102	589
380.504	586.8
380.906	580.1
381.308	608.4
381.71	584.3
382.113	596.4
382.515	577.9
382.918	587.9
383.299	580.9
383.701	593.4
384.104	587.5
384.507	576.1
384.909	583.5
385.312	574.3
385.715	578.5
386.118	586.5
386.521	575.5
386.924	595.6
387.327	582.8
387.709	575.7
388.112	571.3
388.515	585.6
388.918	587.3
389.322	587.2
389.725	579.4
390.129	607.2
390.532	590.3
390.936	581.9
391.339	578.6
391.743	582.8
392.125	579.5
392.529	597
392.933	599.3
393.337	581.1
393.74	584
394.144	587.9
394.548	577.6
394.953	580.2
395.357	593.5
395.761	578.7
396.144	591.4
396.548	584
396.952	583.4
397.357	587.3
397.761	584.1
398.166	580.4
398.57	577.8
398.975	575.9
399.379	589.8
399.763	634.5
400.168	586.6
400.572	585
400.977	584.8
401.382	601.2
401.787	589.4
402.192	596.4
402.597	600.7
403.002	571.8
403.386	590.7
403.791	599.7
404.197	576.7
404.602	584
405.007	590.4
405.413	582.1
405.818	579.1
406.224	576.7
406.608	577.9
407.014	575
407.42	602
407.825	575.8
408.231	592.8
408.637	584.8
409.043	600.6
409.449	579.1
409.834	578
410.24	582.6
410.646	598.2
411.052	597.5
411.458	592
411.865	595.1
412.271	593.6
412.677	583.8
413.062	590.2
413.469	577.4
413.875	611
414.282	601.7
414.689	588.7
415.095	590
415.502	585.3
415.888	582.1
416.294	569.4
416.701	626.3
417.108	581.9
417.515	596.1
417.923	581.4
418.33	604.3
418.715	597
419.123	581.8
419.53	581.4
419.937	584.1
420.345	596.4
420.752	581.5
421.16	599.4
421.546	588.8
421.953	592.9
422.361	576.4
422.769	582.1
423.177	582.3
423.585	607.5
423.992	607.3
424.379	598.9
424.787	594.2
425.195	608.1
425.603	583.6
426.011	595
426.419	600.3
426.806	590.8
427.214	593.4
427.623	594.1
428.031	603.8
428.44	589.6
428.848	601.6
429.235	600.8
429.644	596.7
430.053	584.3
430.461	599.4
430.87	612.2
431.279	596
431.666	584.1
432.075	588.5
432.484	589.9
432.893	586.5
433.302	607.4
433.711	629.2
434.099	588.9
434.508	582.3
434.918	576.3
435.327	596.5
435.737	583.3
436.125	587.3
436.534	587.4
436.944	592.4
437.353	592.6
437.763	613.5
438.173	585.3
438.561	594.5
438.971	575.4
439.381	591.7
439.791	594.7
440.201	574.3
440.589	595
440.999	600.4
441.409	591.8
441.819	585.1
442.23	603.1
442.619	600.2
443.029	596.3
443.439	594.9
443.85	609.8
444.26	613
444.649	605.7
445.06	602.8
445.471	595.5
445.881	595
446.292	616.7
446.682	628.8
447.092	586.7
447.503	643.2
447.914	600.6
448.325	599.7
448.715	609.3
449.126	592.9
449.537	601.8
449.948	601.5
450.338	602.9
450.75	606.8
451.161	608.7
451.572	605
451.984	603.5
452.374	589.1
452.786	603
453.197	605.3
453.609	609.1
453.999	597
454.411	590.9
454.823	614.8
455.235	605.6
455.647	600.6
456.037	606.6
456.449	592.4
456.862	609.6
457.274	609.1
457.665	601.6
458.077	613.6
458.489	621.7
458.902	602.9
459.293	612.6
459.705	604.9
460.118	601.3
460.53	613.2
460.921	606.8
461.334	612.9
461.747	602.2
462.16	621.7
462.551	618
462.964	612.2
463.377	591.6
463.79	603.2
464.182	616.4
464.595	598.4
465.008	603.2
465.421	607.8
465.813	601
466.226	613.8
466.64	594.3
467.053	645.2
467.445	616.7
467.859	602.3
468.272	606
468.686	614.4
469.078	601.3
469.492	595
469.906	602.3
470.298	608.7
470.712	594.6
471.126	637.2
471.54	587.7
471.933	594
472.347	601.1
472.761	590.5
473.175	592.2
473.568	596
473.982	595
474.397	602.1
474.79	609.6
475.204	609.5
475.619	601.5
476.033	604.2
476.426	601.4
476.841	600.9
477.256	626.7
477.649	596.6
478.064	593.4
478.479	589.7
478.872	593.1
479.287	583.2
479.702	588.4
480.118	594.3
480.511	598.9
480.927	585.6
481.342	598.2
481.736	602.8
482.151	595.6
482.566	603.7
482.96	602.1
483.376	613
483.792	587.5
484.186	607.5
484.602	598.4
485.017	597.7
485.412	594.8
485.827	607.4
486.243	597.4
486.638	621.3
487.054	603.6
487.47	611.5
487.865	601.2
488.281	593.3
488.697	590.9
489.092	598.5
489.508	589.4
489.925	606.9
490.32	585.9
490.736	604
491.153	600
491.548	598.3
491.964	604.1
492.381	586.5
492.776	597.3
493.193	602.7
493.61	600.6
494.006	596.9
494.422	600.3
494.84	587.9
495.235	606.5
495.652	593.1
496.069	598.8
496.465	578.9
496.883	586.3
497.3	613.1
497.696	588.7
498.113	595.8
498.509	581.9
498.927	587.1
499.344	586.1
499.741	586.5
500.158	603.8
500.576	600.5
500.973	588.5
501.39	581.2
501.787	582.7
502.205	593.4
502.623	581.7
503.02	581.7
503.438	586.9
503.856	587.7
504.253	598.7
504.671	591
505.068	584.8
505.486	586
505.905	607.2
506.302	596.5
506.72	598.9
507.118	580.5
507.536	585.1
507.955	586
508.352	586.8
508.771	593.9
509.169	589.2
509.587	583.6
510.006	584.7
510.404	574.3
510.823	578.8
511.221	582.7
511.64	579.5
512.038	599.7
512.457	583
512.877	581.8
513.275	577.4
513.694	582.6
514.092	579.8
514.512	588.6
514.91	585.4
515.33	580.2
515.749	583.4
516.148	588.7
516.568	587.1
516.966	578.9
517.386	575.8
517.785	580.3
518.205	579.5
518.603	579.4
519.024	575.2
519.444	585.8
519.843	592
520.263	586.9
520.662	584.2
521.082	579.7
521.481	584.6
521.902	582.6
522.301	579.2
522.722	580.6
523.121	584.1
523.542	575
523.963	576.4
524.362	586.7
524.783	579.5
525.183	579.2
525.604	588.5
526.003	571.7
526.425	569.7
526.824	585.7
527.246	588.2
527.646	585.5
528.067	578.7
528.467	579.5
528.888	581.7
529.289	578.5
529.71	585.6
530.11	568.3
530.532	576.4
530.932	574
531.354	571.1
531.755	607.2
532.176	588.8
532.577	570.5
532.999	583.7
533.4	571.8
533.822	590.5
534.223	579.6
534.645	575.5
535.046	572.6
535.468	581.9
535.869	587.6
536.292	566.6
536.693	574.2
537.115	577.6
537.516	572.4
537.939	573.2
538.34	595.3
538.742	589.6
539.165	576.8
539.566	574.6
539.989	574.7
540.391	575.5
540.814	576.5
541.216	577.1
541.639	577.7
542.041	588.1
542.464	577.4
542.866	569.1
543.268	563.7
543.691	572.9
544.093	578.6
544.517	594.5
544.919	564.2
545.343	596.2
545.745	565.2
546.147	580.8
546.571	571.2
546.974	566.4
547.398	573.8
547.8	585.7
548.224	572.8
548.627	569.5
549.03	580.6
549.454	568.2
549.857	562
550.281	565.1
550.684	570.1
551.087	585.8
551.512	582.3
551.915	581.5
552.34	586.8
552.743	568.7
553.146	577.2
553.571	573.6
553.975	598.1
554.399	569.1
554.803	620.3
555.207	574.9
555.632	573
556.036	579.3
556.461	562.8
556.865	573.9
557.268	567.2
557.694	569.2
558.098	574.9
558.502	581.9
558.927	571.7
559.332	572.8
559.736	572.3
560.162	578.9
560.566	571.9
560.992	581
561.396	573.4
561.801	569.2
562.227	578.9
562.631	566
563.036	571.7
563.462	580.2
563.867	571.7
564.272	563.5
564.698	575.3
565.103	566.1
565.508	591.8
565.935	571.4
566.34	576.3
566.745	584.3
567.172	571
567.577	596.3
567.982	586.1
568.409	576.7
568.815	566.8
569.22	577
569.626	575.8
570.053	562.6
570.459	572.4
570.865	576.8
571.292	578.2
571.698	574
572.104	570.4
572.531	566.2
572.937	579
573.343	569.1
573.75	572.6
574.177	579.1
574.583	574.3
574.99	570.1
575.396	577.6
575.824	571.1
576.231	572.6
576.637	568.9
577.065	597.3
577.472	573.4
577.879	569.7
578.286	586.4
578.714	566.8
579.121	573.4
579.528	577.6
579.935	582.1
580.364	571
580.771	555.1
581.178	567.5
581.585	573.8
582.014	581.6
582.421	568.2
582.829	568
583.236	577.2
583.644	567
584.073	563.6
584.481	574.5
584.889	565.8
585.296	580.4
585.726	569.2
586.134	565.7
586.542	566
586.95	587.6
587.358	561.4
587.787	575.4
588.196	562.7
588.604	565.8
589.012	574
589.421	564.5
589.851	561.9
590.259	569.8
590.668	567.6
591.076	608.3
591.485	560.3
591.894	568.9
592.324	586.7
592.733	584.5
593.142	560.4
593.551	566.3
593.96	579.1
594.369	559.5
594.8	554.2
595.209	570.8
595.618	555.8
596.028	563.8
596.437	555.7
596.847	570.1
597.256	571.8
597.687	573.1
598.097	570.7
598.507	558.2
598.917	575.4
599.327	569.2
599.736	570.5
600.146	575.6
600.556	565.8
600.988	575.7
601.398	568.6
601.808	577.6
602.219	557.8
602.629	566.6
603.039	577.8
603.45	599.8
603.86	567.4
604.271	582.5
604.703	568.8
605.114	565.8
605.525	571.7
605.935	576.4
606.346	588.1
606.757	574.3
607.168	564.9
607.579	565.5
607.99	579.8
608.402	570
608.813	569.4
609.224	560.4
609.636	553.3
610.047	562.2
610.48	571
610.892	576.7
611.303	579.9
611.715	565.8
612.127	559.1
612.539	560.9
612.95	570
613.362	557.1
613.774	553.8
614.186	564.1
614.599	565
615.011	568.5
615.423	558.5
615.835	559.4
616.248	549.2
616.66	569.3
617.073	555.8
617.485	562.5
617.898	567.8
618.311	566.6
618.723	563.5
619.136	595
619.549	580.9
619.962	586.2
620.375	563.9
620.788	573.9
621.201	566.1
621.614	570.6
622.028	561.6
622.441	568
622.854	583
623.268	558.6
623.681	572
624.095	565.1
624.509	574.4
624.922	570.3
625.336	558.8
625.728	565
626.142	574.3
626.556	579.7
626.97	571.5
627.384	562.3
627.799	561.2
628.213	574.2
628.627	564.7
629.041	560.1
629.456	564.7
629.87	569.6
630.285	578.8
630.699	572.3
631.093	566.8
631.507	567.4
631.922	565.9
632.337	575.1
632.752	555.9
633.167	565.2
633.582	569.5
633.997	563.7
634.412	561.4
634.806	569
635.221	558.3
635.637	577.1
636.052	558.9
636.468	570.5
636.883	581.1
637.299	564.1
637.715	554
638.109	563.3
638.525	558.1
638.941	573
639.357	570
639.773	571
640.189	561.7
640.584	563.5
641	570.5
641.416	552
641.832	563.6
642.249	555.6
642.665	564.5
643.06	566.5
643.477	577
643.894	558.1
644.31	563.6
644.727	564.8
645.123	563.6
645.54	559.2
645.957	571.7
646.374	569.9
646.77	569.6
647.187	595.5
647.604	564
648.021	553.9
648.439	559.6
648.835	568
649.252	565.6
649.67	560.3
650.088	567.2
650.484	571.3
650.902	572.7
651.32	578.2
651.738	562.9
652.134	569.9
652.552	581.8
652.971	572.1
653.389	564.4
653.786	578.1
654.204	570.2
654.622	563.1
655.019	561.2
655.438	571.3
655.857	559.9
656.275	564.4
656.673	562
657.091	631.6
657.51	557
657.908	574.5
658.327	581.1
658.746	552
659.144	562.1
659.563	579.2
659.982	565.5
660.38	560.4
660.8	564.7
661.219	575.5
661.617	572.2
662.037	564
662.457	574
662.855	550.2
663.275	604.2
663.695	565.2
664.094	562.1
664.514	567.4
664.934	558.2
665.333	570.2
665.753	561
666.152	554.5
666.572	553.1
666.993	579.4
667.392	560.9
667.812	561.2
668.212	564.3
668.632	573.6
669.053	558.4
669.453	573.2
669.874	567.1
670.273	565.5
670.694	559.8
671.116	574.9
671.515	574.1
671.937	563.6
672.337	558.8
672.758	558
673.158	576.7
673.58	551.2
673.98	563
674.402	577.2
674.824	564.4
675.224	558.9
675.646	551.5
676.047	557.5
676.469	563.7
676.869	570
677.292	564.8
677.693	557.8
678.115	558.9
678.516	565.5
678.939	566.3
679.34	562.9
679.762	577.4
680.164	572
680.586	555.6
680.988	567.4
681.411	592.7
681.812	564.5
682.236	557.7
682.637	557
683.061	549.5
683.462	564.7
683.864	557.1
684.288	567.2
684.69	553.3
685.114	572.9
685.516	571.2
685.94	555.5
686.342	573.7
686.766	557.6
687.168	555.9
687.571	578.1
687.995	561.4
688.398	552.4
688.822	561.2
689.225	582.1
689.628	581.1
690.052	559.7
690.456	565.4
690.88	569.8
691.284	555.3
691.687	563
692.112	550.7
692.515	553.2
692.919	558.9
693.344	567.5
693.747	562.1
694.173	555.5
694.577	570
694.98	558.8
695.406	552.2
695.81	573.3
696.214	568.5
696.64	562.8
697.044	566
697.448	572
697.874	557.6
698.279	559.7
698.684	552.7
699.11	556.3
699.514	558.8
699.919	558.8
700.324	557.9
700.75	566
701.156	563
701.561	574.3
701.987	569.7
702.393	570.8
702.798	578.1
703.203	560.3
703.63	558.9
704.036	562
704.442	562.8
704.847	551.3
705.274	561.9
705.68	567.3
706.086	566.5
706.492	546.9
706.92	555.2
707.326	568.6
707.732	563.4
708.139	553.5
708.545	551.9
708.973	554.8
709.38	561.7
709.786	549.8
710.193	573.7
710.6	558
711.028	552.5
711.435	563
711.842	561
712.249	557.8
712.656	560.9
713.064	569.6
713.492	552.2
713.9	557.1
714.307	560.2
714.715	558.9
715.123	559.6
715.53	563.7
715.938	573.3
716.367	564.5
716.775	552.9
717.184	551.3
717.592	557
718	568.1
718.408	590.4
718.816	603.2
719.225	561.8
719.633	556.4
720.042	550.9
720.472	556.7
720.881	581.3
721.29	562.7
721.699	553.5
722.108	563.6
722.517	565
722.926	563.7
723.335	571.1
723.744	560.8
724.154	561.5
724.563	559.3
724.973	567.3
725.382	559.2
725.792	554.6
726.202	553.5
726.612	570.1
727.022	562.2
727.432	555.4
779.813	553.6
780.223	597
780.634	564.2
781.044	557.4
781.454	563.2
781.865	574.2
782.276	555.3
782.686	579.1
783.097	561.1
783.508	557.4
783.919	569.9
784.33	572.9
784.741	566
785.152	552.6
785.563	552.5
785.974	554.6
786.386	572.9
786.776	567.3
787.188	556.6
787.599	555.7
788.011	563.1
788.423	565.5
788.835	557.1
789.247	551.3
789.659	553.8
790.071	561.5
790.483	602.9
790.874	558.4
791.286	567.8
791.699	556.9
792.111	560
792.524	562.4
792.937	558
793.349	546
793.741	550.5
794.154	548.7
794.567	579.5
794.98	560.9
795.393	549.2
795.785	577
796.198	559.3
796.612	551.6
797.026	556.5
797.439	538
797.831	559
798.245	551
798.659	555.7
799.073	561.3
799.487	550.7
799.88	555.9
800.294	561.4
800.708	566.9
801.123	559.9
801.516	577.3
801.93	548.5
802.345	540.4
802.76	558
803.153	573
803.568	571.6
803.983	568.9
804.377	560.9
804.792	547.5
805.207	542.4
805.601	559.7
806.016	595
806.432	551.9
806.826	590
807.242	575
807.658	560
808.052	556.3
808.468	553.8
808.884	560.4
809.279	557
809.695	576
810.111	581.5
810.506	567.9
810.922	575.4
811.339	558.1
811.734	565.1
812.151	556.6
812.546	550.3
812.963	555.2
813.38	561
813.776	564.7
814.193	583.1
814.589	559.2
815.006	559.7
815.402	558.1
815.82	560
816.237	559.7
816.633	563
817.051	550.9
817.448	557.5
817.866	553.4
818.262	578.8
818.68	555.5
819.077	557.5
819.495	557.9
819.892	594
820.311	563.5
820.708	548.9
821.127	556.1
821.524	567.6
821.943	558.6
822.34	575.2
822.759	561.5
823.157	561.4
823.576	569.5
823.974	566.5
824.393	568.5
824.791	558.3
825.189	555.7
825.609	558.7
826.007	563
826.427	545
826.826	557.3
827.246	559.7
827.644	547.4
828.043	568
828.463	555
828.862	566.3
829.261	569.3
829.682	547.3
830.081	564.3
830.502	552.4
830.901	560.6
831.301	554.4
831.722	547.3
832.121	561.5
832.521	557.5
832.943	556.2
833.342	552.7
833.742	547.7
834.164	557.9
834.564	555.2
834.965	556.3
835.386	553.7
835.787	557.7
836.188	557.9
836.588	558.3
837.01	557.5
837.411	555
837.812	559.1
838.213	557.1
838.636	556.3
839.037	618.9
839.438	561.1
839.84	555.7
840.263	563.9
840.664	562.6
841.066	559.7
841.468	557.9
841.891	553
842.293	566.6
842.695	571.1
843.098	568.4
843.5	552.3
843.902	559.5
844.326	554.5
844.729	558.4
845.131	573.7
845.534	563.9
845.937	563.3
846.34	573.8
846.764	547
847.167	561.6
847.571	548.9
847.974	555.4
848.377	551.3
848.781	599.4
