#lambda/nm	C1
208.295	471.8
208.67	440
209.045	399.2
209.419	406.5
209.794	589.5
210.169	569.7
210.544	695.2
210.919	590.8
211.295	577.4
211.67	589
212.045	581.2
212.421	586.7
212.796	620.4
213.172	583.6
213.547	588.4
213.923	587.3
214.299	580.6
214.675	597.9
215.051	591.8
215.427	589
215.803	607
216.179	587.1
216.555	580.8
216.932	592.8
217.308	588.5
217.684	592.5
218.061	597.1
218.438	593.4
218.814	587
219.191	598.3
219.568	583.7
219.945	585
220.322	594.2
220.699	595.7
221.076	598
221.453	592.5
221.83	581.9
222.208	587.1
222.585	579.2
222.962	591.3
223.34	595.9
223.717	589.4
224.095	586.7
224.473	588.5
224.851	579.9
225.229	574.1
225.607	604.6
225.985	579.1
226.363	592.9
226.741	594.3
227.119	592.5
227.497	598.7
227.876	581.1
228.254	597.6
228.633	590.7
229.011	584.6
229.39	595.2
229.769	588.9
230.148	598.4
230.527	611.3
230.905	588.1
231.284	589.2
231.664	587.1
232.043	600.5
232.422	600.2
232.801	588
233.181	600.3
233.56	590.6
233.94	590.8
234.319	572.3
234.699	584
235.079	628.1
235.458	626.4
235.838	610.9
236.218	584.6
236.598	581.4
236.978	585.5
237.358	583.4
237.738	582.8
238.119	597.8
238.499	580.5
238.88	592.9
239.26	597.9
239.641	575.9
240.021	587.4
240.402	590.4
240.783	589.1
241.163	589.6
241.544	591.8
241.925	590.2
242.306	606.3
242.687	572.1
243.069	587.7
243.45	589.5
243.831	585.5
244.212	583.4
244.594	624.8
244.975	601.2
245.357	592.6
245.739	591.3
246.12	589
246.502	605.5
246.884	584
247.266	589.8
247.648	593
248.03	605.4
248.412	592.3
248.794	595.4
249.176	586.4
249.559	598
249.941	585.4
250.323	580.3
250.706	582.8
251.089	594.4
251.471	597.3
251.854	592.8
252.237	591.8
252.62	603.8
253.002	596.4
253.385	591
253.769	603.5
254.152	593.5
254.535	598.4
254.918	577.6
255.301	593.9
255.685	586
256.068	582.4
256.452	611
256.835	591.6
257.219	599
257.603	604.4
257.986	577
258.37	591.1
258.754	577
259.138	588.6
259.522	600.9
259.906	582.3
260.29	586.9
260.675	591.2
261.059	587.5
261.443	574.1
261.828	597.9
262.212	590
262.597	576.2
262.981	585.1
263.366	594.8
263.751	584.2
264.136	584.9
264.521	589.7
264.906	587.4
265.291	603.5
265.676	587
266.061	598
266.446	607.2
266.831	589
267.217	605.2
267.602	594.2
267.987	591.1
268.373	589.3
268.759	598.2
269.144	598.1
269.53	584.6
269.916	583.8
270.302	587.9
270.688	591.2
271.074	591.4
271.46	596.5
271.846	619.5
272.232	588
272.618	577.4
273.004	590.8
273.391	592.6
273.777	604.7
274.164	596.2
274.55	600.9
274.937	590.9
275.324	591.4
275.71	594.7
276.097	592.6
276.484	579
276.871	592.7
277.258	596.7
277.645	574.7
278.032	591.1
278.419	586.9
278.807	589.1
279.194	575.9
279.581	583.6
279.969	594.5
280.356	594.6
280.744	588.2
281.131	609.2
281.519	603.4
281.907	587.9
282.295	585
282.682	602.5
283.07	596.7
283.458	604.2
283.846	597.6
284.235	600.2
284.623	600.5
285.011	580.6
285.399	584.7
285.788	587.8
286.176	577.3
286.565	602.2
286.953	584.6
287.342	586.4
287.731	583
288.119	584.2
288.508	589.1
288.897	592.8
289.286	581.4
289.675	592.5
290.064	599.1
290.453	583
290.821	588.3
291.21	604.5
291.599	583.2
291.989	590.9
292.378	600
292.768	611.6
293.157	592.3
293.547	597.1
293.936	590.6
294.326	578.3
294.716	594.9
295.106	583.7
295.496	593.7
295.886	598.2
296.276	591.1
296.666	588.8
297.056	578
297.446	577.6
297.836	606.9
298.227	585.5
298.617	590
299.008	600.4
299.398	585.4
299.789	583.5
300.179	598.6
300.57	601.9
300.961	582.3
301.352	586.9
301.742	595.1
302.133	593.1
302.524	591.9
302.915	591.5
303.307	582.2
303.698	603
304.089	599.1
304.48	589.6
304.872	596
305.263	592.8
305.655	584.4
306.046	586.5
306.438	592.5
306.829	587.3
307.221	612.2
307.613	600
308.005	598.6
308.397	608.1
308.789	612.6
309.181	612.4
309.573	606.7
309.965	600.1
310.357	589.1
310.749	595.9
311.142	581.6
311.534	588.1
311.926	602.1
312.319	588.2
312.711	585.6
313.104	600.7
313.497	592.2
313.889	629.8
314.282	610
314.675	617.9
315.068	592.2
315.461	598.2
315.854	619.6
316.247	597.2
316.64	593.9
317.033	588.7
317.405	600.9
317.798	592.5
318.192	603.9
318.585	589
318.979	599.3
319.372	585.2
319.766	587
320.16	604.1
320.553	603.9
320.947	612.8
321.341	588
321.735	589.2
322.129	575.6
322.523	613.8
322.917	581.9
323.311	601.4
323.705	598.8
324.099	597.6
324.494	598
324.888	601.7
325.282	589.6
325.677	594.9
326.071	599.7
326.466	602.4
326.861	600.5
327.255	602.7
327.65	601.5
328.045	606.5
328.44	593.5
328.835	593.5
329.23	585.9
329.625	615.8
330.02	584.4
330.415	612.1
330.81	591
331.206	596.4
331.601	586.8
331.996	601.4
332.37	604.3
332.766	586.4
333.161	613
333.557	587.6
333.953	592.3
334.348	1026.6
334.744	591.8
335.14	583.4
335.536	579.6
335.932	603.5
336.328	593.5
336.724	599
337.12	590.3
337.516	590
337.913	592
338.309	611.2
338.705	586.4
339.102	602
339.498	585.4
339.895	608.3
340.291	588
340.688	601.4
341.085	577.9
341.481	590.4
341.878	589.3
342.275	614.9
342.672	586.4
343.069	586.4
343.466	580.2
343.842	601.9
344.239	582.3
344.636	590
345.033	580.7
345.431	583.7
345.828	590.2
346.225	587.2
346.623	595.6
347.02	586
347.418	597.7
347.816	603.3
348.213	581.1
348.611	594.6
349.009	590.7
349.407	603.3
349.805	584.6
350.203	583.3
350.601	601.3
350.999	587.6
351.397	577
351.795	588.5
352.193	593.2
352.57	596.4
352.969	598.5
353.367	575.4
353.766	580.1
354.164	586.2
354.563	601.3
354.961	587.4
355.36	581.2
355.759	581.7
356.158	575.7
356.557	571.3
356.956	575.2
357.355	581.1
357.754	587.1
358.153	591.6
358.552	610.4
358.951	588.7
359.35	595.7
359.75	584.9
360.149	574.8
360.527	572.5
360.926	579.8
361.326	585.7
361.726	589.7
362.125	577.7
362.525	588.9
362.925	581.8
363.325	589.9
363.724	590.9
364.124	581.6
364.524	578.1
364.924	585.6
365.324	592.6
365.725	564.8
366.125	589.5
366.525	583.4
366.904	576.3
367.304	569.6
367.705	603.2
368.105	593.5
368.506	581.2
368.906	581.8
369.307	580.6
369.708	591.2
370.108	570.8
370.509	591.3
370.91	580.3
371.311	583.4
371.712	587
372.113	580.8
372.514	574.1
372.894	581.1
373.295	585.2
373.696	592.5
374.097	591.1
374.499	604.9
374.9	585.8
375.301	577.2
375.703	585.9
376.105	574.1
376.506	590.2
376.908	592.4
377.309	586.1
377.711	586.9
378.113	579
378.493	585.4
378.895	575.7
379.297	596
379.699	572.8
380.102	586.3
380.504	580.4
380.906	577.7
381.308	610.8
381.71	587
382.113	592.2
382.515	581.7
382.918	584.9
383.299	582.3
383.701	587.3
384.104	589.4
384.507	567.9
384.909	586.7
385.312	573.9
385.715	566.8
386.118	581.2
386.521	572.7
386.924	589.2
387.327	575
387.709	569.3
388.112	566.8
388.515	576.2
388.918	578.5
389.322	587.3
389.725	572.2
390.129	601
390.532	585.7
390.936	575.7
391.339	576.3
391.743	578.8
392.125	576
392.529	593.4
392.933	591.7
393.337	578
393.74	582
394.144	587.5
394.548	578.1
394.953	573.1
395.357	592.9
395.761	583.3
396.144	583.4
396.548	578.4
396.952	586.8
397.357	586.8
397.761	581.8
398.166	577.9
398.57	578.8
398.975	570.7
399.379	583.4
399.763	628.3
400.168	580.9
400.572	582.9
400.977	577.1
401.382	606.1
401.787	595.4
402.192	604.8
402.597	600.9
403.002	573.4
403.386	596.2
403.791	602.4
404.197	576.3
404.602	582.3
405.007	577.1
405.413	586.3
405.818	568.5
406.224	573.6
406.608	585.2
407.014	573.6
407.42	599.7
407.825	580.5
408.231	593.4
408.637	592.7
409.043	597.7
409.449	583.5
409.834	576.3
410.24	585.8
410.646	594.9
411.052	593.6
411.458	590.8
411.865	590.4
412.271	597.9
412.677	588
413.062	585.6
413.469	574
413.875	608.3
414.282	592.8
414.689	589.2
415.095	591.9
415.502	580
415.888	581.3
416.294	567.1
416.701	632.3
417.108	583.1
417.515	591.7
417.923	581.1
418.33	604
418.715	590.6
419.123	578.5
419.53	582.9
419.937	582.5
420.345	599.8
420.752	580.1
421.16	605.7
421.546	585.4
421.953	592
422.361	581.2
422.769	585.5
423.177	576.5
423.585	606.5
423.992	605.8
424.379	599.5
424.787	599.7
425.195	607.2
425.603	590.1
426.011	605.7
426.419	602.2
426.806	597.3
427.214	599.6
427.623	616.2
428.031	624.4
428.44	616.7
428.848	628.6
429.235	638.5
429.644	638.1
430.053	643
430.461	671.1
430.87	695.7
431.279	694.6
431.666	692.8
432.075	719.6
432.484	740.1
432.893	757.7
433.302	797.7
433.711	832.1
434.099	829
434.508	839.4
434.918	858.9
435.327	889.2
435.737	912.6
436.125	932.7
436.534	953.7
436.944	982
437.353	1005.4
437.763	1037.4
438.173	1037.1
438.561	1069.4
438.971	1070.7
439.381	1102.3
439.791	1135.8
440.201	1129.7
440.589	1165.3
440.999	1198.5
441.409	1203.3
441.819	1216.7
442.23	1259.7
442.619	1265.7
443.029	1274.2
443.439	1293.9
443.85	1304.5
444.26	1315.4
444.649	1322.4
445.06	1345
445.471	1351.2
445.881	1366.7
446.292	1399.2
446.682	1420
447.092	1397.9
447.503	1465.3
447.914	1430.5
448.325	1428.6
448.715	1432.7
449.126	1432.9
449.537	1435.9
449.948	1449.1
450.338	1473.5
450.75	1474.5
451.161	1485.6
451.572	1502.4
451.984	1501.7
452.374	1494.4
452.786	1509.5
453.197	1520
453.609	1519.3
453.999	1508.4
454.411	1507
454.823	1535
455.235	1536.6
455.647	1528.2
456.037	1541.8
456.449	1533.2
456.862	1553.1
457.274	1557.5
457.665	1539.9
458.077	1544.8
458.489	1560.2
458.902	1542.1
459.293	1555.6
459.705	1547.8
460.118	1527.2
460.53	1535.8
460.921	1549
461.334	1539.9
461.747	1542.4
462.16	1562.1
462.551	1548
462.964	1528.2
463.377	1506
463.79	1516.2
464.182	1527.9
464.595	1496.9
465.008	1509
465.421	1508.9
465.813	1502.9
466.226	1508
466.64	1493.6
467.053	1536.6
467.445	1511.9
467.859	1500.8
468.272	1500.6
468.686	1509
469.078	1490.6
469.492	1481.3
469.906	1477.9
470.298	1487.2
470.712	1459.7
471.126	1503.4
471.54	1453
471.933	1464.3
472.347	1452.8
472.761	1453.8
473.175	1431.7
473.568	1440.6
473.982	1426.6
474.397	1433.7
474.79	1426.5
475.204	1423.2
475.619	1425.1
476.033	1414
476.426	1409.3
476.841	1390.9
477.256	1420.7
477.649	1391.4
478.064	1372.4
478.479	1382.3
478.872	1363.2
479.287	1369
479.702	1366
480.118	1373.1
480.511	1364
480.927	1348.7
481.342	1351.6
481.736	1359.8
482.151	1350.7
482.566	1351.8
482.96	1345.4
483.376	1354.7
483.792	1323.2
484.186	1332
484.602	1318.5
485.017	1327.9
485.412	1310.8
485.827	1311.5
486.243	1306.1
486.638	1318.8
487.054	1301
487.47	1306.3
487.865	1275
488.281	1286.5
488.697	1270.9
489.092	1267.9
489.508	1253.8
489.925	1270.7
490.32	1243.7
490.736	1254
491.153	1250.6
491.548	1254.6
491.964	1250.6
492.381	1218.9
492.776	1233.4
493.193	1221.7
493.61	1232.7
494.006	1216.2
494.422	1211.5
494.84	1195.5
495.235	1206.1
495.652	1204.5
496.069	1186.4
496.465	1174
496.883	1175.9
497.3	1188.9
497.696	1156
498.113	1165.3
498.509	1135.2
498.927	1132.7
499.344	1131.8
499.741	1121.6
500.158	1140.3
500.576	1135.5
500.973	1124.2
501.39	1118.8
501.787	1099.6
502.205	1104.1
502.623	1103.2
503.02	1072.7
503.438	1074.9
503.856	1078.6
504.253	1082.1
504.671	1066.9
505.068	1062.9
505.486	1067.1
505.905	1079.4
506.302	1059.1
506.72	1066.5
507.118	1036.2
507.536	1038.6
507.955	1032.5
508.352	1035.2
508.771	1031.3
509.169	1030.4
509.587	1005.9
510.006	1016.6
510.404	994.3
510.823	1000.6
511.221	998.2
511.64	991.3
512.038	997.7
512.457	982.2
512.877	977.8
513.275	966.1
513.694	965.9
514.092	961.7
514.512	964.5
514.91	949.5
515.33	954.7
515.749	950.8
516.148	948.8
516.568	944.6
516.966	931.1
517.386	933.2
517.785	929.1
518.205	925.6
518.603	922.3
519.024	915.3
519.444	917.5
519.843	921.8
520.263	915.6
520.662	908
521.082	904.9
521.481	903.8
521.902	901.3
522.301	894.9
522.722	888.8
523.121	882.7
523.542	878.9
523.963	878.1
524.362	875.6
524.783	873.4
525.183	867.6
525.604	869.7
526.003	855
526.425	852.8
526.824	859.4
527.246	857.6
527.646	853
528.067	842.1
528.467	840.8
528.888	839.5
529.289	838.4
529.71	835.6
530.11	825.4
530.532	817.4
530.932	808
531.354	811.7
531.755	846.4
532.176	822.3
532.577	802
532.999	810.9
533.4	807.7
533.822	810.1
534.223	792
534.645	794.3
535.046	795.9
535.468	790.4
535.869	800.5
536.292	780.3
536.693	782.9
537.115	787.4
537.516	784.4
537.939	774.2
538.34	791.8
538.742	788.3
539.165	776.2
539.566	781.8
539.989	765.4
540.391	771.9
540.814	771.7
541.216	765.7
541.639	764
542.041	771.4
542.464	755.4
542.866	750.6
543.268	750
543.691	754.1
544.093	753.8
544.517	773
544.919	740.8
545.343	775.4
545.745	736.6
546.147	749.1
546.571	740.6
546.974	722.9
547.398	741.6
547.8	754.8
548.224	725.9
548.627	723.7
549.03	730.6
549.454	721.7
549.857	714.7
550.281	713.4
550.684	719
551.087	732.2
551.512	724.8
551.915	720.2
552.34	709.9
552.743	713.7
553.146	714.4
553.571	712.4
553.975	728.7
554.399	698.5
554.803	748
555.207	701.2
555.632	688.9
556.036	702.5
556.461	692.2
556.865	697.1
557.268	683.2
557.694	690.4
558.098	694.9
558.502	700.3
558.927	685.6
559.332	689.8
559.736	682.2
560.162	688.9
560.566	677.6
560.992	694.4
561.396	677.9
561.801	677.6
562.227	674.6
562.631	672
563.036	670.4
563.462	680.1
563.867	668.8
564.272	661.5
564.698	674.1
565.103	660.6
565.508	688.6
565.935	673.7
566.34	662.1
566.745	669.1
567.172	659.1
567.577	676.1
567.982	662.1
568.409	658.5
568.815	649.1
569.22	657.2
569.626	664.4
570.053	640.9
570.459	659.6
570.865	658.1
571.292	658.3
571.698	653.5
572.104	635.5
572.531	642.3
572.937	660.4
573.343	643.6
573.75	644.9
574.177	643.6
574.583	650.9
574.99	637.9
575.396	654.7
575.824	635.6
576.231	643.8
576.637	635.4
577.065	661.8
577.472	636.5
577.879	633.2
578.286	647.3
578.714	623.5
579.121	631.3
579.528	633.5
579.935	638.8
580.364	621.5
580.771	614
581.178	615.8
581.585	631.4
582.014	631.8
582.421	616.5
582.829	625
583.236	632.1
583.644	620.6
584.073	618.3
584.481	623.7
584.889	621.1
585.296	631.3
585.726	616.7
586.134	615.3
586.542	608.6
586.95	634.7
587.358	610.3
587.787	613.3
588.196	607.6
588.604	612.8
589.012	611.8
589.421	602.9
589.851	604.5
590.259	613.2
590.668	608
591.076	644.3
591.485	600.5
591.894	604.8
592.324	620.6
592.733	622.7
593.142	594.1
593.551	606.3
593.96	616.7
594.369	596.7
594.8	596.6
595.209	601.5
595.618	590.8
596.028	601
596.437	594.3
596.847	602
597.256	608.5
597.687	600.9
598.097	605.4
598.507	588.4
598.917	594.2
599.327	600.6
599.736	603.1
600.146	606.9
600.556	606.7
600.988	609.9
601.398	593.2
601.808	612.8
602.219	582.6
602.629	598.6
603.039	595.8
603.45	616.4
603.86	589.5
604.271	603.3
604.703	589.2
605.114	588.5
605.525	589.5
605.935	595.1
606.346	607.1
606.757	596.3
607.168	589.5
607.579	584
607.99	597.4
608.402	583.2
608.813	589.5
609.224	587.2
609.636	578.2
610.047	575.8
610.48	592.3
610.892	597.3
611.303	589.2
611.715	590.1
612.127	579.4
612.539	582.2
612.95	589.5
613.362	569.7
613.774	576.5
614.186	584.6
614.599	585.3
615.011	600.5
615.423	574.3
615.835	587.5
616.248	575.8
616.66	592.1
617.073	578.8
617.485	579.2
617.898	588.5
618.311	590.7
618.723	582.1
619.136	612.2
619.549	602.1
619.962	609.3
620.375	582.1
620.788	584.4
621.201	578.8
621.614	589.6
622.028	588.5
622.441	582.4
622.854	593.5
623.268	570.2
623.681	584.9
624.095	582
624.509	586.2
624.922	587
625.336	571.4
625.728	586.7
626.142	585.5
626.556	601.4
626.97	585.2
627.384	577.8
627.799	583.8
628.213	593.1
628.627	586.6
629.041	575.9
629.456	578.2
629.87	577.6
630.285	594.2
630.699	590.7
631.093	572.6
631.507	587.9
631.922	579.5
632.337	595.4
632.752	575.8
633.167	579.4
633.582	576
633.997	567.9
634.412	570.3
634.806	578
635.221	567.2
635.637	588.2
636.052	566.8
636.468	576.1
636.883	594.5
637.299	570.8
637.715	563.3
638.109	578
638.525	565.3
638.941	585.5
639.357	575.1
639.773	582.8
640.189	565.4
640.584	572.7
641	574.6
641.416	561.2
641.832	570.3
642.249	568
642.665	569.3
643.06	571.5
643.477	585.3
643.894	563.1
644.31	571
644.727	574.6
645.123	572.5
645.54	565.6
645.957	574.5
646.374	580.3
646.77	574.4
647.187	598.4
647.604	574.2
648.021	557.3
648.439	560.7
648.835	576.9
649.252	568.7
649.67	569.8
650.088	570.2
650.484	570.9
650.902	577.6
651.32	579.3
651.738	568.9
652.134	571.7
652.552	591.3
652.971	574.6
653.389	569
653.786	582.2
654.204	569.1
654.622	564.6
655.019	575.6
655.438	571.7
655.857	570.2
656.275	567.6
656.673	570.3
657.091	641.2
657.51	568.7
657.908	572.4
658.327	583.6
658.746	556.9
659.144	571
659.563	577.5
659.982	570.2
660.38	563.8
660.8	570.8
661.219	578.4
661.617	576.2
662.037	569.6
662.457	578.5
662.855	556.6
663.275	593.5
663.695	570.5
664.094	567.4
664.514	569.4
664.934	564.3
665.333	579.4
665.753	560.8
666.152	558.5
666.572	565.7
666.993	578.4
667.392	562.4
667.812	563.4
668.212	566.9
668.632	575.2
669.053	568.1
669.453	569.9
669.874	569.2
670.273	569
670.694	565
671.116	579.1
671.515	571.2
671.937	565.5
672.337	557.9
672.758	556.2
673.158	568.8
673.58	556.3
673.98	566.5
674.402	573.8
674.824	558.1
675.224	558.3
675.646	551.4
676.047	562.2
676.469	563.5
676.869	571
677.292	567.4
677.693	554.9
678.115	561.8
678.516	568.3
678.939	568.3
679.34	561.1
679.762	579
680.164	563.9
680.586	561.3
680.988	564.4
681.411	588.7
681.812	563.3
682.236	557.3
682.637	559.8
683.061	551.5
683.462	568
683.864	566.2
684.288	569.3
684.69	555.1
685.114	575.4
685.516	573.3
685.94	553.1
686.342	571.3
686.766	559
687.168	564.6
687.571	578.6
687.995	557.2
688.398	561.3
688.822	562.3
689.225	576.7
689.628	584.1
690.052	560.7
690.456	572.5
690.88	564.5
691.284	552
691.687	569.7
692.112	555.9
692.515	561.2
692.919	567.3
693.344	569.8
693.747	563.9
694.173	557.4
694.577	576
694.98	561.3
695.406	551
695.81	570.9
696.214	570.6
696.64	571.3
697.044	568.6
697.448	574.5
697.874	560.9
698.279	566.4
698.684	553.7
699.11	555.3
699.514	565.2
699.919	560.2
700.324	554.1
700.75	566.7
701.156	565.3
701.561	567.9
701.987	564.3
702.393	574.2
702.798	574.8
703.203	560.4
703.63	555.2
704.036	559.5
704.442	564.4
704.847	557.4
705.274	561.1
705.68	564.3
706.086	570.5
706.492	547.9
706.92	564.8
707.326	576.3
707.732	560.8
708.139	554.6
708.545	556
708.973	558
709.38	557.9
709.786	560.5
710.193	578
710.6	560.7
711.028	556.8
711.435	561.7
711.842	562.5
712.249	560.2
712.656	557.4
713.064	570.1
713.492	549.3
713.9	558.2
714.307	565
714.715	560.2
715.123	569.5
715.53	565.8
715.938	569.5
716.367	569.2
716.775	556.8
717.184	549.8
717.592	563.1
718	573.3
718.408	597.1
718.816	603.5
719.225	564.1
719.633	563.4
720.042	554.6
720.472	561.7
720.881	576.8
721.29	565.3
721.699	556.5
722.108	568.3
722.517	566.5
722.926	561.4
723.335	571.6
723.744	560.9
724.154	562.4
724.563	564.5
724.973	567.1
725.382	559.7
725.792	560.7
726.202	549.3
726.612	571.6
727.022	557
727.432	555.2
779.813	561
780.223	602.5
780.634	552.7
781.044	556.8
781.454	557.4
781.865	572.8
782.276	553.5
782.686	566.8
783.097	558.5
783.508	557.6
783.919	564.1
784.33	568.1
784.741	567.4
785.152	551.5
785.563	544
785.974	555.2
786.386	561.6
786.776	556.4
787.188	560.9
787.599	550.8
788.011	564.6
788.423	560.2
788.835	557.3
789.247	550.5
789.659	561.3
790.071	551.4
790.483	599.8
790.874	558.3
791.286	560.8
791.699	554.5
792.111	557.4
792.524	563.8
792.937	561.8
793.349	550.8
793.741	551.9
794.154	558.3
794.567	578.9
794.98	557.1
795.393	546.5
795.785	571.7
796.198	555
796.612	560.9
797.026	561.1
797.439	543.2
797.831	549.8
798.245	546.5
798.659	554.2
799.073	557.4
799.487	545.7
799.88	558.2
800.294	558.5
800.708	565.2
801.123	562.6
801.516	574.3
801.93	550.5
802.345	544.5
802.76	553.1
803.153	573.6
803.568	578.4
803.983	563
804.377	556.6
804.792	551.6
805.207	545.8
805.601	557.4
806.016	588.9
806.432	556
806.826	586.3
807.242	568.5
807.658	560.5
808.052	551.9
808.468	545.3
808.884	549.4
809.279	561
809.695	568.1
810.111	577.5
810.506	556.7
810.922	577.7
811.339	553.9
811.734	562.6
812.151	554.7
812.546	549.8
812.963	556.4
813.38	560.9
813.776	555.8
814.193	576.5
814.589	555.3
815.006	550.2
815.402	549.8
815.82	554.3
816.237	554.8
816.633	557.2
817.051	549.4
817.448	553.3
817.866	546
818.262	569.6
818.68	551.1
819.077	549.8
819.495	551.8
819.892	591.2
820.311	545.3
820.708	542.9
821.127	551.3
821.524	567.2
821.943	554.6
822.34	575.5
822.759	557.2
823.157	558.8
823.576	566.6
823.974	558.5
824.393	565.1
824.791	554.5
825.189	550.8
825.609	548.5
826.007	550.6
826.427	550.4
826.826	552.4
827.246	561.6
827.644	548.3
828.043	563.2
828.463	555.6
828.862	570.8
829.261	560.4
829.682	545.9
830.081	566.2
830.502	547.7
830.901	561
831.301	544.6
831.722	544
832.121	555.9
832.521	554.4
832.943	555.5
833.342	554.9
833.742	547.7
834.164	550.2
834.564	548
834.965	552.8
835.386	552.5
835.787	553.6
836.188	558.9
836.588	552.9
837.01	559.1
837.411	550
837.812	561.5
838.213	559.9
838.636	553.1
839.037	622.5
839.438	563.3
839.84	559.7
840.263	564.8
840.664	559.2
841.066	558.8
841.468	552.4
841.891	551.5
842.293	570.3
