#lambda/nm	C1
208.295	474
208.67	439.6
209.045	402.1
209.419	409.5
209.794	596.6
210.169	574.9
210.544	703.1
210.919	589.6
211.295	580.3
211.67	589.2
212.045	583.8
212.421	584
212.796	624.5
213.172	578.2
213.547	581.3
213.923	589.7
214.299	580.6
214.675	597.7
215.051	592.2
215.427	592.3
215.803	606.6
216.179	594
216.555	573.4
216.932	599.2
217.308	590.8
217.684	586
218.061	597.8
218.438	595.8
218.814	583.9
219.191	594.2
219.568	580.5
219.945	586.1
220.322	595.4
220.699	593.2
221.076	595.1
221.453	586
221.83	588.4
222.208	587.9
222.585	584.3
222.962	591.6
223.34	594.6
223.717	593.9
224.095	586.5
224.473	590.2
224.851	585.4
225.229	585
225.607	611.9
225.985	582.2
226.363	594.1
226.741	588.9
227.119	590.8
227.497	599.7
227.876	579
228.254	599.6
228.633	591.5
229.011	588.9
229.39	592.5
229.769	591.2
230.148	597.4
230.527	610.3
230.905	586.1
231.284	590.2
231.664	583.8
232.043	597
232.422	598.2
232.801	583.6
233.181	593.7
233.56	585.7
233.94	588.9
234.319	578.6
234.699	584.9
235.079	626.2
235.458	629.4
235.838	603.5
236.218	585
236.598	577.5
236.978	584.9
237.358	587
237.738	585.4
238.119	597.9
238.499	577.8
238.88	583.6
239.26	605.6
239.641	577.3
240.021	587.3
240.402	587.9
240.783	585.1
241.163	594.9
241.544	594.8
241.925	594.1
242.306	598.4
242.687	581.2
243.069	590
243.45	599.2
243.831	582.2
244.212	585.8
244.594	623.4
244.975	598.2
245.357	591.2
245.739	583.8
246.12	587.2
246.502	607.1
246.884	588.7
247.266	586.6
247.648	593.8
248.03	606.6
248.412	589.7
248.794	594.8
249.176	583.6
249.559	597.6
249.941	582.2
250.323	577.5
250.706	580.6
251.089	589.7
251.471	598.1
251.854	592.2
252.237	588.4
252.62	596.3
253.002	592.1
253.385	586
253.769	605.3
254.152	597.8
254.535	597.1
254.918	585.2
255.301	588
255.685	589.8
256.068	580.6
256.452	613.1
256.835	599.4
257.219	593.4
257.603	595.5
257.986	579.6
258.37	595.1
258.754	580.7
259.138	595.8
259.522	600.3
259.906	591.3
260.29	588.8
260.675	587.8
261.059	589.2
261.443	582.1
261.828	596.2
262.212	596.6
262.597	575.2
262.981	587.1
263.366	593.8
263.751	591.6
264.136	580.1
264.521	592.1
264.906	578.5
265.291	600.8
265.676	586
266.061	596.1
266.446	612.1
266.831	590
267.217	605
267.602	590.8
267.987	597.8
268.373	584.1
268.759	599
269.144	596.6
269.53	589.1
269.916	582.8
270.302	588.9
270.688	588.2
271.074	585.5
271.46	603.4
271.846	619.6
272.232	587.8
272.618	586.3
273.004	592.4
273.391	601.3
273.777	603.1
274.164	599.2
274.55	603.3
274.937	595.4
275.324	586.4
275.71	595.1
276.097	599.8
276.484	581.9
276.871	591.5
277.258	590.6
277.645	576.4
278.032	588.1
278.419	582.8
278.807	595.3
279.194	582.8
279.581	586.3
279.969	596.2
280.356	598.4
280.744	592.8
281.131	616.4
281.519	600.1
281.907	583.4
282.295	590.4
282.682	599.4
283.07	585.1
283.458	594.1
283.846	600.8
284.235	597
284.623	597
285.011	580
285.399	586.4
285.788	592.5
286.176	580.1
286.565	599.6
286.953	582.8
287.342	584.1
287.731	582.7
288.119	580.6
288.508	585.4
288.897	587.5
289.286	579
289.675	589.5
290.064	601.8
290.453	582.9
290.821	592.5
291.21	602.7
291.599	587
291.989	591.4
292.378	596.1
292.768	603.8
293.157	593.3
293.547	602.6
293.936	587.7
294.326	588.7
294.716	593
295.106	585.3
295.496	596.6
295.886	600.3
296.276	591.9
296.666	581.1
297.056	588.9
297.446	578.8
297.836	609.5
298.227	589.4
298.617	589.7
299.008	605.1
299.398	589.9
299.789	586.5
300.179	591.2
300.57	605.1
300.961	584.9
301.352	582.6
301.742	598.6
302.133	595.1
302.524	586.9
302.915	593.6
303.307	580.6
303.698	596.1
304.089	602.4
304.48	590.8
304.872	598
305.263	591
305.655	587.5
306.046	599.7
306.438	597.1
306.829	594
307.221	608.1
307.613	596.3
308.005	605.4
308.397	600
308.789	610.6
309.181	617.2
309.573	604
309.965	606.4
310.357	588.3
310.749	592.4
311.142	582
311.534	585.9
311.926	597.7
312.319	592.7
312.711	582.4
313.104	606.1
313.497	589.1
313.889	629
314.282	611.7
314.675	617.3
315.068	594.9
315.461	597.1
315.854	624
316.247	599.1
316.64	593.1
317.033	594.2
317.405	602
317.798	590.7
318.192	596.8
318.585	585.5
318.979	597.4
319.372	586.7
319.766	588.8
320.16	608.5
320.553	608.6
320.947	604.5
321.341	589.1
321.735	588
322.129	581.3
322.523	618
322.917	586.4
323.311	601
323.705	591.4
324.099	598.9
324.494	607
324.888	603.4
325.282	595.1
325.677	594.8
326.071	603
326.466	604.2
326.861	595.2
327.255	600.1
327.65	608.8
328.045	607.7
328.44	598.5
328.835	590.4
329.23	588.2
329.625	617.6
330.02	588.7
330.415	613.1
330.81	593.1
331.206	591.1
331.601	589.9
331.996	598.1
332.37	600.2
332.766	582.7
333.161	617.6
333.557	587.9
333.953	594
334.348	945.2
334.744	589.2
335.14	589.9
335.536	590.7
335.932	609.6
336.328	594.3
336.724	603.3
337.12	593.9
337.516	593.5
337.913	587.4
338.309	597.2
338.705	591.2
339.102	601.7
339.498	587.8
339.895	610.3
340.291	590.2
340.688	601.5
341.085	581.3
341.481	592.8
341.878	592.8
342.275	604
342.672	583.4
343.069	589.4
343.466	579.2
343.842	595.7
344.239	589.5
344.636	591.7
345.033	583.4
345.431	581.9
345.828	590.6
346.225	586.9
346.623	602.2
347.02	591.6
347.418	593.6
347.816	604.9
348.213	583.7
348.611	597
349.009	588
349.407	599.5
349.805	583
350.203	577.4
350.601	601.9
350.999	585.8
351.397	579.4
351.795	592.3
352.193	600.3
352.57	594.5
352.969	599.1
353.367	577
353.766	584.6
354.164	580.5
354.563	598.3
354.961	588.7
355.36	586.6
355.759	584.5
356.158	584.8
356.557	583.5
356.956	578.1
357.355	576.6
357.754	591.1
358.153	598
358.552	599.7
358.951	582.5
359.35	593.9
359.75	577.9
360.149	577.1
360.527	571.1
360.926	574.4
361.326	586.1
361.726	582.2
362.125	579.9
362.525	590.4
362.925	584
363.325	591.3
363.724	589
364.124	581.7
364.524	577.4
364.924	582.3
365.324	592.9
365.725	575
366.125	589.9
366.525	586.9
366.904	581.4
367.304	561.3
367.705	598.4
368.105	598.3
368.506	582.2
368.906	586.7
369.307	580.5
369.708	587.3
370.108	577.2
370.509	592.5
370.91	578.8
371.311	580.5
371.712	581.2
372.113	583.8
372.514	575.7
372.894	582.2
373.295	580.5
373.696	592.3
374.097	596.4
374.499	611.5
374.9	582.8
375.301	576.2
375.703	577.2
376.105	576.9
376.506	584.5
376.908	587.3
377.309	580.3
377.711	585.3
378.113	579.4
378.493	586.8
378.895	578.4
379.297	588.7
379.699	573.9
380.102	585.2
380.504	588
380.906	579.1
381.308	609.2
381.71	579.6
382.113	591.9
382.515	583.2
382.918	583.4
383.299	576.1
383.701	596.1
384.104	578.1
384.507	562.5
384.909	580.1
385.312	571.4
385.715	568.9
386.118	584.3
386.521	568.7
386.924	587.5
387.327	577.3
387.709	571.3
388.112	567.3
388.515	581.2
388.918	581.4
389.322	581.7
389.725	576.5
390.129	603.8
390.532	584.3
390.936	581.1
391.339	578.4
391.743	582.9
392.125	580
392.529	592.7
392.933	593.8
393.337	581.5
393.74	579.6
394.144	586
394.548	575.8
394.953	584.9
395.357	589.2
395.761	575.1
396.144	584.6
396.548	582.2
396.952	582.8
397.357	579.3
397.761	581.2
398.166	578.2
398.57	580.8
398.975	575.3
399.379	581.7
399.763	632
400.168	585.1
400.572	585.8
400.977	582.1
401.382	602.9
401.787	593.2
402.192	604.4
402.597	599
403.002	570.7
403.386	590.1
403.791	597.5
404.197	577.7
404.602	585.3
405.007	584.2
405.413	580.7
405.818	575.2
406.224	575.6
406.608	573.5
407.014	577.5
407.42	603.5
407.825	576.6
408.231	593.9
408.637	587.3
409.043	595.6
409.449	579.8
409.834	575.6
410.24	583.3
410.646	597.7
411.052	597.7
411.458	586.2
411.865	591.4
412.271	593
412.677	585.7
413.062	586.5
413.469	578.7
413.875	618.5
414.282	594
414.689	591.3
415.095	593.3
415.502	579.2
415.888	587.3
416.294	567.7
416.701	621
417.108	578.4
417.515	591.5
417.923	581.4
418.33	601.4
418.715	590.1
419.123	579.3
419.53	581.6
419.937	588.5
420.345	602.7
420.752	582.8
421.16	604.4
421.546	586.8
421.953	596.6
422.361	578.6
422.769	590.1
423.177	585.9
423.585	608.1
423.992	611.4
424.379	598.8
424.787	603.2
425.195	617.8
425.603	601
426.011	629.4
426.419	625.8
426.806	625.4
427.214	637.5
427.623	654.9
428.031	672.8
428.44	677.3
428.848	695.8
429.235	717.4
429.644	720
430.053	736.1
430.461	776
430.87	806.2
431.279	811.9
431.666	826.4
432.075	862.6
432.484	888
432.893	909.3
433.302	943.7
433.711	996.3
434.099	974.2
434.508	987.1
434.918	1011.5
435.327	1046.6
435.737	1065.3
436.125	1079.3
436.534	1108.4
436.944	1130.3
437.353	1141.8
437.763	1183
438.173	1175.2
438.561	1212.8
438.971	1204.5
439.381	1237.2
439.791	1254.5
440.201	1255.6
440.589	1290.1
440.999	1319.6
441.409	1335.1
441.819	1327.1
442.23	1365.4
442.619	1372
443.029	1391.2
443.439	1388.8
443.85	1390.4
444.26	1416.1
444.649	1415
445.06	1424.4
445.471	1453.4
445.881	1457.9
446.292	1478.5
446.682	1499.2
447.092	1474.5
447.503	1552.9
447.914	1506.7
448.325	1520.8
448.715	1515.7
449.126	1527.4
449.537	1524.2
449.948	1524.1
450.338	1543
450.75	1556.4
451.161	1564.7
451.572	1586.4
451.984	1572.1
452.374	1555.5
452.786	1591
453.197	1589.8
453.609	1589.6
453.999	1579.5
454.411	1572
454.823	1585.9
455.235	1594.8
455.647	1600.7
456.037	1610.2
456.449	1588.3
456.862	1604.4
457.274	1599
457.665	1602
458.077	1606.3
458.489	1610.8
458.902	1605.9
459.293	1612.6
459.705	1604.3
460.118	1582.8
460.53	1603.4
460.921	1604
461.334	1587.6
461.747	1596.3
462.16	1604
462.551	1603.7
462.964	1591.2
463.377	1572
463.79	1581
464.182	1576.4
464.595	1559.8
465.008	1558.4
465.421	1561.2
465.813	1547.4
466.226	1548.8
466.64	1534.4
467.053	1582.9
467.445	1563.9
467.859	1543.6
468.272	1558.3
468.686	1562.1
469.078	1538.9
469.492	1523.3
469.906	1542.3
470.298	1535.3
470.712	1514.9
471.126	1549.3
471.54	1502.5
471.933	1506.8
472.347	1514.1
472.761	1500.2
473.175	1482
473.568	1485.9
473.982	1468.3
474.397	1479.5
474.79	1466.5
475.204	1477.5
475.619	1462.1
476.033	1451.4
476.426	1442.7
476.841	1431.2
477.256	1455.9
477.649	1415.9
478.064	1432.8
478.479	1421.9
478.872	1412.1
479.287	1392.7
479.702	1410.3
480.118	1412.9
480.511	1409.5
480.927	1374.2
481.342	1395
481.736	1395.4
482.151	1381.7
482.566	1399.4
482.96	1377.7
483.376	1386.7
483.792	1362.5
484.186	1366.9
484.602	1357.2
485.017	1347.2
485.412	1344.8
485.827	1343.5
486.243	1341.6
486.638	1355.7
487.054	1340
487.47	1341.5
487.865	1312.7
488.281	1307
488.697	1288.6
489.092	1301.5
489.508	1282.8
489.925	1288
490.32	1275
490.736	1286.9
491.153	1278.6
491.548	1285.8
491.964	1273
492.381	1256.9
492.776	1249.2
493.193	1249
493.61	1259.1
494.006	1241.1
494.422	1232.7
494.84	1223.8
495.235	1237.4
495.652	1216.3
496.069	1216.1
496.465	1193.8
496.883	1195.9
497.3	1219.6
497.696	1179.9
498.113	1193.7
498.509	1169.4
498.927	1155.1
499.344	1168.2
499.741	1155
500.158	1154.7
500.576	1151.2
500.973	1144.6
501.39	1122.8
501.787	1117.9
502.205	1132.9
502.623	1115.3
503.02	1100.7
503.438	1103
503.856	1094.3
504.253	1104.6
504.671	1097.1
505.068	1086.6
505.486	1084.5
505.905	1094.4
506.302	1073.4
506.72	1080.2
507.118	1055.6
507.536	1063.1
507.955	1038.1
508.352	1050.7
508.771	1055
509.169	1054.2
509.587	1028.3
510.006	1029.6
510.404	1016
510.823	1015.5
511.221	1007.7
511.64	997
512.038	1026.8
512.457	1012.4
512.877	995.5
513.275	987.2
513.694	987.1
514.092	986.9
514.512	983.8
514.91	975.6
515.33	977.2
515.749	966.3
516.148	974.5
516.568	953.9
516.966	960.3
517.386	946.1
517.785	942.5
518.205	934.9
518.603	927.9
519.024	926.5
519.444	923.6
519.843	933
520.263	929.4
520.662	924.6
521.082	916.5
521.481	920.5
521.902	908.9
522.301	909.2
522.722	895.4
523.121	893.7
523.542	885.8
523.963	884.2
524.362	881.2
524.783	877.9
525.183	874.3
525.604	871.7
526.003	862.8
526.425	861.4
526.824	867.1
527.246	874.1
527.646	861
528.067	852.2
528.467	844.8
528.888	843.9
529.289	842.4
529.71	847.1
530.11	836.9
530.532	824
530.932	811.4
531.354	819
531.755	853.1
532.176	827.2
532.577	820
532.999	814.7
533.4	811.9
533.822	815.5
534.223	807.8
534.645	802.8
535.046	796.5
535.468	795
535.869	811.6
536.292	794.5
536.693	796.4
537.115	794.2
537.516	785.9
537.939	787.4
538.34	804.4
538.742	798.3
539.165	778.9
539.566	779.3
539.989	767.7
540.391	767.8
540.814	770.6
541.216	769.8
541.639	773
542.041	783.6
542.464	760.8
542.866	760.3
543.268	752.5
543.691	767.1
544.093	772.3
544.517	780.8
544.919	740.2
545.343	772.3
545.745	736.7
546.147	750.2
546.571	744.2
546.974	742.7
547.398	741.7
547.8	746
548.224	734.6
548.627	722.5
549.03	740.5
549.454	727.7
549.857	729.3
550.281	723
550.684	719.3
551.087	734.8
551.512	731.1
551.915	726.1
552.34	720.6
552.743	711
553.146	709.3
553.571	716.7
553.975	731.2
554.399	709.6
554.803	750.5
555.207	695.2
555.632	695.2
556.036	699.1
556.461	696.3
556.865	702.9
557.268	690.2
557.694	695.4
558.098	697.6
558.502	693.3
558.927	685.7
559.332	687.5
559.736	681.5
560.162	686.9
560.566	681.5
560.992	684.7
561.396	681.4
561.801	673.3
562.227	676.6
562.631	674.4
563.036	676.6
563.462	678.8
563.867	676.6
564.272	666
564.698	675
565.103	655.8
565.508	687.9
565.935	670.2
566.34	668
566.745	676.1
567.172	663.5
567.577	685
567.982	675.6
568.409	665.4
568.815	652.9
569.22	656.8
569.626	665.5
570.053	644.4
570.459	653.2
570.865	662.5
571.292	655.9
571.698	652.6
572.104	639.2
572.531	636.4
572.937	652.3
573.343	649
573.75	644.4
574.177	647.9
574.583	650.1
574.99	642
575.396	647.9
575.824	636.6
576.231	646
576.637	634.3
577.065	662.5
577.472	639
577.879	630.2
578.286	651.7
578.714	632.2
579.121	633.8
579.528	631.9
579.935	641.8
580.364	625.8
580.771	618.2
581.178	628.6
581.585	635.8
582.014	630
582.421	625.3
582.829	628.5
583.236	629.6
583.644	618.4
584.073	621.8
584.481	625.1
584.889	622.9
585.296	626.6
585.726	616.5
586.134	614.7
586.542	620.1
586.95	642.4
587.358	606.8
587.787	619.9
588.196	613.3
588.604	610.9
589.012	617.2
589.421	606.2
589.851	610.6
590.259	617.7
590.668	612.9
591.076	645.9
591.485	607.4
591.894	612.4
592.324	626.8
592.733	616
593.142	596.4
593.551	602.9
593.96	616.2
594.369	597.3
594.8	604.6
595.209	601.1
595.618	592.8
596.028	599.5
596.437	595.4
596.847	602.8
597.256	605.9
597.687	605.8
598.097	600.1
598.507	593.8
598.917	610.8
599.327	606.5
599.736	604.6
600.146	607.3
600.556	602.7
600.988	608.3
601.398	597.2
601.808	603.6
602.219	586.5
602.629	592.5
603.039	601.2
603.45	622.5
603.86	596.6
604.271	610.3
604.703	594.7
605.114	593.1
605.525	589.7
605.935	596.3
606.346	613.1
606.757	597.8
607.168	587.8
607.579	587.7
607.99	604.4
608.402	590.9
608.813	589.9
609.224	581.5
609.636	585.4
610.047	580.2
610.48	589.9
610.892	598.4
611.303	599.2
611.715	589.4
612.127	577.8
612.539	586.2
612.95	590.2
613.362	580
613.774	570.6
614.186	582.6
614.599	583.7
615.011	592
615.423	578.9
615.835	580.6
616.248	578.9
616.66	583.4
617.073	583.6
617.485	580.6
617.898	588.3
618.311	585.9
618.723	581.1
619.136	613.9
619.549	594
619.962	603.5
620.375	578.8
620.788	586.7
621.201	582.5
621.614	588.9
622.028	586.5
622.441	586.7
622.854	599.5
623.268	577.7
623.681	588.6
624.095	585.3
624.509	586.6
624.922	587.6
625.336	568.4
625.728	580
626.142	585.5
626.556	598.4
626.97	590.2
627.384	577.9
627.799	578.9
628.213	591.9
628.627	577.4
629.041	578.3
629.456	576.8
629.87	576.7
630.285	588.2
630.699	586
631.093	576.7
631.507	581.7
631.922	589.5
632.337	590.4
632.752	568.3
633.167	577.4
633.582	579.4
633.997	576.9
634.412	571.4
634.806	574.9
635.221	563.9
635.637	581.9
636.052	563
636.468	576.8
636.883	595.9
637.299	574.6
637.715	560.7
638.109	573.6
638.525	558.1
638.941	581.1
639.357	576.7
639.773	588.2
640.189	570.6
640.584	574.4
641	574.2
641.416	558.6
641.832	571.9
642.249	566.1
642.665	571.7
643.06	576.2
643.477	579.9
643.894	559.4
644.31	575.1
644.727	574.2
645.123	569.7
645.54	564.2
645.957	569.3
646.374	579.6
646.77	570.1
647.187	604.1
647.604	573.4
648.021	561.7
648.439	570.9
648.835	576
649.252	569.4
649.67	570.1
650.088	576.1
650.484	571.7
650.902	575
651.32	578.5
651.738	562.4
652.134	574.9
652.552	597.6
652.971	579.9
653.389	571
653.786	586.3
654.204	574.1
654.622	559.7
655.019	575.5
655.438	577.6
655.857	570.7
656.275	571.4
656.673	565.4
657.091	641.4
657.51	562
657.908	572
658.327	588.7
658.746	562.1
659.144	565.3
659.563	584.3
659.982	573.2
660.38	566
660.8	566.1
661.219	574.4
661.617	570.6
662.037	565.8
662.457	578.8
662.855	553.2
663.275	604.5
663.695	568.5
664.094	570.2
664.514	571.6
664.934	557.2
665.333	577.6
665.753	558.1
666.152	555.7
666.572	563.3
666.993	581.1
667.392	561.4
667.812	564.8
668.212	566.6
668.632	572.3
669.053	568.9
669.453	569.9
669.874	571.5
670.273	569.9
670.694	561.1
671.116	576.8
671.515	580.4
671.937	567.1
672.337	562.5
672.758	566
673.158	577.8
673.58	558.3
673.98	571
674.402	575.8
674.824	567.1
675.224	561.4
675.646	561.1
676.047	558
676.469	561.4
676.869	570.1
677.292	567.9
677.693	563.6
678.115	562.4
678.516	569.4
678.939	575.1
679.34	557.2
679.762	579.5
680.164	575.9
680.586	555.3
680.988	570.4
681.411	593.9
681.812	562.8
682.236	558.9
682.637	558.4
683.061	559.1
683.462	572.6
683.864	564.4
684.288	573.2
684.69	546.5
685.114	572.8
685.516	567.8
685.94	557
686.342	572.9
686.766	559.7
687.168	559.5
687.571	581.2
687.995	566.4
688.398	559.7
688.822	563.6
689.225	582.8
689.628	584.3
690.052	566
690.456	569.1
690.88	563.5
691.284	552.4
691.687	573.2
692.112	553.6
692.515	550.9
692.919	563.7
693.344	564
693.747	559.3
694.173	560.4
694.577	574.3
694.98	568.5
695.406	560.2
695.81	563.4
696.214	570.9
696.64	563.4
697.044	567.4
697.448	573
697.874	557.1
698.279	565.2
698.684	547.7
699.11	556.3
699.514	559.3
699.919	559.7
700.324	554.6
700.75	562.8
701.156	565.1
701.561	572.6
701.987	565.1
702.393	567.7
702.798	574
703.203	566.5
703.63	556.7
704.036	557.7
704.442	564
704.847	551
705.274	554.4
705.68	565.3
706.086	570.4
706.492	552.2
706.92	551.9
707.326	570.7
707.732	556.5
708.139	553.7
708.545	555.5
708.973	558.2
709.38	559.5
709.786	560.3
710.193	576
710.6	563.3
711.028	552.7
711.435	561.5
711.842	560.6
712.249	555.4
712.656	557.7
713.064	566.9
713.492	553.2
713.9	558.4
714.307	565.3
714.715	562.1
715.123	561.2
715.53	564.4
715.938	564.9
716.367	561.9
716.775	557.5
717.184	554.1
717.592	559.2
718	569.3
718.408	592.2
718.816	600.6
719.225	566.5
719.633	561.6
720.042	557.9
720.472	546.5
720.881	579.4
721.29	561.9
721.699	549
722.108	562.3
722.517	563.5
722.926	553.9
723.335	564
723.744	557.5
724.154	560
724.563	558.6
724.973	558.1
725.382	562
725.792	557.7
726.202	551
726.612	566.9
727.022	558.3
727.432	556.1
779.813	562.1
780.223	606
780.634	555.2
781.044	552.9
781.454	558.6
781.865	570.3
782.276	552.3
782.686	566.2
783.097	563.3
783.508	554.7
783.919	560.4
784.33	573.7
784.741	575.8
785.152	550.7
785.563	548.2
785.974	556.3
786.386	567.6
786.776	560.2
787.188	560.6
787.599	549.5
788.011	561.3
788.423	565
788.835	560
789.247	547.6
789.659	552.5
790.071	555.4
790.483	603.1
790.874	555.5
791.286	563.6
791.699	554.8
792.111	557
792.524	557.6
792.937	557.2
793.349	547.1
793.741	551
794.154	555.7
794.567	570.5
794.98	559.6
795.393	546.9
795.785	571.3
796.198	545.7
796.612	555
797.026	554.7
797.439	541.2
797.831	551.2
798.245	545.2
798.659	556.6
799.073	553
799.487	546.3
799.88	559.4
800.294	559.4
800.708	559.4
801.123	556.4
801.516	582.8
801.93	541.6
802.345	543.4
802.76	552.9
803.153	565.2
803.568	568.9
803.983	566.6
804.377	557
804.792	545
805.207	543.2
805.601	559.1
806.016	589.9
806.432	550.7
806.826	584.6
807.242	568.9
807.658	555.2
808.052	553.2
808.468	555.6
808.884	553.2
809.279	558.9
809.695	569.2
810.111	575.3
810.506	557.9
810.922	573.7
811.339	552.7
811.734	558.6
812.151	550.4
812.546	549.7
812.963	551.7
813.38	562.6
813.776	559.4
814.193	575.9
814.589	554.9
815.006	552.3
815.402	551.2
815.82	553.7
816.237	559.8
816.633	558.6
817.051	548.1
817.448	559.4
817.866	541.7
818.262	574.1
818.68	551.7
819.077	554.3
819.495	550.3
819.892	597.1
820.311	552.6
820.708	552.1
821.127	544.9
821.524	565.4
821.943	555.6
822.34	581.4
822.759	561.9
823.157	563.2
823.576	567.9
823.974	556.8
824.393	568
824.791	549
825.189	547.8
825.609	550.2
826.007	556.1
826.427	544.5
826.826	559.6
827.246	553.4
827.644	549.3
828.043	573.3
828.463	557.8
828.862	557.6
829.261	558.9
829.682	545.1
830.081	563.8
830.502	551.2
830.901	558.8
831.301	551.1
831.722	545.3
832.121	552.1
832.521	555.3
832.943	554.8
833.342	555.9
833.742	548.6
834.164	552.3
834.564	550.1
834.965	560.8
835.386	556.9
835.787	551.9
836.188	556.7
836.588	561.5
837.01	559.6
837.411	547.5
837.812	563.6
838.213	554.4
838.636	552.9
839.037	620.8
839.438	557
839.84	553.8
840.263	559.6
840.664	556.7
841.066	555.4
841.468	555.6
841.891	543.5
842.293	570.7
