#lambda/nm	C1
208.295	470.5
208.67	437.5
209.045	400.5
209.419	406.6
209.794	597.4
210.169	576
210.544	704.6
210.919	596.5
211.295	578.6
211.67	594.2
212.045	586.8
212.421	585.2
212.796	628.7
213.172	588
213.547	586.3
213.923	589.2
214.299	585
214.675	600.9
215.051	593.9
215.427	595.6
215.803	614
216.179	599.4
216.555	583.1
216.932	596.8
217.308	587
217.684	591
218.061	594.6
218.438	593.4
218.814	588.9
219.191	596.5
219.568	584.8
219.945	590.3
220.322	596.3
220.699	597.1
221.076	601.7
221.453	594.4
221.83	583.2
222.208	583.6
222.585	586.2
222.962	590.6
223.34	595.3
223.717	589.4
224.095	589.4
224.473	593
224.851	584.1
225.229	573.1
225.607	604
225.985	577.7
226.363	587.2
226.741	592.7
227.119	587.9
227.497	604
227.876	581.4
228.254	594.8
228.633	598
229.011	590.2
229.39	599.9
229.769	591.1
230.148	596
230.527	611
230.905	592.3
231.284	591.6
231.664	591.7
232.043	609.7
232.422	601.8
232.801	588.2
233.181	589.1
233.56	587.8
233.94	587.9
234.319	575.9
234.699	587.7
235.079	627.3
235.458	633.6
235.838	601.9
236.218	582.9
236.598	578.4
236.978	588.8
237.358	580.4
237.738	580.5
238.119	602.3
238.499	583.1
238.88	592.8
239.26	611.4
239.641	575.7
240.021	589.7
240.402	590.8
240.783	594.1
241.163	583.5
241.544	586.7
241.925	596.5
242.306	607.5
242.687	583.6
243.069	589.2
243.45	598.8
243.831	588.9
244.212	584.7
244.594	626.6
244.975	596.1
245.357	594.9
245.739	584.4
246.12	590.9
246.502	605.8
246.884	584.1
247.266	587.7
247.648	594.1
248.03	613.3
248.412	592
248.794	593
249.176	588.4
249.559	602.5
249.941	582.1
250.323	582.3
250.706	584.1
251.089	595.9
251.471	598.6
251.854	595.5
252.237	588.7
252.62	592.6
253.002	593.7
253.385	596.8
253.769	605.9
254.152	594.4
254.535	599
254.918	578.3
255.301	591.4
255.685	592.3
256.068	584.6
256.452	610.3
256.835	599.3
257.219	599.1
257.603	603.9
257.986	582.5
258.37	598.2
258.754	585.2
259.138	596.1
259.522	601.7
259.906	588.1
260.29	594.7
260.675	582.2
261.059	597.3
261.443	586.7
261.828	597.4
262.212	595.1
262.597	584.4
262.981	588.5
263.366	603.8
263.751	597.4
264.136	587.7
264.521	587.6
264.906	584.8
265.291	598.8
265.676	585.6
266.061	598.3
266.446	612.7
266.831	595.6
267.217	606.6
267.602	596.4
267.987	594.9
268.373	587.3
268.759	602.3
269.144	596.6
269.53	590.9
269.916	585.4
270.302	591.9
270.688	595.8
271.074	593.5
271.46	604.6
271.846	626.2
272.232	594.8
272.618	583.2
273.004	591.2
273.391	601.1
273.777	609.1
274.164	596.7
274.55	611.5
274.937	593.7
275.324	590.7
275.71	604.5
276.097	603.1
276.484	584
276.871	597.1
277.258	601.1
277.645	579.3
278.032	592.8
278.419	596.6
278.807	601.3
279.194	586.5
279.581	589.1
279.969	596.3
280.356	589.5
280.744	589.3
281.131	615.3
281.519	597
281.907	586.9
282.295	595.4
282.682	599.3
283.07	595.8
283.458	596.8
283.846	600.8
284.235	600.3
284.623	599.6
285.011	585.4
285.399	592.3
285.788	586.3
286.176	580
286.565	606.1
286.953	587.8
287.342	588.8
287.731	585
288.119	581.2
288.508	585.6
288.897	588.8
289.286	580.6
289.675	590.7
290.064	600.1
290.453	590.1
290.821	585.6
291.21	605.6
291.599	585
291.989	590.7
292.378	600.3
292.768	612.2
293.157	599.9
293.547	602.4
293.936	595.2
294.326	588.6
294.716	600.6
295.106	591.6
295.496	595.8
295.886	600.6
296.276	594
296.666	586.8
297.056	586.4
297.446	584.7
297.836	609.2
298.227	593.1
298.617	596.5
299.008	607.4
299.398	590.8
299.789	585.7
300.179	598.8
300.57	608.1
300.961	584.2
301.352	585.9
301.742	601.8
302.133	597.3
302.524	588.3
302.915	598.6
303.307	590.6
303.698	600.9
304.089	599.5
304.48	592.9
304.872	600.1
305.263	592.6
305.655	587
306.046	591.4
306.438	599.6
306.829	589.4
307.221	606.8
307.613	596.2
308.005	602.5
308.397	608.9
308.789	618
309.181	615.6
309.573	611.7
309.965	606.9
310.357	593.6
310.749	600.2
311.142	586.6
311.534	586.7
311.926	604.6
312.319	600.2
312.711	590.2
313.104	603.3
313.497	591.1
313.889	631.9
314.282	610.4
314.675	622.4
315.068	601.1
315.461	597.9
315.854	621.9
316.247	606
316.64	597.6
317.033	595.6
317.405	603.5
317.798	592.7
318.192	597
318.585	587.7
318.979	599.8
319.372	588.8
319.766	596.4
320.16	605.7
320.553	606.7
320.947	603.1
321.341	585.4
321.735	592.8
322.129	582.4
322.523	611.5
322.917	584.7
323.311	596.5
323.705	598.2
324.099	600.3
324.494	613.3
324.888	602.7
325.282	588.6
325.677	598.4
326.071	602.6
326.466	603
326.861	600.5
327.255	608.5
327.65	612.1
328.045	615.2
328.44	598.4
328.835	588.4
329.23	591.4
329.625	622
330.02	586.3
330.415	614.4
330.81	604.3
331.206	592
331.601	587.3
331.996	603
332.37	604.4
332.766	585.7
333.161	616.2
333.557	595.9
333.953	592.7
334.348	1026.7
334.744	597.4
335.14	593.6
335.536	586.6
335.932	607.1
336.328	591.4
336.724	602
337.12	591.6
337.516	594.8
337.913	594.5
338.309	607.5
338.705	595.4
339.102	605.3
339.498	586
339.895	609.2
340.291	590.6
340.688	598.2
341.085	582.7
341.481	586.5
341.878	594
342.275	606.8
342.672	587.7
343.069	588.1
343.466	579.9
343.842	598.7
344.239	588.7
344.636	599.1
345.033	585
345.431	586.3
345.828	589.2
346.225	584.5
346.623	599.6
347.02	593.3
347.418	598.5
347.816	606.4
348.213	583.3
348.611	598.3
349.009	591.4
349.407	603.4
349.805	583
350.203	576.6
350.601	604.4
350.999	584.5
351.397	587.5
351.795	595
352.193	599
352.57	600
352.969	598.8
353.367	582.1
353.766	585
354.164	588.6
354.563	598.7
354.961	591
355.36	587.5
355.759	590.4
356.158	580.3
356.557	585.2
356.956	577.4
357.355	577.5
357.754	594.5
358.153	596.8
358.552	610.8
358.951	580.1
359.35	593.6
359.75	585.7
360.149	576.9
360.527	576.5
360.926	577
361.326	590.5
361.726	583.9
362.125	579.6
362.525	598.6
362.925	581.5
363.325	588.9
363.724	584.1
364.124	585.3
364.524	580.5
364.924	581.4
365.324	601.6
365.725	574.6
366.125	589.9
366.525	588.9
366.904	584.2
367.304	572.9
367.705	608.5
368.105	601.2
368.506	587.4
368.906	588.1
369.307	587.2
369.708	590.2
370.108	576.7
370.509	593.8
370.91	582.1
371.311	583.1
371.712	589.1
372.113	587.3
372.514	576.2
372.894	586.4
373.295	578.1
373.696	596.1
374.097	597.8
374.499	619.9
374.9	587.1
375.301	581.5
375.703	588.8
376.105	571.8
376.506	595.1
376.908	591.4
377.309	583.7
377.711	587.4
378.113	581.9
378.493	586
378.895	575
379.297	593.3
379.699	577.6
380.102	588.6
380.504	587.7
380.906	583.2
381.308	611
381.71	583.2
382.113	599.2
382.515	581.2
382.918	587.9
383.299	581.6
383.701	595.8
384.104	587.5
384.507	563.1
384.909	581.4
385.312	567.8
385.715	579.1
386.118	583.1
386.521	569.1
386.924	591.1
387.327	578.4
387.709	576
388.112	569.7
388.515	581.3
388.918	583.3
389.322	592.4
389.725	579.3
390.129	602
390.532	590.8
390.936	584.2
391.339	580
391.743	584
392.125	576.1
392.529	598.3
392.933	593.7
393.337	590.6
393.74	590.8
394.144	584.6
394.548	575.1
394.953	580.5
395.357	587.5
395.761	580.4
396.144	593.6
396.548	584.5
396.952	587.2
397.357	585.7
397.761	585.1
398.166	583.3
398.57	580.8
398.975	576.2
399.379	584
399.763	632.7
400.168	581.2
400.572	586.1
400.977	579.4
401.382	606.4
401.787	598.1
402.192	604.5
402.597	599.5
403.002	572.9
403.386	600.4
403.791	601.4
404.197	578.9
404.602	581.8
405.007	587.7
405.413	583.1
405.818	578.4
406.224	576.7
406.608	583
407.014	574.2
407.42	596.4
407.825	581.9
408.231	599.7
408.637	589.6
409.043	603
409.449	583.9
409.834	576.1
410.24	586.9
410.646	596.6
411.052	594
411.458	594
411.865	591.8
412.271	590.4
412.677	585.4
413.062	592.6
413.469	573.3
413.875	617.4
414.282	603.2
414.689	588.7
415.095	589.7
415.502	580.2
415.888	576.6
416.294	572.6
416.701	630.5
417.108	583.2
417.515	593.8
417.923	585.5
418.33	603.4
418.715	592.7
419.123	581.9
419.53	586.5
419.937	586.8
420.345	595.5
420.752	582.5
421.16	603.4
421.546	584.5
421.953	592.2
422.361	577.7
422.769	586.4
423.177	579.6
423.585	610.7
423.992	600.9
424.379	598.5
424.787	601.4
425.195	608.4
425.603	589.9
426.011	600.2
426.419	602.4
426.806	589.7
427.214	586.3
427.623	603.2
428.031	605.5
428.44	590.5
428.848	598.8
429.235	602.2
429.644	591.1
430.053	586.3
430.461	600
430.87	613.4
431.279	592.9
431.666	575.8
432.075	593.9
432.484	597
432.893	585.5
433.302	606.2
433.711	628
434.099	586.3
434.508	580.5
434.918	575.9
435.327	597.9
435.737	590.1
436.125	584.8
436.534	591.2
436.944	589.9
437.353	594.1
437.763	607
438.173	576
438.561	593
438.971	576.7
439.381	586.6
439.791	590.7
440.201	568.2
440.589	586.5
440.999	591.8
441.409	595.7
441.819	574.6
442.23	594.1
442.619	591.2
443.029	589.7
443.439	588.4
443.85	599
444.26	602
444.649	599
445.06	586.7
445.471	576.9
445.881	586
446.292	599.1
446.682	606.9
447.092	576.3
447.503	635
447.914	589.8
448.325	587.5
448.715	587.4
449.126	578.8
449.537	585.6
449.948	585.1
450.338	584.1
450.75	591
451.161	588.5
451.572	592.6
451.984	578.2
452.374	567.8
452.786	583.2
453.197	590
453.609	588.2
453.999	566.5
454.411	572.9
454.823	588.3
455.235	584.7
455.647	580.6
456.037	591.4
456.449	568.6
456.862	586.2
457.274	582.1
457.665	578.4
458.077	592.5
458.489	598.1
458.902	579.3
459.293	583.4
459.705	581.1
460.118	580.3
460.53	590.4
460.921	581.7
461.334	585.1
461.747	583.8
462.16	595.2
462.551	600.2
462.964	592.3
463.377	579.4
463.79	587.8
464.182	593.5
464.595	579.1
465.008	586.6
465.421	591.7
465.813	576.3
466.226	596.6
466.64	582.4
467.053	628.5
467.445	591.5
467.859	580.3
468.272	580.1
468.686	596.2
469.078	581.9
469.492	571.9
469.906	589
470.298	584.6
470.712	575.8
471.126	617.8
471.54	571
471.933	572.5
472.347	579.7
472.761	574.6
473.175	568.8
473.568	578.5
473.982	571.5
474.397	585
474.79	580.8
475.204	590
475.619	579
476.033	586.1
476.426	578.4
476.841	579.9
477.256	601.3
477.649	569.5
478.064	565
478.479	572.2
478.872	568.6
479.287	564.7
479.702	576.7
480.118	574
480.511	582.7
480.927	566.6
481.342	575.9
481.736	583.2
482.151	575.4
482.566	592.4
482.96	581.2
483.376	593.2
483.792	575.9
484.186	583.7
484.602	577.5
485.017	579.7
485.412	579.7
485.827	584.7
486.243	575.9
486.638	600.4
487.054	593
487.47	593.7
487.865	575.9
488.281	572.7
488.697	572.5
489.092	582.3
489.508	575.2
489.925	586.6
490.32	570
490.736	586.9
491.153	576.8
491.548	582
491.964	586.1
492.381	568.8
492.776	583.5
493.193	573.6
493.61	587.6
494.006	575.4
494.422	590.3
494.84	568.4
495.235	589
495.652	580.3
496.069	578.5
496.465	565.7
496.883	578.2
497.3	592.8
497.696	574.2
498.113	580.7
498.509	567.1
498.927	565.4
499.344	576.6
499.741	573.6
500.158	587.3
500.576	588
500.973	582.4
501.39	572.6
501.787	572.7
502.205	582.2
502.623	573
503.02	565.5
503.438	569.8
503.856	570.6
504.253	580.5
504.671	572.2
505.068	569
505.486	575.8
505.905	591.5
506.302	579.5
506.72	589.6
507.118	573.4
507.536	576.4
507.955	573.6
508.352	577.3
508.771	578.1
509.169	583.8
509.587	567.1
510.006	575.7
510.404	559.4
510.823	570.2
511.221	573.3
511.64	571.3
512.038	588.2
512.457	572.4
512.877	570.4
513.275	568.1
513.694	575.3
514.092	572.5
514.512	576.8
514.91	569
515.33	572.2
515.749	572.4
516.148	580.4
516.568	579.9
516.966	571.5
517.386	573.9
517.785	572.6
518.205	570.7
518.603	571.1
519.024	567.7
519.444	579.9
519.843	583.6
520.263	573.6
520.662	576.7
521.082	570
521.481	581.5
521.902	570
522.301	578
522.722	572.7
523.121	573.9
523.542	578.2
523.963	567.6
524.362	569.4
524.783	576.9
525.183	573.7
525.604	574.8
526.003	572.7
526.425	566.8
526.824	579.8
527.246	579.2
527.646	583.5
528.067	574.6
528.467	575.8
528.888	584.7
529.289	570.3
529.71	576.1
530.11	567.3
530.532	565.8
530.932	563.6
531.354	564.5
531.755	601.1
532.176	575.1
532.577	574.1
532.999	577.2
533.4	569.4
533.822	582.9
534.223	569.5
534.645	568.2
535.046	571
535.468	574.1
535.869	580.2
536.292	573.7
536.693	569.8
537.115	572.1
537.516	572.3
537.939	567.5
538.34	588.9
538.742	582.2
539.165	574.9
539.566	570.1
539.989	566.3
540.391	574.6
540.814	569
541.216	575.3
541.639	569.7
542.041	581.9
542.464	568.3
542.866	563.4
543.268	563.2
543.691	575.5
544.093	579.3
544.517	587.1
544.919	565.3
545.343	595.8
545.745	568.6
546.147	570.8
546.571	567.7
546.974	560.4
547.398	572.3
547.8	577.6
548.224	570.7
548.627	560.5
549.03	575.7
549.454	566
549.857	564.9
550.281	561.2
550.684	571.6
551.087	577.6
551.512	573
551.915	575.2
552.34	573.3
552.743	559.6
553.146	568.1
553.571	571.6
553.975	591.1
554.399	563.1
554.803	620.3
555.207	570.6
555.632	567.5
556.036	574.1
556.461	561
556.865	572.5
557.268	560
557.694	567.4
558.098	577.9
558.502	571
558.927	566.5
559.332	569
559.736	574.3
560.162	576.9
560.566	564.2
560.992	575.5
561.396	572
561.801	566
562.227	577.7
562.631	570
563.036	569.5
563.462	581
563.867	572.9
564.272	561.5
564.698	574.4
565.103	556.4
565.508	582.6
565.935	566.1
566.34	570.9
566.745	577.8
567.172	568.9
567.577	593.7
567.982	578.5
568.409	573
568.815	562.6
569.22	568.4
569.626	573.8
570.053	557.1
570.459	575.6
570.865	576.9
571.292	576.6
571.698	577.5
572.104	558.4
572.531	565.2
572.937	579.7
573.343	575.4
573.75	563.9
574.177	576.1
574.583	582.8
574.99	571.7
575.396	571.7
575.824	564
576.231	574.8
576.637	561.5
577.065	597.9
577.472	566.4
577.879	570
578.286	585.5
578.714	565.2
579.121	565.2
579.528	569
579.935	577.6
580.364	568
580.771	551.4
581.178	563.2
581.585	575.7
582.014	574
582.421	567.2
582.829	565.9
583.236	575
583.644	561.4
584.073	564.5
584.481	565.1
584.889	561.2
585.296	571.2
585.726	568.8
586.134	560
586.542	556.7
586.95	579.8
587.358	560.7
587.787	563.2
588.196	564.7
588.604	565.7
589.012	571
589.421	559.5
589.851	556.9
590.259	570
590.668	569
591.076	605
591.485	558.8
591.894	564.7
592.324	579.1
592.733	581.2
593.142	556.5
593.551	563.7
593.96	579.5
594.369	556.7
594.8	563.3
595.209	569.6
595.618	555
596.028	564.1
596.437	561.7
596.847	566.9
597.256	571.4
597.687	570.4
598.097	564.7
598.507	560.8
598.917	569.8
599.327	575
599.736	564.7
600.146	575.9
600.556	568.3
600.988	580.5
601.398	561.5
601.808	573.2
602.219	555.8
602.629	568.3
603.039	573.4
603.45	589
603.86	568
604.271	582.8
604.703	573.6
605.114	566.1
605.525	571.1
605.935	570.3
606.346	586.6
606.757	571
607.168	563.9
607.579	562.4
607.99	581.1
608.402	572.5
608.813	573.1
609.224	562.3
609.636	559.8
610.047	561.2
610.48	569.8
610.892	570.4
611.303	573.9
611.715	567
612.127	560.1
612.539	570.7
612.95	563.1
613.362	555.2
613.774	558.7
614.186	570.5
614.599	560.6
615.011	575.9
615.423	558.6
615.835	558.3
616.248	556.7
616.66	568.9
617.073	563.3
617.485	563.7
617.898	579.7
618.311	564.5
618.723	562.7
619.136	593.9
619.549	579.1
619.962	587.2
620.375	565.1
620.788	566.4
621.201	561.6
621.614	575.9
622.028	563.9
622.441	568.6
622.854	582
623.268	563.9
623.681	564.8
624.095	568
624.509	581.8
624.922	566.2
625.336	557.2
625.728	568.9
626.142	576.8
626.556	585.9
626.97	571.5
627.384	558.4
627.799	565.1
628.213	574.2
628.627	560.9
629.041	564.4
629.456	570.6
629.87	566.6
630.285	571.6
630.699	576.1
631.093	570.4
631.507	568
631.922	575.5
632.337	586.7
632.752	557.6
633.167	565.5
633.582	569.7
633.997	568.3
634.412	561.6
634.806	570
635.221	561.4
635.637	579.8
636.052	549.7
636.468	571.7
636.883	586.5
637.299	568.2
637.715	550.6
638.109	562.3
638.525	552.5
638.941	574.7
639.357	571.8
639.773	585.9
640.189	559.2
640.584	566.7
641	565.7
641.416	556
641.832	561.4
642.249	561.1
642.665	556.4
643.06	568.1
643.477	569.8
643.894	551.1
644.31	559.1
644.727	562.4
645.123	557.8
645.54	559.5
645.957	570.1
646.374	572.7
646.77	564.9
647.187	593.8
647.604	565.9
648.021	551.4
648.439	556.6
648.835	569.9
649.252	566.6
649.67	561.5
650.088	569.5
650.484	572.6
650.902	571.7
651.32	569.8
651.738	564.3
652.134	571.3
652.552	579.5
652.971	565
653.389	564.3
653.786	579.1
654.204	562.5
654.622	556.4
655.019	564.2
655.438	571.4
655.857	567.1
656.275	570.9
656.673	558
657.091	637.3
657.51	561
657.908	571.8
658.327	581
658.746	553.2
659.144	563.5
659.563	578.6
659.982	570.4
660.38	557.3
660.8	564.4
661.219	581.1
661.617	568.5
662.037	563.7
662.457	573
662.855	548.7
663.275	595.9
663.695	558.6
664.094	562
664.514	568.1
664.934	553.9
665.333	570.9
665.753	557.9
666.152	556.2
666.572	559.4
666.993	573.6
667.392	560.1
667.812	558.9
668.212	558
668.632	570.3
669.053	562.4
669.453	565.8
669.874	568.5
670.273	570.3
670.694	558
671.116	576
671.515	571.3
671.937	560.2
672.337	562.6
672.758	564.9
673.158	575.7
673.58	556.3
673.98	569
674.402	580.9
674.824	563.2
675.224	554.8
675.646	553.9
676.047	561
676.469	561.3
676.869	569.1
677.292	560.9
677.693	561.2
678.115	555.7
678.516	570.1
678.939	571.8
679.34	561.8
679.762	574
680.164	566.9
680.586	557
680.988	566.8
681.411	587.1
681.812	558.5
682.236	557.5
682.637	559.4
683.061	554
683.462	560.7
683.864	557.7
684.288	569.6
684.69	552.9
685.114	572.3
685.516	575.4
685.94	552.7
686.342	575.5
686.766	560
687.168	556.8
687.571	587.3
687.995	565.7
688.398	555.6
688.822	567.1
689.225	582
689.628	584.1
690.052	563.7
690.456	570.6
690.88	560.7
691.284	557.8
691.687	568.9
692.112	557.2
692.515	562.1
692.919	563.9
693.344	562.9
693.747	555.3
694.173	561.6
694.577	575.4
694.98	560.6
695.406	558.7
695.81	565.3
696.214	565.6
696.64	567
697.044	563
697.448	571.9
697.874	566.4
698.279	561.6
698.684	554.1
699.11	554.8
699.514	561.6
699.919	555.8
700.324	553.8
700.75	564.1
701.156	564.7
701.561	575
701.987	566.6
702.393	570.6
702.798	574.2
703.203	564.5
703.63	559.3
704.036	561.1
704.442	570.6
704.847	563.4
705.274	565.4
705.68	569.3
706.086	568.7
706.492	550.8
706.92	563.8
707.326	569.9
707.732	559.4
708.139	556.9
708.545	549.6
708.973	559.3
709.38	560.1
709.786	554.9
710.193	570.4
710.6	561.6
711.028	555.2
711.435	561.5
711.842	560.7
712.249	555.9
712.656	560.9
713.064	570.3
713.492	556.1
713.9	555.7
714.307	569.2
714.715	562.4
715.123	562.8
715.53	560.5
715.938	572.7
716.367	559.6
716.775	563.7
717.184	555.9
717.592	558.9
718	575.4
718.408	590.7
718.816	605.4
719.225	564.8
719.633	558.7
720.042	550.6
720.472	552.2
720.881	578.1
721.29	562.6
721.699	551.6
722.108	562.9
722.517	568.1
722.926	560.7
723.335	574.3
723.744	559.2
724.154	564
724.563	561.6
724.973	562
725.382	562.9
725.792	559.7
726.202	552.4
726.612	572.1
727.022	562.1
727.432	560.1
779.813	559.5
780.223	603.2
780.634	557.7
781.044	558.4
781.454	565.3
781.865	573.8
782.276	551.6
782.686	574.1
783.097	558.7
783.508	560.8
783.919	564.1
784.33	572.8
784.741	574.7
785.152	554.3
785.563	547.6
785.974	558.5
786.386	574.9
786.776	559.2
787.188	557.1
787.599	554.3
788.011	567.8
788.423	561.8
788.835	562.8
789.247	548.9
789.659	553.9
790.071	557.2
790.483	597.5
790.874	557.5
791.286	565.3
791.699	550.3
792.111	558.4
792.524	564.8
792.937	564.2
793.349	554.5
793.741	558
794.154	551.4
794.567	576.6
794.98	555.2
795.393	545.3
795.785	576.8
796.198	553.6
796.612	559.6
797.026	558.7
797.439	542.8
797.831	552.8
798.245	549.4
798.659	558
799.073	552.4
799.487	552.1
799.88	563.4
800.294	561.1
800.708	569
801.123	562.3
801.516	577.5
801.93	554.2
802.345	548
802.76	559.4
803.153	574.6
803.568	578.9
803.983	569.8
804.377	562.9
804.792	544.3
805.207	545.3
805.601	558.9
806.016	596.3
806.432	553.2
806.826	591.8
807.242	572.1
807.658	558.1
808.052	555
808.468	563.3
808.884	555.9
809.279	555.7
809.695	573.7
810.111	577.3
810.506	559
810.922	575.5
811.339	560.3
811.734	563.4
812.151	553.7
812.546	556.4
812.963	551.8
813.38	562.8
813.776	558
814.193	583.3
814.589	557
815.006	554
815.402	554.9
815.82	550.2
816.237	559.4
816.633	560.6
817.051	549.4
817.448	558
817.866	549.7
818.262	571.4
818.68	550.8
819.077	558.3
819.495	556.7
819.892	593.5
820.311	551
820.708	553.9
821.127	559.3
821.524	569.6
821.943	559.1
822.34	574.8
822.759	563.7
823.157	558.5
823.576	569
823.974	567.4
824.393	566.6
824.791	559.7
825.189	551
825.609	557.8
826.007	558.9
826.427	550.2
826.826	555.6
827.246	561.8
827.644	546.3
828.043	569.6
828.463	556.6
828.862	569.1
829.261	564.7
829.682	550
830.081	561.7
830.502	549.6
830.901	559.1
831.301	553
831.722	550.6
832.121	563.9
832.521	553.5
832.943	556.3
833.342	556.6
833.742	552.5
834.164	556.8
834.564	546.6
834.965	558.1
835.386	553.4
835.787	555.7
836.188	560
836.588	560.9
837.01	553.3
837.411	549.2
837.812	561.6
838.213	562.6
838.636	554.1
839.037	627.2
839.438	559.8
839.84	561.5
840.263	563.7
840.664	559.8
841.066	550.2
841.468	558.6
841.891	554.1
842.293	568.4
842.695	560.1
843.098	567.1
843.5	555.6
843.902	561.7
844.326	562.1
844.729	552
845.131	572.4
845.534	556.1
845.937	563.6
846.34	572
846.764	549.9
847.167	562.7
847.571	549.6
847.974	557.3
848.377	560.1
