#lambda/nm	C1
208.295	471.9
208.67	438.2
209.045	402.6
209.419	407.8
209.794	592.4
210.169	579.6
210.544	697.2
210.919	594.6
211.295	588.6
211.67	595.5
212.045	582.4
212.421	588
212.796	625.2
213.172	579.7
213.547	591
213.923	584
214.299	582.4
214.675	594.8
215.051	596.8
215.427	595.3
215.803	612.5
216.179	594.4
216.555	582.5
216.932	596.9
217.308	589
217.684	590.7
218.061	601.6
218.438	596.3
218.814	584.1
219.191	596.7
219.568	583.7
219.945	584.3
220.322	596.5
220.699	598.5
221.076	602.9
221.453	592.8
221.83	583.2
222.208	585.7
222.585	591.7
222.962	595.1
223.34	597.4
223.717	590.1
224.095	588.3
224.473	596.4
224.851	586.8
225.229	581.8
225.607	604.9
225.985	582.3
226.363	588.2
226.741	591.6
227.119	594.1
227.497	601.1
227.876	587.7
228.254	600.4
228.633	597.6
229.011	590.1
229.39	592.7
229.769	594.7
230.148	596.1
230.527	606.2
230.905	590.1
231.284	596.2
231.664	583.9
232.043	600.1
232.422	602.5
232.801	580.6
233.181	592.3
233.56	586.8
233.94	590.9
234.319	579.1
234.699	590.8
235.079	630.2
235.458	621.2
235.838	610.1
236.218	584.2
236.598	583.7
236.978	586.8
237.358	585.4
237.738	588.9
238.119	607
238.499	579.6
238.88	592.8
239.26	604.8
239.641	581
240.021	585.4
240.402	592
240.783	586.3
241.163	591.1
241.544	593.4
241.925	597.1
242.306	607.7
242.687	587.3
243.069	592.6
243.45	599
243.831	587.9
244.212	594.9
244.594	629.2
244.975	598.8
245.357	596
245.739	588.6
246.12	592.7
246.502	606.1
246.884	588
247.266	591.1
247.648	590.7
248.03	610.8
248.412	589.9
248.794	593.3
249.176	586.9
249.559	599.7
249.941	583.8
250.323	580.7
250.706	585.8
251.089	593.2
251.471	595
251.854	591.9
252.237	592.6
252.62	601.4
253.002	593.6
253.385	589.4
253.769	606.7
254.152	589.6
254.535	599.8
254.918	583.1
255.301	589.3
255.685	590.3
256.068	580.1
256.452	613.3
256.835	604.1
257.219	601.4
257.603	601.1
257.986	584.5
258.37	596.1
258.754	582.8
259.138	599.4
259.522	605.3
259.906	588.8
260.29	595.8
260.675	589
261.059	591.3
261.443	584.9
261.828	602.9
262.212	603.5
262.597	577.8
262.981	589.2
263.366	602.5
263.751	594.2
264.136	585.7
264.521	590.9
264.906	584.8
265.291	599.4
265.676	586
266.061	601.2
266.446	609.9
266.831	595.1
267.217	610.5
267.602	592.6
267.987	598.9
268.373	587.1
268.759	598.1
269.144	599.3
269.53	588.4
269.916	592.8
270.302	590.2
270.688	595.6
271.074	599.7
271.46	601.8
271.846	627.2
272.232	593.7
272.618	584.9
273.004	590.6
273.391	607.5
273.777	609.2
274.164	597
274.55	607.7
274.937	595.4
275.324	589.6
275.71	604.2
276.097	600.6
276.484	585.2
276.871	592.6
277.258	597
277.645	577.4
278.032	587.6
278.419	585.7
278.807	597
279.194	582.6
279.581	579.5
279.969	597.6
280.356	594.6
280.744	594
281.131	620.5
281.519	602.1
281.907	589.6
282.295	587.8
282.682	600.5
283.07	594.7
283.458	601.4
283.846	596.7
284.235	606
284.623	600.6
285.011	579.4
285.399	590.4
285.788	594.7
286.176	584.6
286.565	598.5
286.953	589.4
287.342	586.1
287.731	580.2
288.119	583.6
288.508	586.6
288.897	592.6
289.286	578.4
289.675	594.2
290.064	602.1
290.453	588.1
290.821	588.1
291.21	603.1
291.599	583.7
291.989	588.7
292.378	595.9
292.768	608.4
293.157	597.9
293.547	604
293.936	584.2
294.326	584.1
294.716	598.2
295.106	588.3
295.496	592.8
295.886	599.3
296.276	593.2
296.666	589.7
297.056	580.1
297.446	580.6
297.836	612.3
298.227	592.5
298.617	595
299.008	601.9
299.398	583.6
299.789	583.2
300.179	603
300.57	602.4
300.961	584.3
301.352	587
301.742	599.8
302.133	596.8
302.524	592.5
302.915	597.4
303.307	587.3
303.698	603.3
304.089	592.6
304.48	594.6
304.872	590.9
305.263	594.2
305.655	585.7
306.046	600.8
306.438	593
306.829	585.8
307.221	607.2
307.613	594.1
308.005	604.9
308.397	604.3
308.789	611.9
309.181	621.6
309.573	614.4
309.965	610.7
310.357	595.6
310.749	599.8
311.142	582.7
311.534	588.4
311.926	604.5
312.319	601.5
312.711	587.9
313.104	600.4
313.497	592.6
313.889	635.5
314.282	608.3
314.675	620.3
315.068	598.7
315.461	602.8
315.854	620.8
316.247	601.7
316.64	596.2
317.033	592.1
317.405	600.1
317.798	592.6
318.192	590.4
318.585	587.1
318.979	597.3
319.372	590.4
319.766	587.9
320.16	607.6
320.553	604.6
320.947	614.8
321.341	591.3
321.735	590.9
322.129	580.2
322.523	620.3
322.917	587.9
323.311	597.1
323.705	599.5
324.099	599.4
324.494	604.9
324.888	604
325.282	596.8
325.677	596
326.071	604.2
326.466	606.6
326.861	600.6
327.255	600.9
327.65	604.8
328.045	607.5
328.44	593.9
328.835	590.9
329.23	583.1
329.625	619.7
330.02	594.6
330.415	618.6
330.81	596.5
331.206	597.1
331.601	591.8
331.996	602.2
332.37	604.4
332.766	582
333.161	619.2
333.557	586
333.953	593.9
334.348	1039.7
334.744	595.3
335.14	586
335.536	594.5
335.932	612.4
336.328	593.7
336.724	605
337.12	591.7
337.516	593.3
337.913	591.6
338.309	611.4
338.705	598
339.102	603.2
339.498	596.2
339.895	605.7
340.291	587.3
340.688	608.6
341.085	583
341.481	594.4
341.878	596.9
342.275	613.9
342.672	587.7
343.069	584.5
343.466	581.1
343.842	600.6
344.239	584.2
344.636	593.4
345.033	581.3
345.431	580.8
345.828	586.8
346.225	584.8
346.623	595.2
347.02	593.8
347.418	596.9
347.816	601.4
348.213	584.4
348.611	597
349.009	587.9
349.407	608.2
349.805	580.6
350.203	578.5
350.601	604.7
350.999	583.9
351.397	584.1
351.795	589.4
352.193	601.3
352.57	602.5
352.969	599.3
353.367	583.2
353.766	583
354.164	588.7
354.563	601.2
354.961	592.3
355.36	584.7
355.759	590.3
356.158	579.4
356.557	584.7
356.956	580.5
357.355	579.1
357.754	588.3
358.153	596.4
358.552	608.6
358.951	591.1
359.35	594.7
359.75	586.7
360.149	580.4
360.527	569.6
360.926	576.3
361.326	591.7
361.726	585.8
362.125	581.7
362.525	596
362.925	582.1
363.325	590.1
363.724	586.7
364.124	582.2
364.524	581.9
364.924	590.3
365.324	603.8
365.725	576.3
366.125	587.9
366.525	592.3
366.904	582
367.304	568.4
367.705	608.6
368.105	605.6
368.506	583.6
368.906	583.1
369.307	584.9
369.708	592.9
370.108	571.6
370.509	594.8
370.91	582.3
371.311	589
371.712	583.7
372.113	584.3
372.514	576.1
372.894	588.1
373.295	578.7
373.696	588.5
374.097	590.6
374.499	611.3
374.9	586.6
375.301	574
375.703	586.2
376.105	574.5
376.506	592.7
376.908	591.7
377.309	585.8
377.711	582.2
378.113	581.7
378.493	584.5
378.895	581.6
379.297	596.3
379.699	572.5
380.102	591.5
380.504	593.5
380.906	582.1
381.308	613
381.71	586.3
382.113	593.3
382.515	582.5
382.918	589.2
383.299	583.1
383.701	591.6
384.104	585.7
384.507	570.4
384.909	579.6
385.312	569.7
385.715	570.3
386.118	582.9
386.521	572.6
386.924	597.5
387.327	577
387.709	569.9
388.112	572.2
388.515	583.8
388.918	583.8
389.322	584.8
389.725	578
390.129	607.3
390.532	590.8
390.936	579
391.339	580
391.743	586.9
392.125	576.6
392.529	590.9
392.933	594
393.337	583
393.74	585.6
394.144	583.9
394.548	574.8
394.953	578.9
395.357	595.7
395.761	581.3
396.144	581.9
396.548	583.3
396.952	583
397.357	585.1
397.761	579
398.166	576.9
398.57	583.3
398.975	575.2
399.379	589.5
399.763	636.7
400.168	588.7
400.572	586.3
400.977	582.3
401.382	600.9
401.787	591.9
402.192	599.5
402.597	598.9
403.002	575.9
403.386	598.1
403.791	606.5
404.197	584.8
404.602	582.3
405.007	589.8
405.413	581
405.818	585.8
406.224	579.5
406.608	582.7
407.014	574
407.42	603.2
407.825	579.9
408.231	590.8
408.637	584.9
409.043	596.2
409.449	579.4
409.834	576.5
410.24	589.3
410.646	599
411.052	594.8
411.458	586.8
411.865	593.9
412.271	598.1
412.677	587.3
413.062	589.8
413.469	580.2
413.875	614
414.282	602.6
414.689	587.2
415.095	593.7
415.502	577.1
415.888	584.2
416.294	576.8
416.701	630.1
417.108	584.4
417.515	591.7
417.923	587
418.33	599.8
418.715	593.6
419.123	580.1
419.53	581.8
419.937	584.9
420.345	597.6
420.752	583
421.16	593.6
421.546	585.8
421.953	592.6
422.361	577.8
422.769	587.3
423.177	581.6
423.585	612.8
423.992	610.9
424.379	598
424.787	602.5
425.195	609.4
425.603	595.3
426.011	601.1
426.419	600.7
426.806	596.6
427.214	592.9
427.623	597.7
428.031	605.5
428.44	594.1
428.848	604.2
429.235	603.5
429.644	592.1
430.053	586.7
430.461	597.9
430.87	613.1
431.279	597.8
431.666	579.1
432.075	587.8
432.484	593.7
432.893	588.8
433.302	609
433.711	633.7
434.099	596.5
434.508	589.4
434.918	573.1
435.327	597.2
435.737	595.9
436.125	593.2
436.534	586.3
436.944	591.4
437.353	592.9
437.763	608.8
438.173	581
438.561	599.7
438.971	568.8
439.381	585.5
439.791	591
440.201	565
440.589	586.8
440.999	586.6
441.409	588.6
441.819	571.5
442.23	591.6
442.619	593
443.029	585.2
443.439	583.3
443.85	599.1
444.26	610.5
444.649	590.5
445.06	594.6
445.471	582.6
445.881	586.8
446.292	606.6
446.682	613.5
447.092	572.3
447.503	634
447.914	590
448.325	587.4
448.715	584.8
449.126	578.8
449.537	586.2
449.948	587.2
450.338	587.6
450.75	587.3
451.161	595.7
451.572	599.1
451.984	578.3
452.374	568.4
452.786	580.5
453.197	587.9
453.609	596.8
453.999	580.4
454.411	582
454.823	596.9
455.235	593.4
455.647	584.2
456.037	586.6
456.449	567.2
456.862	584.7
457.274	583.8
457.665	570.4
458.077	583.9
458.489	598.3
458.902	582.3
459.293	586.6
459.705	583.5
460.118	572.7
460.53	587.8
460.921	588.9
461.334	586.9
461.747	590.5
462.16	598
462.551	594.7
462.964	589.8
463.377	569.4
463.79	580.5
464.182	593.6
464.595	580.7
465.008	591.3
465.421	579
465.813	580.8
466.226	592.7
466.64	583.3
467.053	631.1
467.445	598.6
467.859	582.7
468.272	584.2
468.686	597.3
469.078	580.8
469.492	570.2
469.906	578.7
470.298	593.6
470.712	577.4
471.126	615.9
471.54	566
471.933	573.2
472.347	580.8
472.761	575.2
473.175	571.6
473.568	572
473.982	562.8
474.397	576.4
474.79	579.6
475.204	584.3
475.619	578.5
476.033	584.5
476.426	581.9
476.841	579.5
477.256	606.6
477.649	578.1
478.064	576.5
478.479	571.8
478.872	566.8
479.287	570.9
479.702	568.9
480.118	580
480.511	581.5
480.927	568.5
481.342	566.2
481.736	580.9
482.151	570
482.566	584.1
482.96	581.1
483.376	588.8
483.792	574.3
484.186	580.1
484.602	571.6
485.017	582.5
485.412	573.6
485.827	586.6
486.243	578.7
486.638	602.9
487.054	585.8
487.47	590.7
487.865	576.7
488.281	577.5
488.697	573.1
489.092	577.9
489.508	568.2
489.925	588.6
490.32	566.2
490.736	581.6
491.153	579.3
491.548	584.5
491.964	590.2
492.381	564.4
492.776	578.2
493.193	574.9
493.61	581.5
494.006	583.5
494.422	585.8
494.84	571.9
495.235	585.7
495.652	573.1
496.069	581.9
496.465	568.5
496.883	575.8
497.3	602
497.696	573
498.113	582.5
498.509	568.1
498.927	566.7
499.344	571.1
499.741	570.4
500.158	579.6
500.576	588.8
500.973	574.8
501.39	569.8
501.787	569.3
502.205	577.3
502.623	569.9
503.02	562.9
503.438	571.2
503.856	572.6
504.253	577.3
504.671	579.1
505.068	573.5
505.486	565.8
505.905	592.7
506.302	577.6
506.72	583.2
507.118	567.2
507.536	575.5
507.955	570.1
508.352	578.8
508.771	584.7
509.169	576.5
509.587	572.3
510.006	574.5
510.404	566.4
510.823	567.2
511.221	573.9
511.64	574.8
512.038	589.1
512.457	571.7
512.877	573.9
513.275	571.2
513.694	569.8
514.092	573.8
514.512	578.1
514.91	571.3
515.33	576.8
515.749	576.4
516.148	575.1
516.568	580.5
516.966	570.7
517.386	572
517.785	575.9
518.205	568.1
518.603	566.9
519.024	568.8
519.444	571.6
519.843	580.9
520.263	572.5
520.662	578.5
521.082	566.4
521.481	579.7
521.902	568.2
522.301	577.8
522.722	577.7
523.121	570.4
523.542	572.6
523.963	578.7
524.362	576.9
524.783	580.9
525.183	572.5
525.604	572.4
526.003	569
526.425	571.4
526.824	580.2
527.246	580.9
527.646	585.5
528.067	577.9
528.467	574
528.888	583.1
529.289	573.2
529.71	579.4
530.11	568.7
530.532	568.6
530.932	564.9
531.354	563.1
531.755	608.6
532.176	578.6
532.577	572.9
532.999	576
533.4	565.1
533.822	583.2
534.223	572.4
534.645	570.2
535.046	572.2
535.468	575.5
535.869	588.1
536.292	566.9
536.693	572.8
537.115	573
537.516	565.8
537.939	568
538.34	581.6
538.742	581.1
539.165	575.8
539.566	574.5
539.989	564
540.391	567.2
540.814	576.3
541.216	579.4
541.639	576.5
542.041	578.6
542.464	566.4
542.866	569.5
543.268	563.9
543.691	578
544.093	578.3
544.517	596.7
544.919	562.5
545.343	596.2
545.745	566.3
546.147	570.2
546.571	578.6
546.974	561.4
547.398	572.1
547.8	586.4
548.224	565.3
548.627	566.9
549.03	574.8
549.454	564.4
549.857	562.7
550.281	565.7
550.684	567.8
551.087	582
551.512	571.2
551.915	575.3
552.34	569.2
552.743	565.2
553.146	568.4
553.571	572.8
553.975	592.9
554.399	559.5
554.803	619
555.207	573
555.632	560.5
556.036	576.3
556.461	563.7
556.865	572.1
557.268	565.3
557.694	565.6
558.098	575.9
558.502	577.3
558.927	567.2
559.332	572.2
559.736	573.2
560.162	576.5
560.566	569
560.992	573.8
561.396	572.7
561.801	574.7
562.227	571.1
562.631	567.9
563.036	573.1
563.462	575.9
563.867	571.1
564.272	565
564.698	571.5
565.103	560.2
565.508	588.5
565.935	574.3
566.34	566.3
566.745	582.6
567.172	570.8
567.577	585.4
567.982	581.6
568.409	574.4
568.815	567.5
569.22	575.5
569.626	582.1
570.053	558.3
570.459	569.2
570.865	578.7
571.292	572.1
571.698	573.9
572.104	559.5
572.531	568.8
572.937	580.9
573.343	567.4
573.75	564.8
574.177	572.6
574.583	579.1
574.99	568.5
575.396	578.6
575.824	565.1
576.231	571.9
576.637	568.9
577.065	595.1
577.472	566.3
577.879	565.7
578.286	585
578.714	563.8
579.121	559.4
579.528	571.6
579.935	575.2
580.364	565.7
580.771	555.8
581.178	560.7
581.585	569.7
582.014	577
582.421	564.2
582.829	566.5
583.236	580.8
583.644	561.8
584.073	564.6
584.481	567.5
584.889	564.1
585.296	576.1
585.726	571.5
586.134	557.6
586.542	562.7
586.95	586.5
587.358	556.9
587.787	571.4
588.196	554.6
588.604	566.2
589.012	562.5
589.421	555.4
589.851	562.6
590.259	570.2
590.668	561.5
591.076	604.7
591.485	560.5
591.894	563.2
592.324	583.1
592.733	577.3
593.142	559.1
593.551	568.3
593.96	598.9
594.369	555.8
594.8	562.7
595.209	560.1
595.618	556.2
596.028	557.9
596.437	555.8
596.847	571.1
597.256	567.8
597.687	566.7
598.097	571.6
598.507	555
598.917	573
599.327	573.4
599.736	568.9
600.146	577.4
600.556	570.3
600.988	583.5
601.398	571.6
601.808	579.7
602.219	556
602.629	572.3
603.039	576.9
603.45	590.8
603.86	564.6
604.271	581.7
604.703	569.5
605.114	568.1
605.525	565.8
605.935	568.8
606.346	589.1
606.757	575.3
607.168	561.5
607.579	565
607.99	577.8
608.402	569.9
608.813	569.9
609.224	559.7
609.636	557.4
610.047	560.7
610.48	570
610.892	573
611.303	576
611.715	565.8
612.127	563.2
612.539	562.2
612.95	571.5
613.362	558.3
613.774	554
614.186	559.2
614.599	564.4
615.011	576.9
615.423	555.5
615.835	560.8
616.248	560.3
616.66	572.6
617.073	555
617.485	568.2
617.898	572.9
618.311	564.9
618.723	561.5
619.136	597.4
619.549	579.9
619.962	587.4
620.375	565.8
620.788	566.8
621.201	563.5
621.614	570.1
622.028	567.8
622.441	572.7
622.854	580
623.268	555.8
623.681	569.5
624.095	573.8
624.509	572.8
624.922	571.3
625.336	553.1
625.728	571
626.142	576.9
626.556	584.8
626.97	567.5
627.384	557.3
627.799	571.2
628.213	573.8
628.627	563.9
629.041	564.5
629.456	561.3
629.87	567
630.285	576.7
630.699	574.1
631.093	567.1
631.507	569.9
631.922	568.7
632.337	578.9
632.752	557.3
633.167	565.2
633.582	561.2
633.997	561.5
634.412	562.5
634.806	564.6
635.221	555.1
635.637	572.9
636.052	556.4
636.468	571.4
636.883	587.8
637.299	564.5
637.715	549.4
638.109	562.3
638.525	554.3
638.941	586.6
639.357	574.8
639.773	578.6
640.189	559.7
640.584	565.9
641	566.1
641.416	553.3
641.832	560.7
642.249	563.9
642.665	566.9
643.06	571.3
643.477	574.6
643.894	549.9
644.31	561.8
644.727	563.4
645.123	564.7
645.54	556.3
645.957	566.6
646.374	572.6
646.77	568.4
647.187	594
647.604	564.6
648.021	546.6
648.439	559.7
648.835	571.6
649.252	568.1
649.67	562.1
650.088	566.5
650.484	576
650.902	568.6
651.32	572.8
651.738	563.9
652.134	567.7
652.552	590.2
652.971	574.1
653.389	564.9
653.786	582.1
654.204	567.7
654.622	561.4
655.019	575.4
655.438	569.6
655.857	564.8
656.275	566.7
656.673	561.1
657.091	634.8
657.51	561.4
657.908	570.8
658.327	581.7
658.746	553.2
659.144	566.8
659.563	576.6
659.982	566.4
660.38	554.8
660.8	568.1
661.219	572.5
661.617	568.3
662.037	560.5
662.457	575.8
662.855	551.5
663.275	588.7
663.695	567.3
664.094	561.4
664.514	568.3
664.934	558.7
665.333	574.7
665.753	560.7
666.152	558.2
666.572	558.2
666.993	579.2
667.392	559.8
667.812	565.9
668.212	560.6
668.632	576.1
669.053	562.1
669.453	568.9
669.874	569.3
670.273	566.3
670.694	558.5
671.116	572.7
671.515	571.9
671.937	558.5
672.337	560.8
672.758	560.7
673.158	574.8
673.58	552.1
673.98	564.5
674.402	570.7
674.824	555.9
675.224	555.6
675.646	554.6
676.047	559.3
676.469	560
676.869	570.5
677.292	568
677.693	561.6
678.115	559.9
678.516	567
678.939	570
679.34	557.2
679.762	578.9
680.164	567
680.586	561
680.988	563.7
681.411	580.6
681.812	562.8
682.236	557.4
682.637	557.9
683.061	553.2
683.462	563.5
683.864	559.7
684.288	570.3
684.69	555.7
685.114	579.3
685.516	573.7
685.94	556
686.342	574.7
686.766	559.9
687.168	562.5
687.571	583.6
687.995	561.6
688.398	555
688.822	557.9
689.225	578.7
689.628	579.8
690.052	562.1
690.456	576.9
690.88	560.7
691.284	551
691.687	565.4
692.112	560.6
692.515	554.3
692.919	567.8
693.344	566.6
693.747	554.9
694.173	553.3
694.577	567.2
694.98	565.7
695.406	557.7
695.81	565.5
696.214	563.9
696.64	563.8
697.044	564.2
697.448	571.4
697.874	563.9
698.279	563.3
698.684	555.1
699.11	555.1
699.514	560.6
699.919	562.5
700.324	554.2
700.75	568
701.156	566.5
701.561	574.1
701.987	570.9
702.393	572.3
702.798	571.9
703.203	561.4
703.63	557.5
704.036	550.8
704.442	558.3
704.847	553.7
705.274	558
705.68	559.1
706.086	571
706.492	555.7
706.92	561.3
707.326	566.2
707.732	556.5
708.139	559.4
708.545	551
708.973	556.6
709.38	560.5
709.786	550.2
710.193	578.1
710.6	568.8
711.028	554.6
711.435	557.7
711.842	564.8
712.249	549.8
712.656	562.1
713.064	571
713.492	556.3
713.9	558.7
714.307	563.8
714.715	563.2
715.123	564.3
715.53	564.4
715.938	576.2
716.367	566.8
716.775	559.3
717.184	555.7
717.592	561
718	569
718.408	598.3
718.816	607.9
719.225	568.8
719.633	563.1
720.042	551.7
720.472	563.6
720.881	580.7
721.29	566.7
721.699	549.4
722.108	561.2
722.517	561.7
722.926	557
723.335	568.8
723.744	563.1
724.154	556.8
724.563	565.5
724.973	561.3
725.382	564.9
725.792	556.7
726.202	554.1
726.612	573.3
727.022	564.1
727.432	558
779.813	557.6
780.223	610.1
780.634	557.3
781.044	552.1
781.454	559.5
781.865	577.2
782.276	549.2
782.686	569.6
783.097	552.5
783.508	559.9
783.919	562.6
784.33	572.1
784.741	573
785.152	556.8
785.563	550.2
785.974	552.3
786.386	568.4
786.776	558.3
787.188	555.8
787.599	558.6
788.011	563.5
788.423	561.4
788.835	562.7
789.247	552.5
789.659	555.6
790.071	561.7
790.483	606.5
790.874	561.3
791.286	570.2
791.699	556.3
792.111	563.6
792.524	563
792.937	562.8
793.349	549.5
793.741	555.4
794.154	559.2
794.567	575
794.98	554.9
795.393	548.1
795.785	571.8
796.198	554.9
796.612	561.9
797.026	557.8
797.439	540
797.831	554.4
798.245	553.1
798.659	558.6
799.073	556
799.487	557.2
799.88	566.9
800.294	562.3
800.708	563.6
801.123	560.9
801.516	582.2
801.93	542.9
802.345	546.7
802.76	556.9
803.153	572.9
803.568	574.7
803.983	568.4
804.377	561.6
804.792	553.1
805.207	547.8
805.601	557.2
806.016	591.8
806.432	547.7
806.826	586.4
807.242	564.7
807.658	566.1
808.052	553.7
808.468	554.9
808.884	559.4
809.279	561.3
809.695	565.7
810.111	581.9
810.506	566.4
810.922	580.6
811.339	552.5
811.734	569.5
812.151	553.4
812.546	554.6
812.963	554.3
813.38	567
813.776	563
814.193	579.6
814.589	554.9
815.006	553.8
815.402	544.3
815.82	551.8
816.237	559.4
816.633	558
817.051	552.1
817.448	562.8
817.866	545.9
818.262	576.7
818.68	552.7
819.077	552.5
819.495	560.4
819.892	600.7
820.311	551.6
820.708	550.7
821.127	553.8
821.524	568.8
821.943	558.9
822.34	576.7
822.759	559.7
823.157	552.7
823.576	570.9
823.974	563.9
824.393	567.3
824.791	557.4
825.189	555.9
825.609	558.6
826.007	555.4
826.427	542.7
826.826	554
827.246	562.8
827.644	538.9
828.043	565.6
828.463	553
828.862	566.4
829.261	564.8
829.682	547.5
830.081	570.3
830.502	551.4
830.901	562.4
831.301	549.4
831.722	546.2
832.121	559.9
832.521	555.4
832.943	565.3
833.342	561.5
833.742	550.1
834.164	556.2
834.564	547.9
834.965	559.5
835.386	553.4
835.787	559.6
836.188	561.3
836.588	560
837.01	562.6
837.411	553.5
837.812	565
838.213	557.1
838.636	548.1
839.037	622.2
839.438	557.1
839.84	561.5
840.263	558.2
840.664	560
841.066	556.3
841.468	559.4
841.891	550.5
842.293	565.5
842.695	565.8
843.098	564.4
843.5	557.4
843.902	563.6
844.326	558.1
844.729	553.5
845.131	574.3
845.534	560.5
845.937	567.2
846.34	575.2
846.764	551.1
