#lambda/nm	C1
208.295	472
208.67	436.8
209.045	403.9
209.419	409.6
209.794	597.5
210.169	576.5
210.544	698.9
210.919	591.4
211.295	581.6
211.67	593.4
212.045	586
212.421	588.8
212.796	623.8
213.172	591.7
213.547	591.7
213.923	583.8
214.299	580.3
214.675	600.2
215.051	595.4
215.427	594
215.803	607.3
216.179	595.7
216.555	584.8
216.932	602
217.308	590.5
217.684	589.9
218.061	602.4
218.438	593.1
218.814	581.7
219.191	597.9
219.568	584.9
219.945	592.5
220.322	595.6
220.699	590.5
221.076	596
221.453	595.2
221.83	587.4
222.208	587.7
222.585	589.6
222.962	599
223.34	595.5
223.717	589.6
224.095	589.8
224.473	588.3
224.851	585.9
225.229	578.4
225.607	602.4
225.985	585.7
226.363	593.1
226.741	595.2
227.119	592.5
227.497	604.5
227.876	575.7
228.254	600
228.633	600.2
229.011	588.8
229.39	598.3
229.769	591.2
230.148	600.7
230.527	606.1
230.905	593.2
231.284	597.6
231.664	583
232.043	608.4
232.422	599.4
232.801	588.8
233.181	596.3
233.56	588.2
233.94	589.7
234.319	578
234.699	584.3
235.079	629.1
235.458	624.5
235.838	612.8
236.218	582.9
236.598	580.6
236.978	585.5
237.358	582.4
237.738	591.5
238.119	597.5
238.499	579.8
238.88	586.5
239.26	607.3
239.641	579
240.021	591.2
240.402	593.2
240.783	591.1
241.163	586
241.544	591.2
241.925	588.7
242.306	610.5
242.687	588.8
243.069	597.1
243.45	597.6
243.831	585.4
244.212	582.6
244.594	627.7
244.975	599.8
245.357	592
245.739	586.6
246.12	594.9
246.502	599.7
246.884	589.6
247.266	590.9
247.648	596.2
248.03	616.1
248.412	594
248.794	599
249.176	592.5
249.559	604.1
249.941	585.4
250.323	586.2
250.706	585.3
251.089	594.3
251.471	589.8
251.854	591.5
252.237	593
252.62	600
253.002	593.7
253.385	590.7
253.769	613.3
254.152	589.5
254.535	605.2
254.918	586.5
255.301	588.8
255.685	593.7
256.068	588.9
256.452	613.8
256.835	602.5
257.219	597.5
257.603	602.3
257.986	585.1
258.37	589.4
258.754	580.5
259.138	598.5
259.522	599.6
259.906	591.2
260.29	593
260.675	584.9
261.059	591.4
261.443	583.3
261.828	593.6
262.212	590.4
262.597	578.2
262.981	587.7
263.366	595.7
263.751	593.9
264.136	583.9
264.521	593.4
264.906	582.3
265.291	602.8
265.676	588.5
266.061	596
266.446	610.1
266.831	593.6
267.217	614.6
267.602	593.4
267.987	593.1
268.373	591
268.759	602.1
269.144	600.6
269.53	588.6
269.916	588.3
270.302	592.8
270.688	602.1
271.074	591.4
271.46	607.2
271.846	620.8
272.232	592.4
272.618	586.1
273.004	587.9
273.391	597.5
273.777	604.1
274.164	599.8
274.55	604.5
274.937	595.6
275.324	586.3
275.71	599.4
276.097	601.9
276.484	575.3
276.871	593.3
277.258	599
277.645	581.1
278.032	597.7
278.419	595.5
278.807	597.4
279.194	588.4
279.581	586.4
279.969	596.1
280.356	595.5
280.744	596.6
281.131	613.4
281.519	601.7
281.907	590.6
282.295	591.3
282.682	602.1
283.07	594.7
283.458	604.7
283.846	607.3
284.235	605
284.623	600.1
285.011	583.3
285.399	590.4
285.788	589.9
286.176	582.7
286.565	601.1
286.953	585.5
287.342	583.3
287.731	588.2
288.119	580.3
288.508	586.9
288.897	584.3
289.286	577.9
289.675	594.5
290.064	603.5
290.453	590.2
290.821	590.7
291.21	608.5
291.599	585.5
291.989	590.5
292.378	595.6
292.768	612.9
293.157	594.9
293.547	599.5
293.936	590.7
294.326	586
294.716	600.5
295.106	589.5
295.496	599.9
295.886	603.1
296.276	592.4
296.666	582.8
297.056	583.7
297.446	580
297.836	610.6
298.227	585.1
298.617	596.1
299.008	603
299.398	591.4
299.789	590.5
300.179	594.6
300.57	604.8
300.961	589.1
301.352	583.5
301.742	606.6
302.133	594.8
302.524	588.4
302.915	591.6
303.307	579.3
303.698	602.1
304.089	599.3
304.48	592.6
304.872	597
305.263	594.7
305.655	590.7
306.046	601.3
306.438	606.6
306.829	589.1
307.221	605
307.613	595.9
308.005	609.7
308.397	605.3
308.789	620.5
309.181	623.6
309.573	615.2
309.965	613.3
310.357	593.9
310.749	593.5
311.142	586.8
311.534	589.6
311.926	598.7
312.319	593.6
312.711	587.1
313.104	605.1
313.497	593.3
313.889	634.5
314.282	618.6
314.675	616.2
315.068	591.3
315.461	601.1
315.854	623.2
316.247	601.8
316.64	598.6
317.033	599.3
317.405	606.5
317.798	593.1
318.192	600.8
318.585	589
318.979	597.6
319.372	584.2
319.766	593.6
320.16	606.2
320.553	609.2
320.947	613.6
321.341	590.3
321.735	588.8
322.129	579.9
322.523	618.3
322.917	586.9
323.311	602.4
323.705	599.5
324.099	600.5
324.494	606.1
324.888	599.3
325.282	594.6
325.677	597.7
326.071	604.4
326.466	602.7
326.861	603.8
327.255	601.1
327.65	609.4
328.045	606.8
328.44	590
328.835	602.3
329.23	590.1
329.625	619.3
330.02	586.6
330.415	611.4
330.81	599.4
331.206	595.1
331.601	583.1
331.996	594.9
332.37	606.5
332.766	585.7
333.161	616.4
333.557	585.6
333.953	593.2
334.348	976.5
334.744	592
335.14	589.6
335.536	589.4
335.932	606.5
336.328	591.8
336.724	600.2
337.12	594.6
337.516	597.4
337.913	593.5
338.309	607.8
338.705	592.6
339.102	605.3
339.498	591.1
339.895	609.1
340.291	589
340.688	605.3
341.085	588.5
341.481	592
341.878	592.7
342.275	615
342.672	591.4
343.069	592.3
343.466	577.7
343.842	607.1
344.239	589.4
344.636	595.1
345.033	588.7
345.431	585.8
345.828	590.8
346.225	591.8
346.623	601.2
347.02	593.6
347.418	599.4
347.816	609.4
348.213	581.8
348.611	597.9
349.009	581.4
349.407	606.4
349.805	581.9
350.203	588.8
350.601	602.2
350.999	587.1
351.397	587.9
351.795	592.5
352.193	599
352.57	599.5
352.969	606.2
353.367	584.7
353.766	585.7
354.164	582.6
354.563	597
354.961	585.1
355.36	585.9
355.759	588.7
356.158	580.5
356.557	580.1
356.956	575.4
357.355	576.8
357.754	591.4
358.153	595.4
358.552	608.5
358.951	588.8
359.35	598.8
359.75	585.7
360.149	582.1
360.527	574.1
360.926	573.6
361.326	593.6
361.726	589.9
362.125	581.2
362.525	597.3
362.925	585.8
363.325	588.8
363.724	589
364.124	586.9
364.524	582.6
364.924	587.8
365.324	597.7
365.725	569.7
366.125	592.4
366.525	584.8
366.904	581
367.304	571.7
367.705	607.6
368.105	601.5
368.506	581.5
368.906	593.3
369.307	584.6
369.708	596.9
370.108	578.2
370.509	593.9
370.91	581.2
371.311	584.5
371.712	584.8
372.113	584
372.514	577.9
372.894	582.4
373.295	582.9
373.696	596.8
374.097	596.6
374.499	615.4
374.9	583.3
375.301	581.7
375.703	587.9
376.105	582
376.506	591.4
376.908	597.1
377.309	583.9
377.711	585.2
378.113	581.4
378.493	586.7
378.895	580.3
379.297	591.7
379.699	576.2
380.102	590.1
380.504	583.1
380.906	578.3
381.308	610.7
381.71	581.1
382.113	598.1
382.515	580.5
382.918	592.4
383.299	577.4
383.701	596.6
384.104	589.9
384.507	570.3
384.909	578.8
385.312	566.7
385.715	573.6
386.118	578.9
386.521	569.8
386.924	593.5
387.327	574.6
387.709	567.9
388.112	568.1
388.515	579.1
388.918	585.7
389.322	588.5
389.725	575.3
390.129	605.2
390.532	587.2
390.936	582.4
391.339	576.2
391.743	587.4
392.125	572
392.529	589.7
392.933	591.3
393.337	584.9
393.74	576.2
394.144	588.2
394.548	580.2
394.953	578.1
395.357	590
395.761	577.5
396.144	586
396.548	581.1
396.952	580.4
397.357	588.9
397.761	574.7
398.166	576.9
398.57	579.7
398.975	578.3
399.379	588.4
399.763	630.7
400.168	582
400.572	585.5
400.977	580.2
401.382	600.6
401.787	594.4
402.192	604.7
402.597	607.9
403.002	566.4
403.386	595.2
403.791	608.7
404.197	581.4
404.602	586
405.007	586
405.413	582.5
405.818	580.4
406.224	578.1
406.608	584.4
407.014	578.7
407.42	598.7
407.825	580
408.231	596.4
408.637	588.7
409.043	600.9
409.449	578.1
409.834	576.3
410.24	590.3
410.646	591.7
411.052	599.7
411.458	587
411.865	596.6
412.271	590.7
412.677	588.9
413.062	594
413.469	580.7
413.875	613.4
414.282	602
414.689	593.2
415.095	592.4
415.502	582.1
415.888	585.9
416.294	575.9
416.701	627.3
417.108	582
417.515	592.9
417.923	576.5
418.33	608.1
418.715	591.5
419.123	584.7
419.53	584.9
419.937	587.6
420.345	603
420.752	579.9
421.16	603.9
421.546	588.4
421.953	592.1
422.361	578.3
422.769	583.1
423.177	575.1
423.585	611.9
423.992	605.9
424.379	595.1
424.787	595.5
425.195	606.7
425.603	586.6
426.011	600.9
426.419	597.6
426.806	593.8
427.214	590.5
427.623	597.7
428.031	602.6
428.44	591.9
428.848	600.1
429.235	610.3
429.644	591.2
430.053	591.8
430.461	607
430.87	613.9
431.279	600.7
431.666	582.6
432.075	591.3
432.484	595
432.893	583.9
433.302	605.8
433.711	631.9
434.099	594.9
434.508	581.6
434.918	581.2
435.327	598.4
435.737	595.1
436.125	587.8
436.534	591.6
436.944	591
437.353	593.9
437.763	609.3
438.173	581.7
438.561	597.6
438.971	574.9
439.381	587.6
439.791	586.7
440.201	569.2
440.589	588.7
440.999	596.8
441.409	591.3
441.819	577.3
442.23	600.4
442.619	594.1
443.029	588
443.439	590.4
443.85	598.4
444.26	609.9
444.649	595.5
445.06	589.4
445.471	590.7
445.881	589.8
446.292	600.7
446.682	614
447.092	573.3
447.503	636
447.914	587.7
448.325	585.8
448.715	589
449.126	573.6
449.537	583.2
449.948	584.5
450.338	586.1
450.75	591.4
451.161	586.7
451.572	589.8
451.984	579
452.374	569.3
452.786	583.9
453.197	592.7
453.609	594.1
453.999	573.7
454.411	572.6
454.823	596.6
455.235	587.4
455.647	579.8
456.037	597.8
456.449	563.6
456.862	581.6
457.274	584.3
457.665	574
458.077	590.5
458.489	595.5
458.902	577.3
459.293	591.1
459.705	583.9
460.118	581.3
460.53	584.8
460.921	591.6
461.334	591.6
461.747	588.4
462.16	601.9
462.551	594.9
462.964	591.2
463.377	573.3
463.79	580.1
464.182	591.5
464.595	574.6
465.008	586.5
465.421	591.5
465.813	579.5
466.226	591.5
466.64	579.8
467.053	631.2
467.445	591.5
467.859	588.5
468.272	591
468.686	596.5
469.078	582.3
469.492	570.6
469.906	585.4
470.298	589.5
470.712	579.2
471.126	610.8
471.54	573.4
471.933	572.9
472.347	580.6
472.761	576.5
473.175	570.9
473.568	577
473.982	582.5
474.397	576.9
474.79	581.6
475.204	589.4
475.619	580
476.033	583.9
476.426	585.5
476.841	570.1
477.256	600.2
477.649	573.8
478.064	571.8
478.479	573.5
478.872	574
479.287	563.9
479.702	573.4
480.118	573.3
480.511	577.1
480.927	564.5
481.342	572.5
481.736	582.2
482.151	569.8
482.566	593.6
482.96	578.3
483.376	585.5
483.792	573.5
484.186	577.4
484.602	578.5
485.017	577
485.412	577.8
485.827	583.2
486.243	579.3
486.638	602.9
487.054	581.7
487.47	589.7
487.865	573.3
488.281	573.2
488.697	570.8
489.092	576.3
489.508	573.6
489.925	591.9
490.32	572.8
490.736	579.8
491.153	581.8
491.548	577
491.964	591.8
492.381	566.8
492.776	587.6
493.193	582.3
493.61	587.4
494.006	578.2
494.422	587.1
494.84	570.9
495.235	586.3
495.652	573.3
496.069	574.6
496.465	566.8
496.883	581
497.3	604.2
497.696	571.8
498.113	582
498.509	569.3
498.927	567.9
499.344	566
499.741	571.3
500.158	591.1
500.576	585.1
500.973	579.1
501.39	567.4
501.787	574.9
502.205	581.3
502.623	570.7
503.02	567.7
503.438	570.6
503.856	578.4
504.253	581.3
504.671	582.9
505.068	573.8
505.486	577.9
505.905	592.4
506.302	578.9
506.72	589.4
507.118	566.8
507.536	578
507.955	573.9
508.352	582.8
508.771	584
509.169	583.9
509.587	565.4
510.006	573.3
510.404	568.7
510.823	566.7
511.221	571
511.64	570.8
512.038	584.6
512.457	565.2
512.877	572.4
513.275	571
513.694	574.1
514.092	574
514.512	575.4
514.91	574.4
515.33	573.7
515.749	569.6
516.148	575.8
516.568	577.3
516.966	569.8
517.386	568.9
517.785	568.9
518.205	571.4
518.603	566.4
519.024	560.6
519.444	572.9
519.843	584.3
520.263	579.6
520.662	577.8
521.082	572.1
521.481	573.9
521.902	573.5
522.301	578.8
522.722	579.6
523.121	574.8
523.542	567.2
523.963	578.7
524.362	579.6
524.783	572.6
525.183	575.8
525.604	577.2
526.003	568.2
526.425	566.3
526.824	578.7
527.246	582.7
527.646	583.4
528.067	572
528.467	571.5
528.888	580.2
529.289	579.4
529.71	577.3
530.11	569.4
530.532	570.2
530.932	565.9
531.354	562.1
531.755	602.2
532.176	576.7
532.577	568.7
532.999	576.9
533.4	571.2
533.822	580.8
534.223	574.7
534.645	570.4
535.046	570.7
535.468	576.7
535.869	589.8
536.292	568
536.693	566.1
537.115	576.9
537.516	570.5
537.939	567
538.34	591.4
538.742	589.5
539.165	574.4
539.566	576.2
539.989	569.5
540.391	570.7
540.814	576.3
541.216	570.8
541.639	573
542.041	582.3
542.464	572.9
542.866	563.5
543.268	558.1
543.691	579.4
544.093	569.9
544.517	595.7
544.919	562.5
545.343	593.5
545.745	567.1
546.147	568.9
546.571	566.4
546.974	561.9
547.398	570.7
547.8	577.6
548.224	566
548.627	564.1
549.03	580.9
549.454	569
549.857	563.5
550.281	562.4
550.684	568.3
551.087	585.9
551.512	574
551.915	574
552.34	573.7
552.743	566
553.146	571.5
553.571	570.2
553.975	592.7
554.399	564.9
554.803	623.2
555.207	571
555.632	566.7
556.036	575.1
556.461	563
556.865	570.6
557.268	562.4
557.694	567.3
558.098	573.5
558.502	570.3
558.927	570.1
559.332	563.2
559.736	569.9
560.162	578.8
560.566	574.1
560.992	572.5
561.396	573.3
561.801	566
562.227	578
562.631	568.2
563.036	570.5
563.462	574.6
563.867	570.8
564.272	564.5
564.698	574.6
565.103	558.3
565.508	583.5
565.935	572.2
566.34	572
566.745	580.5
567.172	568.7
567.577	592.9
567.982	582.4
568.409	574.5
568.815	564.1
569.22	571
569.626	575.7
570.053	553.4
570.459	571.1
570.865	575.5
571.292	574.7
571.698	569.6
572.104	555.4
572.531	564.1
572.937	573.8
573.343	572
573.75	569.5
574.177	564
574.583	575.3
574.99	569.6
575.396	569.7
575.824	566.6
576.231	570.3
576.637	560.3
577.065	596.9
577.472	561.4
577.879	565
578.286	580.6
578.714	561.4
579.121	568.6
579.528	579.9
579.935	578.3
580.364	565
580.771	554.3
581.178	562.4
581.585	571.9
582.014	570.5
582.421	561
582.829	562.4
583.236	577.6
583.644	555.5
584.073	564.4
584.481	569.5
584.889	561.8
585.296	578.5
585.726	570.2
586.134	557.5
586.542	563.7
586.95	585.3
587.358	563.9
587.787	567.6
588.196	558.1
588.604	563
589.012	566
589.421	565.3
589.851	565.1
590.259	570.8
590.668	564
591.076	606.1
591.485	563.7
591.894	566.3
592.324	580.9
592.733	582.7
593.142	555.6
593.551	571.6
593.96	599.1
594.369	558.9
594.8	564.5
595.209	568.8
595.618	556.9
596.028	561.8
596.437	563.2
596.847	575.2
597.256	565.4
597.687	575.2
598.097	565.7
598.507	557
598.917	570.1
599.327	575.2
599.736	566.7
600.146	576.2
600.556	567.1
600.988	584.9
601.398	566.2
601.808	575.9
602.219	554.9
602.629	574.1
603.039	570.8
603.45	597.9
603.86	568.9
604.271	584.2
604.703	568.9
605.114	562.7
605.525	573.1
605.935	571.6
606.346	588.1
606.757	571.1
607.168	565.5
607.579	562.8
607.99	576.8
608.402	561
608.813	571.1
609.224	562
609.636	555
610.047	566.5
610.48	567.2
610.892	576.2
611.303	570.4
611.715	569.9
612.127	560.2
612.539	561.6
612.95	565.7
613.362	554.5
613.774	560.2
614.186	557.3
614.599	561.8
615.011	574.7
615.423	559.1
615.835	562.5
616.248	556.4
616.66	575.1
617.073	555.5
617.485	562.7
617.898	573.8
618.311	567.2
618.723	560.7
619.136	592.4
619.549	579.8
619.962	590
620.375	567.1
620.788	564.2
621.201	560.6
621.614	576.7
622.028	567.7
622.441	571.2
622.854	579
623.268	559.8
623.681	573.6
624.095	569
624.509	571.2
624.922	571.2
625.336	562.7
625.728	571
626.142	580.9
626.556	587.5
626.97	571.9
627.384	559.5
627.799	564.7
628.213	578.4
628.627	570.6
629.041	565.3
629.456	562
629.87	567.5
630.285	581.6
630.699	572.9
631.093	569
631.507	565.8
631.922	569.9
632.337	583
632.752	560.9
633.167	570.5
633.582	570.2
633.997	560.9
634.412	560.9
634.806	570.7
635.221	556.3
635.637	576
636.052	555.6
636.468	568.5
636.883	588.2
637.299	564.6
637.715	550
638.109	564.5
638.525	554.5
638.941	574.3
639.357	567.1
639.773	574.9
640.189	562.3
640.584	560.3
641	567.2
641.416	550.1
641.832	565.1
642.249	559.8
642.665	567
643.06	571.3
643.477	568.8
643.894	551.6
644.31	561.3
644.727	565.2
645.123	563.1
645.54	554
645.957	566.1
646.374	570.4
646.77	566.3
647.187	595
647.604	562.8
648.021	554.6
648.439	553.8
648.835	569.3
649.252	566.5
649.67	564.9
650.088	564.2
650.484	565.4
650.902	577.2
651.32	574.7
651.738	569.8
652.134	567.6
652.552	584.7
652.971	573.7
653.389	567.4
653.786	580.8
654.204	567.3
654.622	559.5
655.019	564.3
655.438	569.9
655.857	569.9
656.275	572.3
656.673	560.6
657.091	634.7
657.51	561.1
657.908	568.7
658.327	581
658.746	555.9
659.144	565.2
659.563	581.9
659.982	571
660.38	557.2
660.8	561.4
661.219	576.1
661.617	566.8
662.037	562.6
662.457	578.4
662.855	556.4
663.275	591.3
663.695	567.2
664.094	562.5
664.514	561.9
664.934	556.2
665.333	570.4
665.753	561.5
666.152	554.1
666.572	556.5
666.993	576.3
667.392	558.9
667.812	565.2
668.212	560.1
668.632	575.6
669.053	557.5
669.453	569.7
669.874	561.2
670.273	566.7
670.694	560.8
671.116	574
671.515	574.2
671.937	559.7
672.337	559
672.758	561.3
673.158	565.9
673.58	557.3
673.98	569.2
674.402	577.1
674.824	561.7
675.224	563.6
675.646	559.5
676.047	559.3
676.469	561.2
676.869	560.5
677.292	565.1
677.693	557.9
678.115	555.1
678.516	568.4
678.939	567.6
679.34	562
679.762	573.9
680.164	564.6
680.586	557
680.988	567.2
681.411	583.2
681.812	556.6
682.236	552
682.637	555.6
683.061	558.1
683.462	563.4
683.864	556.9
684.288	562.1
684.69	555.9
685.114	572
685.516	582.1
685.94	551.5
686.342	569.7
686.766	562.9
687.168	560.3
687.571	582.1
687.995	566.7
688.398	554.3
688.822	557.5
689.225	580.8
689.628	584.1
690.052	558.8
690.456	570.7
690.88	567.6
691.284	551
691.687	571.7
692.112	554.1
692.515	557.6
692.919	570.2
693.344	564.9
693.747	560
694.173	563.5
694.577	574.3
694.98	562.7
695.406	562
695.81	561.1
696.214	571.9
696.64	566.8
697.044	568.7
697.448	571.3
697.874	559.1
698.279	559.9
698.684	550.4
699.11	556.1
699.514	562.7
699.919	555.9
700.324	558.6
700.75	565.6
701.156	565.8
701.561	574.5
701.987	563
702.393	573.5
702.798	572
703.203	563
703.63	559.6
704.036	556.9
704.442	562
704.847	554.3
705.274	554.9
705.68	563.8
706.086	569.8
706.492	552.7
706.92	562.5
707.326	571.5
707.732	556.9
708.139	552.9
708.545	552.2
708.973	561.6
709.38	560.1
709.786	550.8
710.193	578.9
710.6	566.3
711.028	553
711.435	560.7
711.842	557.3
712.249	557.4
712.656	558.8
713.064	572.1
713.492	551.4
713.9	557.8
714.307	565.9
714.715	569.5
715.123	561.9
715.53	564.9
715.938	571.6
716.367	564.9
716.775	559.8
717.184	557.7
717.592	557.5
718	572.3
718.408	594
718.816	605.6
719.225	564.4
719.633	562.2
720.042	551.9
720.472	562.1
720.881	583.9
721.29	570.9
721.699	550.3
722.108	568.1
722.517	564
722.926	554.4
723.335	569.6
723.744	559
724.154	563.3
724.563	556.6
724.973	561.9
725.382	562.3
725.792	565.8
726.202	558.4
726.612	575.3
727.022	560.6
727.432	564
779.813	557.4
780.223	606.7
780.634	569.7
781.044	551.9
781.454	563.8
781.865	574
782.276	554.5
782.686	571.4
783.097	560
783.508	554.7
783.919	564.9
784.33	570.4
784.741	575.3
785.152	559.2
785.563	548.5
785.974	553.7
786.386	568.9
786.776	555.7
787.188	557.3
787.599	548.6
788.011	564.6
788.423	558.9
788.835	558.9
789.247	550.3
789.659	553.3
790.071	552.8
790.483	602.1
790.874	557.8
791.286	566.3
791.699	558
792.111	556.9
792.524	562.2
792.937	557.6
793.349	551.1
793.741	557.5
794.154	563.9
794.567	578.9
794.98	556.7
795.393	555.1
795.785	579.1
796.198	554.4
796.612	562.6
797.026	556.2
797.439	540.3
797.831	557.6
798.245	551.7
798.659	557.4
799.073	557.9
799.487	552.7
799.88	561.5
800.294	559.3
800.708	564.4
801.123	563.3
801.516	579
801.93	552.9
802.345	545
802.76	557.1
803.153	569.6
803.568	570.5
803.983	569
804.377	564.3
804.792	550.9
805.207	544.3
805.601	559.9
806.016	597.3
806.432	558.4
806.826	587.9
807.242	569.9
807.658	561.7
808.052	558.8
808.468	558.8
808.884	554.1
809.279	560.1
809.695	571.5
810.111	578.5
810.506	563.2
810.922	579.1
811.339	554.3
811.734	569.8
812.151	552.2
812.546	558.2
812.963	556.5
813.38	562
813.776	557.5
814.193	581.8
814.589	555.1
815.006	555.9
815.402	548.8
815.82	551
816.237	561
816.633	562.1
817.051	552.9
817.448	561.7
817.866	545.6
818.262	572.9
818.68	557.8
819.077	552.8
819.495	558
819.892	597.8
820.311	550.9
820.708	554.2
821.127	559.6
821.524	565.2
821.943	557.7
822.34	575.8
822.759	554.4
823.157	557.3
823.576	566
823.974	569.6
824.393	563.5
824.791	550.7
825.189	550
825.609	552.5
826.007	549.2
826.427	551.1
826.826	559.6
827.246	561.3
827.644	546.1
828.043	569.4
828.463	559.7
828.862	566.7
829.261	563.7
829.682	546.2
830.081	564
830.502	555.6
830.901	562.1
831.301	551.5
831.722	544.5
832.121	558.9
832.521	556.6
832.943	560
833.342	556.1
833.742	550.3
834.164	548.2
834.564	549.2
834.965	558.5
835.386	556.4
835.787	560.9
836.188	554.8
836.588	561.3
837.01	556.1
837.411	548.2
837.812	566.4
838.213	554.5
838.636	554.2
839.037	628.4
839.438	560
839.84	562.7
840.263	560.4
840.664	567.9
841.066	558.8
841.468	556.1
841.891	552.3
842.293	573.7
842.695	567.8
843.098	571.3
843.5	556.4
843.902	554.1
844.326	564.9
844.729	565.1
845.131	566
845.534	555.4
845.937	573
846.34	571
846.764	550.2
847.167	558.9
847.571	546.9
847.974	552.2
