#lambda/nm	C1
208.295	474.1
208.67	438.3
209.045	403.7
209.419	407.2
209.794	595.1
210.169	571.5
210.544	695.9
210.919	590.9
211.295	583.3
211.67	593.9
212.045	585.8
212.421	589.2
212.796	623.6
213.172	589
213.547	584.5
213.923	585.6
214.299	577
214.675	597.1
215.051	594
215.427	594.4
215.803	606.1
216.179	598.6
216.555	575.1
216.932	599
217.308	584
217.684	583.5
218.061	594.9
218.438	593.1
218.814	581.1
219.191	599.3
219.568	580.6
219.945	587.1
220.322	596.7
220.699	593.4
221.076	595.5
221.453	593.7
221.83	581.7
222.208	581.6
222.585	587.4
222.962	590
223.34	595.2
223.717	584.9
224.095	589.7
224.473	589
224.851	586.2
225.229	578.8
225.607	606
225.985	577.4
226.363	587.6
226.741	585.5
227.119	592.4
227.497	600.9
227.876	579
228.254	595.4
228.633	598.4
229.011	591.6
229.39	594.2
229.769	591.3
230.148	599.4
230.527	598.9
230.905	585.8
231.284	588.1
231.664	585.7
232.043	600.9
232.422	596.7
232.801	586.2
233.181	593.1
233.56	586.4
233.94	586.4
234.319	578.6
234.699	581.7
235.079	630.1
235.458	628.1
235.838	603.3
236.218	581.3
236.598	575.4
236.978	578.7
237.358	582.9
237.738	582.7
238.119	598.1
238.499	579.7
238.88	590.9
239.26	613.1
239.641	575.5
240.021	588
240.402	592.8
240.783	585.8
241.163	591.2
241.544	585.2
241.925	585.7
242.306	606.6
242.687	584.9
243.069	589.4
243.45	597.1
243.831	588.3
244.212	584.3
244.594	625.9
244.975	597.8
245.357	591.4
245.739	587
246.12	591.6
246.502	604.3
246.884	584.2
247.266	583.9
247.648	591.9
248.03	615.3
248.412	593.9
248.794	591.1
249.176	588.2
249.559	607.7
249.941	583.3
250.323	578.6
250.706	583.3
251.089	591.3
251.471	595
251.854	590.7
252.237	589.7
252.62	601.6
253.002	588.7
253.385	589.8
253.769	603
254.152	589.6
254.535	591.1
254.918	587.7
255.301	588.2
255.685	584.9
256.068	576.8
256.452	617.4
256.835	594.1
257.219	593.1
257.603	602.6
257.986	581.8
258.37	593.6
258.754	578.8
259.138	601.3
259.522	596.8
259.906	588.6
260.29	592.8
260.675	584.3
261.059	595
261.443	580.6
261.828	588.2
262.212	598.7
262.597	580.5
262.981	583.4
263.366	592.2
263.751	592.4
264.136	584.6
264.521	585.9
264.906	583.1
265.291	598.5
265.676	593.6
266.061	596
266.446	612.3
266.831	598.8
267.217	610.8
267.602	594.1
267.987	593.2
268.373	586.1
268.759	599.1
269.144	595
269.53	589.7
269.916	578.7
270.302	585.2
270.688	594.7
271.074	590.6
271.46	601.2
271.846	623.2
272.232	595.4
272.618	584.6
273.004	594.1
273.391	600.4
273.777	600.9
274.164	595.6
274.55	607.1
274.937	592.1
275.324	586.5
275.71	599.1
276.097	592.5
276.484	581.7
276.871	590
277.258	595.8
277.645	574.9
278.032	585.1
278.419	590.5
278.807	589
279.194	582.6
279.581	585.1
279.969	593.7
280.356	588.4
280.744	587.9
281.131	618.1
281.519	602.3
281.907	593
282.295	591.2
282.682	601.3
283.07	596.8
283.458	599.7
283.846	598.8
284.235	598.3
284.623	602.4
285.011	578.4
285.399	593
285.788	587.5
286.176	578.8
286.565	601.4
286.953	585.2
287.342	589.1
287.731	583.9
288.119	583.3
288.508	588.3
288.897	584.2
289.286	575.1
289.675	596.9
290.064	594.2
290.453	592.3
290.821	588.6
291.21	605.5
291.599	582.5
291.989	593.9
292.378	596.4
292.768	607.7
293.157	592.4
293.547	600.5
293.936	593.9
294.326	587.9
294.716	594.9
295.106	587.1
295.496	599.2
295.886	599.7
296.276	586.2
296.666	585.4
297.056	590.5
297.446	580.6
297.836	608.3
298.227	590.8
298.617	589.7
299.008	607.5
299.398	594.1
299.789	583.6
300.179	597.3
300.57	601.4
300.961	582.7
301.352	584.5
301.742	599.1
302.133	590.4
302.524	588.7
302.915	592.4
303.307	587.5
303.698	600.4
304.089	593.9
304.48	590.4
304.872	594.5
305.263	593.7
305.655	581.2
306.046	596.7
306.438	594.8
306.829	592.2
307.221	606.3
307.613	598.1
308.005	597.2
308.397	612.8
308.789	615.1
309.181	615.8
309.573	610.8
309.965	602.3
310.357	584.1
310.749	596.9
311.142	584
311.534	583.4
311.926	595.2
312.319	592.5
312.711	586
313.104	600
313.497	590.3
313.889	631.9
314.282	607.7
314.675	617
315.068	591.5
315.461	601.4
315.854	621.3
316.247	597.9
316.64	596.9
317.033	597.2
317.405	592.5
317.798	590.2
318.192	601.8
318.585	587.2
318.979	599.6
319.372	583.6
319.766	594.8
320.16	606.2
320.553	604.9
320.947	612.9
321.341	584.9
321.735	589
322.129	577
322.523	615.6
322.917	581.6
323.311	596.9
323.705	595.7
324.099	596.7
324.494	607.8
324.888	595.5
325.282	587.5
325.677	597.4
326.071	599.3
326.466	603.5
326.861	597.7
327.255	598.7
327.65	611.4
328.045	606.1
328.44	592.3
328.835	591.3
329.23	587.8
329.625	616.7
330.02	591.4
330.415	615.5
330.81	601.6
331.206	594.6
331.601	588.4
331.996	597.4
332.37	603.9
332.766	582.5
333.161	619.1
333.557	588.6
333.953	595.2
334.348	1017.2
334.744	589.3
335.14	591.5
335.536	590.1
335.932	605.2
336.328	594.6
336.724	605
337.12	588.5
337.516	591.1
337.913	590.7
338.309	608.5
338.705	594.3
339.102	596.3
339.498	591.4
339.895	607.4
340.291	591.2
340.688	596.7
341.085	587.1
341.481	592
341.878	595.8
342.275	606.3
342.672	585.3
343.069	589.6
343.466	583.4
343.842	606.7
344.239	588.8
344.636	591.3
345.033	586.6
345.431	586.3
345.828	594.4
346.225	584.3
346.623	600.9
347.02	591.8
347.418	597.2
347.816	607.2
348.213	582.1
348.611	596.5
349.009	585.8
349.407	598.2
349.805	582.7
350.203	577.4
350.601	599.6
350.999	582.3
351.397	581.3
351.795	595.1
352.193	600.1
352.57	602.7
352.969	602.4
353.367	577.8
353.766	582.8
354.164	586.6
354.563	599.9
354.961	589.2
355.36	584.3
355.759	585.3
356.158	582.3
356.557	581.4
356.956	582.8
357.355	572.9
357.754	586.8
358.153	595.9
358.552	614.9
358.951	589.7
359.35	599
359.75	582.3
360.149	584.6
360.527	576.1
360.926	575.5
361.326	592.7
361.726	588.6
362.125	589.4
362.525	595.8
362.925	588.1
363.325	585.4
363.724	586.9
364.124	582.3
364.524	580.3
364.924	584.4
365.324	593.5
365.725	569.8
366.125	585.2
366.525	588.4
366.904	582.9
367.304	565.3
367.705	604
368.105	604.9
368.506	590.1
368.906	591.1
369.307	583.7
369.708	597.3
370.108	573.4
370.509	600.2
370.91	576.5
371.311	588.3
371.712	582.3
372.113	577.1
372.514	572.3
372.894	581.5
373.295	581.7
373.696	593.9
374.097	594.3
374.499	612.8
374.9	580.4
375.301	577.5
375.703	592.9
376.105	579.8
376.506	586.9
376.908	585
377.309	585.8
377.711	587.8
378.113	584.7
378.493	582.8
378.895	576.4
379.297	593.9
379.699	573.3
380.102	591.2
380.504	581.1
380.906	580.9
381.308	606.3
381.71	582.8
382.113	591
382.515	585.1
382.918	584.2
383.299	577.4
383.701	594.7
384.104	588.4
384.507	561.2
384.909	579.3
385.312	570.5
385.715	576.1
386.118	585.1
386.521	566.1
386.924	595.8
387.327	575.3
387.709	576.3
388.112	567.5
388.515	580.1
388.918	581.6
389.322	594.1
389.725	580.9
390.129	603.7
390.532	585.6
390.936	578.8
391.339	581.3
391.743	584.4
392.125	575.9
392.529	592.9
392.933	594
393.337	584.6
393.74	572.8
394.144	583.7
394.548	574.2
394.953	580.9
395.357	592.1
395.761	575.6
396.144	587.7
396.548	581.7
396.952	581.3
397.357	585.9
397.761	579.7
398.166	571.5
398.57	577.4
398.975	570.6
399.379	582.4
399.763	634.9
400.168	585.7
400.572	577.3
400.977	583.6
401.382	599.7
401.787	595.2
402.192	597.7
402.597	597.9
403.002	574
403.386	592.9
403.791	597.8
404.197	577.6
404.602	586.1
405.007	581.9
405.413	582.4
405.818	575.3
406.224	577
406.608	574
407.014	574.3
407.42	600.3
407.825	574.9
408.231	585.2
408.637	588.9
409.043	596.4
409.449	580.4
409.834	579.3
410.24	585
410.646	591
411.052	589.3
411.458	585.9
411.865	594.8
412.271	586.7
412.677	587.8
413.062	590.1
413.469	579.4
413.875	609.4
414.282	595.6
414.689	596
415.095	585
415.502	577.8
415.888	585.1
416.294	569.1
416.701	621
417.108	577
417.515	591.5
417.923	580.3
418.33	602.2
418.715	589.5
419.123	586.2
419.53	579.7
419.937	585.1
420.345	592.7
420.752	581.9
421.16	601.3
421.546	586.4
421.953	590.8
422.361	578
422.769	586.6
423.177	576.9
423.585	611.6
423.992	602.4
424.379	592.9
424.787	592.6
425.195	604.9
425.603	587.3
426.011	595
426.419	596.8
426.806	595
427.214	583.6
427.623	593.4
428.031	599.9
428.44	590.6
428.848	593.6
429.235	604.9
429.644	589.9
430.053	590.3
430.461	603.6
430.87	615.2
431.279	597.4
431.666	581
432.075	586.6
432.484	595.5
432.893	587.4
433.302	609.3
433.711	627.8
434.099	591.1
434.508	582.9
434.918	580.8
435.327	587.2
435.737	582.5
436.125	580.4
436.534	587.7
436.944	588.1
437.353	592.1
437.763	611.2
438.173	579.8
438.561	598.8
438.971	572.9
439.381	589.8
439.791	586
440.201	566
440.589	578
440.999	593.3
441.409	593
441.819	571.5
442.23	588.7
442.619	586.1
443.029	578.1
443.439	583
443.85	588.4
444.26	593.6
444.649	586.9
445.06	584.9
445.471	578.7
445.881	577.4
446.292	596.1
446.682	602.6
447.092	562.6
447.503	626.9
447.914	581.8
448.325	581.6
448.715	586.4
449.126	575.3
449.537	578.6
449.948	578.5
450.338	583
450.75	585.5
451.161	584.1
451.572	592.9
451.984	575.5
452.374	563.6
452.786	579.6
453.197	588.5
453.609	585.4
453.999	568.6
454.411	575.9
454.823	594.9
455.235	585.5
455.647	579.8
456.037	586
456.449	572.5
456.862	577.9
457.274	580
457.665	571.4
458.077	587.2
458.489	593.2
458.902	581.7
459.293	575.1
459.705	581.1
460.118	575.1
460.53	581.7
460.921	581.5
461.334	582.5
461.747	572.1
462.16	593.7
462.551	588.1
462.964	587.4
463.377	566.2
463.79	577.8
464.182	588.5
464.595	568.1
465.008	580.9
465.421	581.7
465.813	569.8
466.226	583.3
466.64	573.5
467.053	616.1
467.445	589.8
467.859	582.4
468.272	577.8
468.686	589.7
469.078	575.9
469.492	560.2
469.906	578.2
470.298	583.5
470.712	569.4
471.126	607.8
471.54	568
471.933	569.5
472.347	572.9
472.761	571.7
473.175	565
473.568	570.4
473.982	563
474.397	574.4
474.79	578.8
475.204	581.3
475.619	571.8
476.033	575.5
476.426	573.1
476.841	567.8
477.256	601.1
477.649	571.7
478.064	565
478.479	570.7
478.872	567.1
479.287	558.3
479.702	569
480.118	567.1
480.511	573.6
480.927	567.5
481.342	572.1
481.736	577.4
482.151	565.1
482.566	585.4
482.96	575
483.376	585.6
483.792	560.8
484.186	576.4
484.602	569.5
485.017	577.3
485.412	575.9
485.827	584.1
486.243	570.4
486.638	599
487.054	582.3
487.47	589.4
487.865	575.4
488.281	574.4
488.697	564.1
489.092	574.6
489.508	565.2
489.925	585.7
490.32	568
490.736	582.2
491.153	577.6
491.548	578.6
491.964	587.5
492.381	562.8
492.776	574.9
493.193	569.6
493.61	578.4
494.006	575
494.422	579.9
494.84	567.1
495.235	582.7
495.652	575.3
496.069	577.9
496.465	568.5
496.883	576
497.3	600.4
497.696	567.8
498.113	581
498.509	561.7
498.927	559.1
499.344	562.5
499.741	571
500.158	584
500.576	577.6
500.973	577.4
501.39	565.3
501.787	566.3
502.205	580.8
502.623	568.6
503.02	567.7
503.438	566.6
503.856	569.2
504.253	574
504.671	571.2
505.068	566.8
505.486	570.6
505.905	593.3
506.302	571.6
506.72	581.5
507.118	563.7
507.536	571.7
507.955	571.9
508.352	577.3
508.771	581.3
509.169	579.6
509.587	570.4
510.006	570.9
510.404	561.7
510.823	571.3
511.221	571.3
511.64	571
512.038	585.6
512.457	570.8
512.877	565.5
513.275	569.2
513.694	565.5
514.092	567.2
514.512	572.7
514.91	569.1
515.33	572.6
515.749	569.8
516.148	572.4
516.568	575.8
516.966	569.8
517.386	567.6
517.785	570.7
518.205	569.4
518.603	561.8
519.024	561.2
519.444	573
519.843	576.2
520.263	573.7
520.662	576.2
521.082	568.6
521.481	578.4
521.902	572
522.301	574.6
522.722	572.4
523.121	565.9
523.542	562
523.963	568.3
524.362	574.4
524.783	575.8
525.183	567.6
525.604	575.1
526.003	560.7
526.425	568.2
526.824	581.9
527.246	573.2
527.646	582.9
528.067	573.8
528.467	572.7
528.888	582.1
529.289	567.4
529.71	572.9
530.11	566.6
530.532	566.1
530.932	558.9
531.354	568.8
531.755	603
532.176	581.9
532.577	568.6
532.999	573.4
533.4	562.3
533.822	579.9
534.223	570.8
534.645	570.8
535.046	565.6
535.468	569.5
535.869	584.7
536.292	565.9
536.693	567.2
537.115	576.8
537.516	565.2
537.939	564.1
538.34	585.8
538.742	586.4
539.165	572.6
539.566	567.8
539.989	562.3
540.391	560.3
540.814	566.5
541.216	568.3
541.639	569.7
542.041	577.8
542.464	563.3
542.866	561.9
543.268	558.2
543.691	573
544.093	577.7
544.517	589.3
544.919	564.7
545.343	594.2
545.745	560.2
546.147	574.1
546.571	565.6
546.974	561.2
547.398	563.6
547.8	579.6
548.224	571.4
548.627	557
549.03	578.6
549.454	564.6
549.857	556.7
550.281	560.8
550.684	568.7
551.087	579.6
551.512	569.3
551.915	573.4
552.34	564.4
552.743	566.4
553.146	571.3
553.571	569.8
553.975	591.1
554.399	559.9
554.803	615.7
555.207	561.8
555.632	559.1
556.036	576.9
556.461	558.5
556.865	568.1
557.268	556.4
557.694	567.8
558.098	568.8
558.502	572.6
558.927	568.9
559.332	565.7
559.736	564.7
560.162	571.9
560.566	565.9
560.992	575.9
561.396	568.1
561.801	563.1
562.227	570.4
562.631	565.4
563.036	568
563.462	571.4
563.867	567.6
564.272	553.8
564.698	569.5
565.103	558.8
565.508	581.7
565.935	572
566.34	562.1
566.745	581.8
567.172	568.6
567.577	585.6
567.982	581.1
568.409	572.3
568.815	567
569.22	568.9
569.626	575.7
570.053	553.1
570.459	567.1
570.865	568
571.292	576.4
571.698	578.5
572.104	551
572.531	561.9
572.937	575.9
573.343	568.4
573.75	563.9
574.177	563.5
574.583	570.8
574.99	561.5
575.396	570
575.824	567.1
576.231	569.6
576.637	565.1
577.065	595.4
577.472	558.6
577.879	565.4
578.286	581.5
578.714	565.7
579.121	563.8
579.528	570.9
579.935	576.8
580.364	563.8
580.771	553.1
581.178	562.2
581.585	571.5
582.014	574.2
582.421	564.5
582.829	563.9
583.236	572.9
583.644	555.9
584.073	563.4
584.481	569.8
584.889	561.5
585.296	573.3
585.726	566.1
586.134	560.6
586.542	563.6
586.95	586.8
587.358	562.4
587.787	569.5
588.196	557.6
588.604	562.1
589.012	565.1
589.421	557.2
589.851	557.3
590.259	568.9
590.668	561.8
591.076	607.6
591.485	554.1
591.894	560.7
592.324	574.8
592.733	576.5
593.142	555.4
593.551	562.7
593.96	601.2
594.369	558.1
594.8	558.9
595.209	560
595.618	552.6
596.028	561.7
596.437	557.4
596.847	567.6
597.256	566.3
597.687	573.3
598.097	572.8
598.507	554.7
598.917	569.5
599.327	573.3
599.736	571.1
600.146	571.5
600.556	564.3
600.988	581.3
601.398	566.7
601.808	577.8
602.219	555.2
602.629	566.9
603.039	570.1
603.45	594.5
603.86	567.1
604.271	585.4
604.703	566.3
605.114	565
605.525	569.4
605.935	568.5
606.346	587.7
606.757	568.2
607.168	569.4
607.579	561.4
607.99	576.6
608.402	565.3
608.813	572.7
609.224	558.3
609.636	554.9
610.047	562.5
610.48	568.9
610.892	573.7
611.303	571.4
611.715	563.1
612.127	558
612.539	559.9
612.95	562.4
613.362	553.3
613.774	555.5
614.186	556.4
614.599	556.6
615.011	573
615.423	554.8
615.835	558.5
616.248	551.7
616.66	565.3
617.073	553.1
617.485	567.9
617.898	573
618.311	569.5
618.723	558.2
619.136	592.6
619.549	579.7
619.962	592.3
620.375	559.3
620.788	566.5
621.201	558.3
621.614	569
622.028	565.4
622.441	567
622.854	579.4
623.268	558.8
623.681	571.4
624.095	565.6
624.509	572.2
624.922	574.5
625.336	558.1
625.728	568.8
626.142	577.1
626.556	583.2
626.97	576.8
627.384	559.9
627.799	560.3
628.213	570.2
628.627	558.1
629.041	559.6
629.456	561.4
629.87	566.1
630.285	572.6
630.699	577.7
631.093	565.4
631.507	564.4
631.922	566.8
632.337	583.9
632.752	555.7
633.167	564.1
633.582	559
633.997	564.8
634.412	559.3
634.806	562.9
635.221	555.2
635.637	571.3
636.052	551.1
636.468	562
636.883	582.1
637.299	562.3
637.715	550.3
638.109	567.1
638.525	554
638.941	574.1
639.357	567.5
639.773	572.8
640.189	562.4
640.584	565.3
641	561.6
641.416	557.5
641.832	559.6
642.249	559.5
642.665	565.2
643.06	563.3
643.477	573.6
643.894	550
644.31	559.8
644.727	564.1
645.123	560.3
645.54	562.1
645.957	565.8
646.374	570.6
646.77	563.3
647.187	588.6
647.604	564.2
648.021	548.3
648.439	557.8
648.835	567.5
649.252	560.4
649.67	559.9
650.088	561.1
650.484	564.9
650.902	575.4
651.32	570.4
651.738	562.3
652.134	572.1
652.552	579.3
652.971	569.8
653.389	562.3
653.786	571
654.204	559.1
654.622	555.3
655.019	559.8
655.438	559
655.857	560.9
656.275	566.4
656.673	552
657.091	632.1
657.51	560.7
657.908	568.4
658.327	569.9
658.746	553.9
659.144	563.6
659.563	573.4
659.982	566.9
660.38	555.2
660.8	565.7
661.219	569.2
661.617	567.3
662.037	562.8
662.457	572.2
662.855	553.9
663.275	596.4
663.695	559.2
664.094	561.2
664.514	572.3
664.934	556.6
665.333	566.9
665.753	552.5
666.152	556.6
666.572	552.5
666.993	576.7
667.392	558.6
667.812	559.1
668.212	557.5
668.632	568.8
669.053	557
669.453	562.8
669.874	565.9
670.273	566.3
670.694	555.6
671.116	571.7
671.515	570.5
671.937	565.9
672.337	561.4
672.758	555.9
673.158	564.4
673.58	555
673.98	572.7
674.402	570.1
674.824	561.2
675.224	555.5
675.646	556.6
676.047	553.3
676.469	561.8
676.869	569
677.292	563.4
677.693	554.5
678.115	563.5
678.516	560.8
678.939	574.8
679.34	559.4
679.762	575.8
680.164	573.5
680.586	551.9
680.988	562.7
681.411	584.4
681.812	563.8
682.236	553.1
682.637	555.8
683.061	552.2
683.462	561
683.864	561
684.288	567.9
684.69	550.3
685.114	573.5
685.516	568.5
685.94	552.1
686.342	566.7
686.766	556
687.168	554.9
687.571	579.1
687.995	558
688.398	551.9
688.822	556.7
689.225	576.9
689.628	578
690.052	560.5
690.456	564.7
690.88	566
691.284	555.8
691.687	569.4
692.112	553.4
692.515	549.8
692.919	561.1
693.344	562.8
693.747	554.2
694.173	556.2
694.577	571.2
694.98	567.1
695.406	559
695.81	565.4
696.214	562.5
696.64	559.7
697.044	564.9
697.448	567.2
697.874	561.9
698.279	561.9
698.684	550.1
699.11	549.4
699.514	563.4
699.919	554.6
700.324	552.8
700.75	563.7
701.156	564
701.561	570.3
701.987	567.5
702.393	574.3
702.798	569.2
703.203	564.8
703.63	549.6
704.036	557.8
704.442	565.3
704.847	554.4
705.274	557.6
705.68	566.2
706.086	569.7
706.492	551
706.92	557.9
707.326	565.8
707.732	562
708.139	550.1
708.545	552.4
708.973	553.1
709.38	561.4
709.786	544.9
710.193	577.1
710.6	558.6
711.028	554.8
711.435	557.2
711.842	565.4
712.249	552.9
712.656	558.3
713.064	571.5
713.492	557.6
713.9	553.2
714.307	566
714.715	563.5
715.123	564.5
715.53	558.3
715.938	568.4
716.367	561.9
716.775	560.3
717.184	558.6
717.592	558.8
718	574.2
718.408	592.5
718.816	606.7
719.225	562.4
719.633	563.1
720.042	552.6
720.472	558
720.881	579.4
721.29	567.5
721.699	552.4
722.108	564.9
722.517	558.9
722.926	559.6
723.335	572.4
723.744	560.4
724.154	562.5
724.563	562.3
724.973	562.9
725.382	562
725.792	563.7
726.202	553.5
726.612	568.5
727.022	560.3
727.432	554.8
779.813	554.6
780.223	601.5
780.634	553.2
781.044	555.6
781.454	559.4
781.865	569.9
782.276	551
782.686	568.6
783.097	557.7
783.508	553.1
783.919	557.8
784.33	568.4
784.741	572.4
785.152	550.9
785.563	545
785.974	549.7
786.386	565.1
786.776	554.6
787.188	557.7
787.599	551.9
788.011	558.6
788.423	561.4
788.835	559.1
789.247	544.6
789.659	557.7
790.071	552.8
790.483	600.8
790.874	558.4
791.286	560.7
791.699	551.7
792.111	557.7
792.524	558.5
792.937	562.1
793.349	545.5
793.741	551.8
794.154	552.4
794.567	575
794.98	567.1
795.393	549
795.785	567.7
796.198	556
796.612	554.7
797.026	556.5
797.439	543.4
797.831	553.6
798.245	553.1
798.659	559
799.073	558.5
799.487	554.3
799.88	559.8
800.294	555
800.708	566
801.123	560.7
801.516	572.2
801.93	546
802.345	538.1
802.76	555
803.153	574.8
803.568	566.6
803.983	568.5
804.377	563.3
804.792	541.6
805.207	540.9
805.601	555.4
806.016	592.1
806.432	552.2
806.826	593.1
807.242	568.8
807.658	556
808.052	555.3
808.468	550.7
808.884	549.5
809.279	559.3
809.695	570.5
810.111	583.5
810.506	561.5
810.922	574.1
811.339	554
811.734	558
812.151	556.8
812.546	552.6
812.963	551.4
813.38	559.3
813.776	548.7
814.193	576.6
814.589	550.5
815.006	547.8
815.402	551.7
815.82	548.2
816.237	555.5
816.633	561
817.051	549.5
817.448	558.7
817.866	547.2
818.262	576.2
818.68	549.9
819.077	554.4
819.495	558.5
819.892	596
820.311	551.4
820.708	550.8
821.127	546.4
821.524	564.2
821.943	557.3
822.34	574.5
822.759	562.4
823.157	554.7
823.576	572.5
823.974	565.7
824.393	570.9
824.791	551.8
825.189	551.5
825.609	558.2
826.007	564.2
826.427	547.5
826.826	560.1
827.246	562.5
827.644	541.9
828.043	572.4
828.463	552.7
828.862	567.9
829.261	564.6
829.682	539.1
830.081	563.2
830.502	544.8
830.901	556.5
831.301	549.9
831.722	542
832.121	554.7
832.521	549.6
832.943	554.9
833.342	552.4
833.742	548
834.164	553.9
834.564	544.7
834.965	556.1
835.386	554.7
835.787	556.9
836.188	553.7
836.588	556.9
837.01	557.3
837.411	546.3
837.812	555.2
838.213	562.4
838.636	554.3
839.037	625.1
839.438	562.4
839.84	557.9
840.263	558.7
840.664	556.5
841.066	555.1
841.468	556.1
841.891	552.4
842.293	567.8
842.695	558.3
843.098	564.5
843.5	555.6
843.902	554.6
844.326	561.7
844.729	555.5
845.131	565.5
845.534	560.2
845.937	568
846.34	573.1
846.764	555.5
