#lambda/nm	C1
208.295	484.1
208.67	446.8
209.045	411.4
209.419	416.7
209.794	600.4
210.169	580.6
210.544	693.5
210.919	588.5
211.295	576.2
211.67	590.5
212.045	582.9
212.421	585.1
212.796	624.9
213.172	584.8
213.547	582.5
213.923	579.5
214.299	585.2
214.675	596.2
215.051	597.6
215.427	591.6
215.803	610.8
216.179	588.9
216.555	582
216.932	595.9
217.308	589
217.684	590.2
218.061	595.1
218.438	596.2
218.814	585.4
219.191	594.6
219.568	581.7
219.945	590.2
220.322	597.3
220.699	595.9
221.076	595.1
221.453	592.9
221.83	587.1
222.208	588.8
222.585	584.7
222.962	593.6
223.34	593.1
223.717	592.8
224.095	584.6
224.473	590.5
224.851	582.5
225.229	586.8
225.607	604.8
225.985	578.9
226.363	596
226.741	589.1
227.119	586.5
227.497	601.4
227.876	576.5
228.254	606
228.633	597.9
229.011	595.7
229.39	597
229.769	595.9
230.148	601.5
230.527	608.9
230.905	591.3
231.284	596
231.664	590.2
232.043	607.2
232.422	592.2
232.801	586.2
233.181	595.2
233.56	589
233.94	588
234.319	578.4
234.699	584.5
235.079	628.2
235.458	630.4
235.838	599.1
236.218	586.2
236.598	582.4
236.978	585.5
237.358	581.2
237.738	586.3
238.119	600.1
238.499	581.5
238.88	589.6
239.26	605.7
239.641	585.6
240.021	586.2
240.402	594.3
240.783	585
241.163	590.3
241.544	599.7
241.925	592.7
242.306	610.4
242.687	585.8
243.069	593
243.45	596.2
243.831	585.7
244.212	590.1
244.594	622.3
244.975	592.1
245.357	598.5
245.739	588.4
246.12	593.2
246.502	606.1
246.884	587.6
247.266	589.6
247.648	595.3
248.03	611.2
248.412	599.8
248.794	596
249.176	585.5
249.559	602.8
249.941	586.3
250.323	582.5
250.706	589.1
251.089	596.1
251.471	595.1
251.854	593.5
252.237	588.7
252.62	603.3
253.002	589.3
253.385	593.6
253.769	608.8
254.152	592.7
254.535	600.5
254.918	581.7
255.301	591.4
255.685	588.5
256.068	582.3
256.452	616.8
256.835	592
257.219	597.5
257.603	604.2
257.986	585.4
258.37	597.1
258.754	586.2
259.138	593.4
259.522	600.9
259.906	587.3
260.29	591.9
260.675	585.8
261.059	593.8
261.443	585.4
261.828	594.3
262.212	596.1
262.597	580.7
262.981	592.2
263.366	598.7
263.751	598.6
264.136	588
264.521	588
264.906	583.3
265.291	600.6
265.676	591.5
266.061	593.4
266.446	611
266.831	589.5
267.217	620.1
267.602	593.8
267.987	595.9
268.373	590.6
268.759	595
269.144	599
269.53	594
269.916	586.8
270.302	585.6
270.688	599
271.074	592.2
271.46	598
271.846	616
272.232	589.9
272.618	584.3
273.004	590.6
273.391	602.8
273.777	606.5
274.164	596.7
274.55	605.1
274.937	596.3
275.324	591.5
275.71	601.2
276.097	603.6
276.484	587.7
276.871	594.8
277.258	600.8
277.645	580.1
278.032	599.6
278.419	590.9
278.807	598.5
279.194	583
279.581	588.6
279.969	601
280.356	596
280.744	592
281.131	615.5
281.519	602.7
281.907	588
282.295	588.4
282.682	608
283.07	593.7
283.458	603.2
283.846	598
284.235	602.9
284.623	599.6
285.011	586.7
285.399	587.3
285.788	587.5
286.176	582.8
286.565	599.8
286.953	588.9
287.342	590.7
287.731	590
288.119	582.7
288.508	593.1
288.897	594
289.286	579
289.675	595
290.064	602.9
290.453	586.8
290.821	593
291.21	609.8
291.599	588
291.989	594
292.378	603.6
292.768	612.2
293.157	599.1
293.547	603
293.936	587.3
294.326	590.6
294.716	593.3
295.106	593.6
295.496	598.4
295.886	606.9
296.276	591.1
296.666	587.9
297.056	583.1
297.446	582.6
297.836	605.2
298.227	591.1
298.617	594.8
299.008	605.4
299.398	590.6
299.789	587.4
300.179	593.8
300.57	602.9
300.961	579.7
301.352	587
301.742	598.5
302.133	592.9
302.524	596.5
302.915	593.9
303.307	585.7
303.698	601.5
304.089	604.6
304.48	596.3
304.872	593.8
305.263	590.5
305.655	592.5
306.046	600.2
306.438	589.9
306.829	585.5
307.221	605.6
307.613	597
308.005	603.2
308.397	605.2
308.789	609.9
309.181	616.4
309.573	608.2
309.965	603.5
310.357	589.8
310.749	594
311.142	580
311.534	582.5
311.926	606.5
312.319	591.2
312.711	590.1
313.104	607.8
313.497	593.8
313.889	625.7
314.282	613.8
314.675	621.5
315.068	596.7
315.461	604.2
315.854	618.8
316.247	604.3
316.64	592.6
317.033	594.3
317.405	597.8
317.798	597.7
318.192	599.3
318.585	587.6
318.979	601.1
319.372	589.8
319.766	599.3
320.16	605
320.553	614.7
320.947	611.1
321.341	592
321.735	598.9
322.129	580.1
322.523	619.5
322.917	586.3
323.311	607.9
323.705	594.9
324.099	606.6
324.494	611.3
324.888	604
325.282	592.3
325.677	598.2
326.071	603
326.466	605.3
326.861	596.5
327.255	606
327.65	608.9
328.045	609.7
328.44	595.8
328.835	594.8
329.23	584
329.625	618.5
330.02	590.7
330.415	618.8
330.81	593
331.206	597.9
331.601	593.8
331.996	602.4
332.37	601.8
332.766	581.2
333.161	613.1
333.557	586.8
333.953	591.7
334.348	837.2
334.744	593.4
335.14	592.6
335.536	591
335.932	604.9
336.328	592.6
336.724	597.2
337.12	591.5
337.516	598.7
337.913	590.7
338.309	603.7
338.705	589.7
339.102	610.9
339.498	593.2
339.895	606.5
340.291	589.2
340.688	601.4
341.085	587.5
341.481	589.1
341.878	593
342.275	609.7
342.672	584.9
343.069	586.9
343.466	582.8
343.842	600.6
344.239	590.6
344.636	591.7
345.033	584.6
345.431	586.2
345.828	591.3
346.225	584.6
346.623	598.7
347.02	590.8
347.418	600.5
347.816	610.4
348.213	587.5
348.611	597.3
349.009	591.7
349.407	601.3
349.805	583.9
350.203	581.8
350.601	603.6
350.999	585.6
351.397	582.5
351.795	590.3
352.193	602.9
352.57	599.1
352.969	598.2
353.367	583.2
353.766	582.9
354.164	590.7
354.563	599
354.961	589.7
355.36	586.3
355.759	590.2
356.158	582.9
356.557	583.6
356.956	582.3
357.355	572.1
357.754	593.9
358.153	596.1
358.552	611.8
358.951	589.2
359.35	601.6
359.75	582.3
360.149	587.1
360.527	569.8
360.926	579.5
361.326	592.4
361.726	584.5
362.125	581.2
362.525	595.1
362.925	584.8
363.325	589.1
363.724	592.8
364.124	584.1
364.524	579.8
364.924	584.9
365.324	601.3
365.725	572.6
366.125	594.1
366.525	582.8
366.904	579
367.304	572.7
367.705	608.7
368.105	598.5
368.506	588
368.906	584.9
369.307	586.4
369.708	589.5
370.108	574.5
370.509	603.2
370.91	581.2
371.311	588.9
371.712	587.7
372.113	586.5
372.514	570.9
372.894	588.4
373.295	583.5
373.696	594.1
374.097	594.7
374.499	612.7
374.9	585.8
375.301	580.5
375.703	589.7
376.105	579.2
376.506	585.7
376.908	591.4
377.309	583.7
377.711	583.6
378.113	577.6
378.493	590.7
378.895	581.5
379.297	598.7
379.699	570.8
380.102	593.3
380.504	587.1
380.906	579.4
381.308	610.5
381.71	587
382.113	590.4
382.515	580.8
382.918	587
383.299	585.9
383.701	596.6
384.104	590.1
384.507	570.9
384.909	581.2
385.312	576.1
385.715	578.3
386.118	585.1
386.521	570.6
386.924	596
387.327	584.5
387.709	570.2
388.112	569.5
388.515	586.1
388.918	583.6
389.322	588.1
389.725	582.4
390.129	600.7
390.532	592.3
390.936	586.1
391.339	587.5
391.743	589.2
392.125	578.2
392.529	597.2
392.933	597.2
393.337	583.4
393.74	580
394.144	589
394.548	575.3
394.953	580.5
395.357	590.6
395.761	580
396.144	587.6
396.548	583.8
396.952	588.3
397.357	583
397.761	578.3
398.166	574.7
398.57	583.1
398.975	576
399.379	586.6
399.763	631.7
400.168	585.6
400.572	579.6
400.977	581
401.382	605
401.787	593
402.192	601.2
402.597	596.5
403.002	574.2
403.386	596.5
403.791	599.7
404.197	581.8
404.602	581.1
405.007	582.7
405.413	585.1
405.818	575.1
406.224	577.2
406.608	582.4
407.014	575.2
407.42	594.8
407.825	576.4
408.231	597.9
408.637	577.7
409.043	597.9
409.449	583.8
409.834	578.5
410.24	592.9
410.646	597
411.052	593.5
411.458	592.3
411.865	590.5
412.271	589.2
412.677	589.5
413.062	591.3
413.469	576.9
413.875	607.6
414.282	609.6
414.689	587.2
415.095	600.1
415.502	578.3
415.888	587.4
416.294	573.9
416.701	623.3
417.108	575.8
417.515	596.5
417.923	589.1
418.33	604.4
418.715	597.4
419.123	592
419.53	588
419.937	585.4
420.345	602.1
420.752	583.6
421.16	602.9
421.546	589.1
421.953	600.7
422.361	585.1
422.769	581
423.177	580.7
423.585	607.5
423.992	610.1
424.379	596.1
424.787	597.6
425.195	602.5
425.603	588.9
426.011	599.2
426.419	599.4
426.806	590.3
427.214	596.1
427.623	594.5
428.031	609
428.44	588
428.848	603.8
429.235	611
429.644	593.2
430.053	595.5
430.461	619.7
430.87	627.7
431.279	618.3
431.666	612.6
432.075	624.1
432.484	637.5
432.893	640.5
433.302	669.2
433.711	704.4
434.099	675.2
434.508	682.8
434.918	694
435.327	722.4
435.737	732.2
436.125	753.9
436.534	763.8
436.944	791.9
437.353	817.2
437.763	848.2
438.173	839.7
438.561	875.1
438.971	879.7
439.381	911.7
439.791	937.5
440.201	934.3
440.589	973.9
440.999	990.3
441.409	1012.9
441.819	1033
442.23	1062.8
442.619	1080.6
443.029	1092.5
443.439	1108.7
443.85	1138.3
444.26	1157.9
444.649	1172.1
445.06	1171.1
445.471	1158.4
445.881	1186.6
446.292	1217
446.682	1228.8
447.092	1217.8
447.503	1290.8
447.914	1259.6
448.325	1264.5
448.715	1279.3
449.126	1281.4
449.537	1293.9
449.948	1308.6
450.338	1313.5
450.75	1327.1
451.161	1323
451.572	1327.9
451.984	1342.6
452.374	1339.1
452.786	1350.7
453.197	1363.7
453.609	1373.6
453.999	1365
454.411	1361.5
454.823	1384.5
455.235	1386.7
455.647	1378.6
456.037	1391.5
456.449	1385.2
456.862	1383.2
457.274	1393.2
457.665	1382.9
458.077	1388.3
458.489	1408.9
458.902	1394.3
459.293	1404.2
459.705	1406.6
460.118	1389.8
460.53	1392.2
460.921	1385.7
461.334	1385
461.747	1393.9
462.16	1407
462.551	1400.6
462.964	1391.3
463.377	1369
463.79	1382.6
464.182	1401.4
464.595	1378.3
465.008	1399
465.421	1402.4
465.813	1397.5
466.226	1390.8
466.64	1391.3
467.053	1427.5
467.445	1392.1
467.859	1375.9
468.272	1369.7
468.686	1386.2
469.078	1366.6
469.492	1362.5
469.906	1374.1
470.298	1370.8
470.712	1343.3
471.126	1384.7
471.54	1343.4
471.933	1350.4
472.347	1344.5
472.761	1341.8
473.175	1330.3
473.568	1328.2
473.982	1319.8
474.397	1338.2
474.79	1325.3
475.204	1343.6
475.619	1316.1
476.033	1316.2
476.426	1316
476.841	1304.4
477.256	1329.3
477.649	1306.7
478.064	1293.9
478.479	1296.6
478.872	1274.7
479.287	1276.7
479.702	1276.4
480.118	1286
480.511	1269.7
480.927	1262.6
481.342	1275.8
481.736	1272.9
482.151	1259.3
482.566	1270.6
482.96	1254.4
483.376	1263.7
483.792	1245.8
484.186	1258.8
484.602	1244.6
485.017	1251.5
485.412	1240.5
485.827	1235.4
486.243	1230.7
486.638	1253.3
487.054	1233.1
487.47	1233.1
487.865	1211.1
488.281	1206.4
488.697	1200.6
489.092	1199
489.508	1176.2
489.925	1204.5
490.32	1176.8
490.736	1181.1
491.153	1178.8
491.548	1167.6
491.964	1175.9
492.381	1155
492.776	1166.1
493.193	1154.1
493.61	1160.2
494.006	1143.2
494.422	1141.4
494.84	1136.7
495.235	1138.2
495.652	1122.9
496.069	1128.4
496.465	1106.1
496.883	1116.5
497.3	1133.2
497.696	1100.8
498.113	1111.7
498.509	1082.1
498.927	1072
499.344	1076.3
499.741	1073.5
500.158	1073.4
500.576	1081.3
500.973	1070.3
501.39	1052
501.787	1048.6
502.205	1050.2
502.623	1043.1
503.02	1035.7
503.438	1033.5
503.856	1031.5
504.253	1025
504.671	1033.7
505.068	1015.9
505.486	1006.6
505.905	1039.2
506.302	1006.4
506.72	1021.3
507.118	988.6
507.536	1004.3
507.955	987.4
508.352	992.6
508.771	989.6
509.169	988.1
509.587	969.8
510.006	972.9
510.404	963
510.823	960.5
511.221	966.4
511.64	952.2
512.038	978.5
512.457	959
512.877	949.5
513.275	933.5
513.694	930.3
514.092	932.5
514.512	927.4
514.91	919.5
515.33	914.7
515.749	921
516.148	918.9
516.568	916
516.966	918.7
517.386	897.9
517.785	905.6
518.205	890.7
518.603	883.5
519.024	877.1
519.444	883
519.843	897.2
520.263	886.8
520.662	882
521.082	869.5
521.481	871.4
521.902	874.7
522.301	866.8
522.722	861.1
523.121	854.4
523.542	847.8
523.963	853.1
524.362	850.6
524.783	843.4
525.183	843.4
525.604	843.3
526.003	830.5
526.425	828
526.824	828.1
527.246	841.7
527.646	829.7
528.067	825.7
528.467	829.8
528.888	814.6
529.289	808.1
529.71	808.9
530.11	804.9
530.532	793.2
530.932	794.7
531.354	786.7
531.755	832.4
532.176	799.5
532.577	782.8
532.999	789.1
533.4	779.2
533.822	795.4
534.223	784.4
534.645	775.9
535.046	775.5
535.468	775.7
535.869	789.1
536.292	765.6
536.693	771.6
537.115	770.5
537.516	761
537.939	753.3
538.34	778.8
538.742	773.6
539.165	761.3
539.566	760.6
539.989	748.6
540.391	752.8
540.814	751.1
541.216	756.8
541.639	752.9
542.041	752.1
542.464	749.1
542.866	736.7
543.268	735.7
543.691	746.1
544.093	748.5
544.517	760.8
544.919	730.1
545.343	757.7
545.745	720.5
546.147	736.7
546.571	731.4
546.974	719.1
547.398	722.8
547.8	738
548.224	722.6
548.627	717
549.03	722
549.454	711.4
549.857	706.9
550.281	712.8
550.684	703.7
551.087	721.6
551.512	704.7
551.915	712.1
552.34	708.4
552.743	708
553.146	704.4
553.571	699.2
553.975	709.8
554.399	687.6
554.803	745.4
555.207	688.7
555.632	686.2
556.036	693.1
556.461	676.3
556.865	687.6
557.268	680.9
557.694	686.6
558.098	688.6
558.502	678.8
558.927	678
559.332	681.2
559.736	681.5
560.162	678.5
560.566	683.3
560.992	682.4
561.396	677.2
561.801	669
562.227	673.3
562.631	669.8
563.036	672
563.462	677.9
563.867	662.3
564.272	657.2
564.698	668.1
565.103	653.7
565.508	679.2
565.935	661
566.34	653.8
566.745	671
567.172	658.8
567.577	673.7
567.982	665.4
568.409	664.3
568.815	644.5
569.22	649.8
569.626	655.1
570.053	641.4
570.459	652.4
570.865	655.6
571.292	653.1
571.698	648
572.104	631
572.531	640.5
572.937	657.8
573.343	637.7
573.75	630.9
574.177	647.4
574.583	643.5
574.99	637.8
575.396	642.9
575.824	640.4
576.231	647.6
576.637	635.1
577.065	656
577.472	629.9
577.879	636.2
578.286	646.9
578.714	622.9
579.121	630.6
579.528	628.1
579.935	640.9
580.364	628
580.771	614.6
581.178	629
581.585	629.9
582.014	633.9
582.421	621.2
582.829	622.2
583.236	632.6
583.644	618
584.073	617.1
584.481	621.6
584.889	618.7
585.296	625.4
585.726	623.7
586.134	619
586.542	615.9
586.95	639.9
587.358	606.1
587.787	612.3
588.196	610
588.604	614.1
589.012	620.8
589.421	604.8
589.851	609.1
590.259	618
590.668	608
591.076	646.9
591.485	604.6
591.894	609.2
592.324	615.4
592.733	622.2
593.142	602.2
593.551	600.8
593.96	627.3
594.369	598.3
594.8	599.2
595.209	599.2
595.618	588.6
596.028	589.9
596.437	593.4
596.847	600.7
597.256	602.6
597.687	603.3
598.097	596.7
598.507	589.2
598.917	598.5
599.327	602.2
599.736	604.4
600.146	608.8
600.556	598
600.988	605.9
601.398	597.7
601.808	613.9
602.219	582.4
602.629	595.2
603.039	599.8
603.45	626.1
603.86	596.8
604.271	610.8
604.703	592.8
605.114	596.1
605.525	599
605.935	593.1
606.346	615.1
606.757	594
607.168	591.6
607.579	587
607.99	603.5
608.402	588.8
608.813	603.3
609.224	586.9
609.636	579.1
610.047	582.3
610.48	590
610.892	596.4
611.303	602.6
611.715	586.8
612.127	577
612.539	584.5
612.95	591.5
613.362	576.4
613.774	582.4
614.186	577.6
614.599	582.2
615.011	599.8
615.423	575.2
615.835	581.7
616.248	583.1
616.66	591.1
617.073	585.5
617.485	594.6
617.898	593.1
618.311	586.8
618.723	591
619.136	613.8
619.549	601.1
619.962	604.6
620.375	582.2
620.788	584.8
621.201	581.9
621.614	589.6
622.028	578.9
622.441	590.3
622.854	604.7
623.268	578.1
623.681	590.8
624.095	583.8
624.509	591.3
624.922	590.8
625.336	569.6
625.728	581.7
626.142	590.2
626.556	599.9
626.97	588
627.384	579.2
627.799	584.9
628.213	593.1
628.627	582
629.041	583.2
629.456	580.8
629.87	580.1
630.285	592.9
630.699	593.5
631.093	582.4
631.507	584.7
631.922	580.6
632.337	591.2
632.752	569.2
633.167	582.1
633.582	579.3
633.997	573.5
634.412	575.5
634.806	579.6
635.221	567.2
635.637	587.4
636.052	567.5
636.468	578.5
636.883	594
637.299	579.1
637.715	566.5
638.109	579.8
638.525	558.3
638.941	592.1
639.357	578.1
639.773	591
640.189	569.7
640.584	576.5
641	581.9
641.416	565.6
641.832	579.6
642.249	575.4
642.665	578
643.06	583.4
643.477	586.4
643.894	565.3
644.31	574.2
644.727	581.6
645.123	578
645.54	570.3
645.957	575.8
646.374	579.3
646.77	573.7
647.187	605
647.604	578.6
648.021	565.6
648.439	563
648.835	577.8
649.252	572.9
649.67	574.9
650.088	576.4
650.484	575.6
650.902	576.5
651.32	581.4
651.738	571.8
652.134	572.2
652.552	589.1
652.971	585.6
653.389	578.3
653.786	589.2
654.204	576.6
654.622	565.6
655.019	571.3
655.438	575.2
655.857	576.8
656.275	577.5
656.673	571.8
657.091	648.3
657.51	565.5
657.908	584.9
658.327	592.5
658.746	567
659.144	576.5
659.563	582.3
659.982	572.7
660.38	560.7
660.8	571.5
661.219	586
661.617	579.4
662.037	575
662.457	582.3
662.855	554.9
663.275	609.1
663.695	575.4
664.094	576.4
664.514	571.2
664.934	561.2
665.333	579.6
665.753	566.3
666.152	564.5
666.572	568
666.993	582.6
667.392	570.8
667.812	568.6
668.212	571.4
668.632	584.3
669.053	566.8
669.453	573.7
669.874	571.3
670.273	573.9
670.694	569.9
671.116	588.4
671.515	581.3
671.937	566.4
672.337	562.3
672.758	568.8
673.158	586.1
673.58	564.7
673.98	570.3
674.402	577.7
674.824	570.9
675.224	563.4
675.646	558.7
676.047	564.6
676.469	574.4
676.869	570.6
677.292	573.4
677.693	568.6
678.115	565.1
678.516	579.3
678.939	571.8
679.34	565
679.762	577.9
680.164	573.4
680.586	561.7
680.988	570
681.411	591.8
681.812	563.7
682.236	562.5
682.637	561.4
683.061	557.9
683.462	572.2
683.864	567.7
684.288	573.5
684.69	559.4
685.114	580.4
685.516	576.4
685.94	557.4
686.342	577.5
686.766	564
687.168	571
687.571	581
687.995	564.6
688.398	555.9
688.822	564.3
689.225	580.6
689.628	581.6
690.052	556.7
690.456	570.2
690.88	566.8
691.284	553
691.687	565.3
692.112	558.2
692.515	558.7
692.919	563.1
693.344	566.1
693.747	564
694.173	556.4
694.577	575.7
694.98	568.9
695.406	561.5
695.81	573.4
696.214	575.8
696.64	568.6
697.044	573.5
697.448	575.1
697.874	565.4
698.279	561.6
698.684	562
699.11	560.5
699.514	565.9
699.919	563.8
700.324	562.1
700.75	568.3
701.156	566.8
701.561	577.4
701.987	569.9
702.393	574
702.798	568
703.203	571.4
703.63	559.8
704.036	566
704.442	568.6
704.847	563.6
705.274	563.4
705.68	570.3
706.086	576.4
706.492	554.9
706.92	564.7
707.326	573.2
707.732	564.1
708.139	556.1
708.545	559.8
708.973	558.2
709.38	565.9
709.786	551.5
710.193	575.8
710.6	561.9
711.028	560.1
711.435	562.3
711.842	566.7
712.249	559.1
712.656	565
713.064	569.6
713.492	558.4
713.9	556.9
714.307	573.8
714.715	568.5
715.123	564
715.53	567.5
715.938	572.7
716.367	569
716.775	563.7
717.184	558.4
717.592	564.9
718	573
718.408	596.5
718.816	604.8
719.225	572.1
719.633	570.4
720.042	562
720.472	561
720.881	580
721.29	571.5
721.699	558.5
722.108	565.2
722.517	565.6
722.926	559.1
723.335	573.5
723.744	567.8
724.154	563.7
724.563	565.3
724.973	566.7
725.382	567.3
725.792	561.6
726.202	557.2
726.612	576.6
727.022	560.1
727.432	564.1
779.813	568
780.223	608
780.634	559.1
781.044	554.3
781.454	564.8
781.865	574.4
782.276	553.6
782.686	567.6
783.097	559.9
783.508	560.5
783.919	570.4
784.33	577
784.741	577.1
785.152	555.8
785.563	545.4
785.974	555.4
786.386	570.4
786.776	563.5
787.188	567.4
787.599	553.1
788.011	571.5
788.423	562.5
788.835	564.2
789.247	554.4
789.659	555.7
790.071	563
790.483	609.5
790.874	559.1
791.286	573.8
791.699	557.7
792.111	564.8
792.524	565
792.937	565.7
793.349	552.8
793.741	561
794.154	557.1
794.567	573.5
794.98	563.2
795.393	548.1
795.785	572.8
796.198	558.7
796.612	560.5
797.026	559.6
797.439	543.9
797.831	560.1
798.245	553.8
798.659	556.3
799.073	555.1
799.487	557.9
799.88	561.4
800.294	561.4
800.708	565.8
801.123	560.8
801.516	576.2
801.93	549
802.345	550.5
802.76	563
803.153	572.9
803.568	575.1
803.983	570.1
804.377	564.4
804.792	552.3
805.207	551.1
805.601	556.7
806.016	597.6
806.432	553.3
806.826	590.3
807.242	578.9
807.658	568.6
808.052	561.9
808.468	559.5
808.884	557.9
809.279	564.1
809.695	572.9
810.111	582.1
810.506	565.4
810.922	582.7
811.339	557.9
811.734	565.9
812.151	560.4
812.546	557.4
812.963	560.6
813.38	568
813.776	565.9
814.193	583.2
814.589	549.8
815.006	562.6
815.402	558.4
815.82	559.9
816.237	563.5
816.633	564
817.051	552.4
817.448	565.6
817.866	547.2
818.262	586.4
818.68	552.9
819.077	559.7
819.495	563.3
819.892	599.5
820.311	559.1
820.708	560.6
821.127	560.4
821.524	572.3
821.943	564.5
822.34	583
822.759	563.5
823.157	561.6
823.576	573.2
823.974	563.4
824.393	573.2
824.791	553.4
825.189	550.5
825.609	558
826.007	561.4
826.427	546.2
826.826	555.6
827.246	564.3
827.644	545.8
828.043	572.1
828.463	557.9
828.862	572.7
829.261	571.6
829.682	550.9
830.081	570.3
830.502	561.3
830.901	563.9
831.301	558.4
831.722	549.7
832.121	563.4
832.521	561.4
832.943	555
833.342	553.7
833.742	550.8
834.164	559.1
834.564	547.8
834.965	559.1
835.386	554.1
835.787	557.2
836.188	557.8
836.588	558.6
837.01	559.9
837.411	546.7
837.812	560
838.213	560.2
838.636	554.7
839.037	623.1
839.438	557.5
839.84	561.3
840.263	562.1
840.664	561.4
841.066	558.3
841.468	556.8
841.891	552.4
842.293	570.7
842.695	561.2
843.098	571.7
843.5	560
843.902	563.6
844.326	561.7
