#lambda/nm	C1
208.295	483.9
208.67	446.8
209.045	409.7
209.419	412.4
209.794	598.7
210.169	580.5
210.544	700.2
210.919	601.1
211.295	587.8
211.67	597.3
212.045	587.4
212.421	589.4
212.796	623.3
213.172	583.8
213.547	585.6
213.923	586.4
214.299	583.9
214.675	595.5
215.051	595.8
215.427	597.7
215.803	609.5
216.179	595
216.555	587
216.932	598.4
217.308	588
217.684	590.1
218.061	600.9
218.438	595.7
218.814	588.2
219.191	596.3
219.568	581.5
219.945	590
220.322	600.4
220.699	595.5
221.076	599.5
221.453	596.1
221.83	585.4
222.208	584.6
222.585	588.1
222.962	597.1
223.34	597.9
223.717	595.3
224.095	587.6
224.473	593
224.851	585.5
225.229	578.3
225.607	609.6
225.985	581.2
226.363	590.1
226.741	595.1
227.119	592.4
227.497	600.2
227.876	577
228.254	600.7
228.633	597
229.011	589.1
229.39	598
229.769	598.3
230.148	598.9
230.527	608.6
230.905	591.9
231.284	598.8
231.664	590.1
232.043	601.2
232.422	599.7
232.801	592.1
233.181	597.5
233.56	592.6
233.94	590.9
234.319	579.4
234.699	599.5
235.079	633.4
235.458	631.8
235.838	608.8
236.218	587.8
236.598	580.8
236.978	587.3
237.358	587.6
237.738	590.2
238.119	599.8
238.499	586
238.88	586.8
239.26	608.3
239.641	583.5
240.021	592.2
240.402	589.3
240.783	590.4
241.163	591.2
241.544	590.9
241.925	590
242.306	606.6
242.687	589.9
243.069	590.4
243.45	603.2
243.831	592.7
244.212	590.8
244.594	623.9
244.975	600
245.357	594.2
245.739	588.9
246.12	589.7
246.502	608.9
246.884	588.8
247.266	586.1
247.648	596.6
248.03	615.4
248.412	595.6
248.794	599.3
249.176	592.9
249.559	603.8
249.941	583.4
250.323	583
250.706	587.9
251.089	592.2
251.471	590.4
251.854	590.5
252.237	591.6
252.62	604
253.002	591.8
253.385	592.9
253.769	611.5
254.152	591.3
254.535	601.3
254.918	577.9
255.301	589.9
255.685	591.4
256.068	583.5
256.452	614.3
256.835	596
257.219	598.2
257.603	599.1
257.986	581.4
258.37	593.7
258.754	581
259.138	598.5
259.522	596.2
259.906	586.5
260.29	590.3
260.675	590.5
261.059	599.4
261.443	585.8
261.828	594.8
262.212	598
262.597	576
262.981	582.2
263.366	597.9
263.751	590.2
264.136	584.8
264.521	578.6
264.906	581.5
265.291	598.3
265.676	587.3
266.061	593.7
266.446	608.8
266.831	590
267.217	608
267.602	591.2
267.987	588.2
268.373	586.4
268.759	598.3
269.144	598.8
269.53	592.6
269.916	586.1
270.302	586.8
270.688	597.9
271.074	592.9
271.46	601.3
271.846	622
272.232	594.2
272.618	585.6
273.004	588.2
273.391	601
273.777	606.7
274.164	601.2
274.55	603.5
274.937	596.6
275.324	591.2
275.71	600.3
276.097	599.7
276.484	590.8
276.871	596.5
277.258	595
277.645	583.5
278.032	591.7
278.419	586.2
278.807	596.3
279.194	585.1
279.581	586.5
279.969	600.1
280.356	593.5
280.744	596.7
281.131	610.3
281.519	605.3
281.907	589
282.295	590.2
282.682	604.5
283.07	594.2
283.458	603.6
283.846	605.2
284.235	608.2
284.623	601.5
285.011	590.1
285.399	595.1
285.788	595.4
286.176	582.4
286.565	606.1
286.953	589.7
287.342	591.6
287.731	589.2
288.119	588.8
288.508	588.2
288.897	593.2
289.286	580
289.675	595
290.064	601.4
290.453	582.6
290.821	591.6
291.21	605.9
291.599	589.9
291.989	590.1
292.378	600.5
292.768	610.9
293.157	597.1
293.547	601.9
293.936	589.8
294.326	587.5
294.716	598.6
295.106	591.2
295.496	602.6
295.886	603.7
296.276	592
296.666	586.7
297.056	584.3
297.446	585.8
297.836	607.1
298.227	592.8
298.617	596.4
299.008	598
299.398	594.8
299.789	589.9
300.179	599.1
300.57	603.6
300.961	585.7
301.352	584.6
301.742	596
302.133	593.5
302.524	589.1
302.915	592.8
303.307	580.6
303.698	598.8
304.089	595.5
304.48	590.2
304.872	597
305.263	597.5
305.655	587.1
306.046	597.1
306.438	596.9
306.829	587.9
307.221	608
307.613	598.2
308.005	596.3
308.397	610.5
308.789	616.8
309.181	617.3
309.573	613.3
309.965	606.3
310.357	590.7
310.749	595.7
311.142	586.6
311.534	585.6
311.926	601.7
312.319	591.6
312.711	591.2
313.104	605.2
313.497	594.9
313.889	629.5
314.282	608.1
314.675	613.4
315.068	596
315.461	602.8
315.854	616.6
316.247	604.8
316.64	590.2
317.033	590.8
317.405	603.3
317.798	596.6
318.192	600.1
318.585	589
318.979	602.1
319.372	590.7
319.766	592.5
320.16	605.3
320.553	607.5
320.947	617
321.341	587.7
321.735	590.5
322.129	582.3
322.523	619.6
322.917	587.7
323.311	605.8
323.705	600
324.099	601.1
324.494	607.6
324.888	602.9
325.282	590.9
325.677	597.4
326.071	607.8
326.466	608.6
326.861	596.8
327.255	603.1
327.65	609.5
328.045	601.6
328.44	594.4
328.835	595.7
329.23	593
329.625	619.5
330.02	591.7
330.415	614
330.81	604.1
331.206	595.2
331.601	585.7
331.996	599.6
332.37	605.7
332.766	588.1
333.161	617.2
333.557	592
333.953	592.4
334.348	838.3
334.744	599
335.14	592.4
335.536	588
335.932	603.6
336.328	595.6
336.724	598.3
337.12	597.4
337.516	594.2
337.913	597.8
338.309	604
338.705	599.6
339.102	603.8
339.498	592
339.895	609.6
340.291	588.2
340.688	599.3
341.085	587.1
341.481	592.1
341.878	591.5
342.275	611.9
342.672	578.7
343.069	593.4
343.466	581
343.842	599.3
344.239	585.5
344.636	591.1
345.033	589.6
345.431	586.5
345.828	590.8
346.225	584
346.623	599.8
347.02	589.6
347.418	598.6
347.816	606.6
348.213	582.9
348.611	591.2
349.009	587.6
349.407	609.4
349.805	580.3
350.203	581.3
350.601	603.3
350.999	588.6
351.397	586.4
351.795	590.6
352.193	597.3
352.57	602
352.969	606.1
353.367	587.6
353.766	586.5
354.164	592.1
354.563	599.7
354.961	587.9
355.36	585.1
355.759	587
356.158	580.7
356.557	586.3
356.956	580.7
357.355	578.6
357.754	590.4
358.153	600.2
358.552	615.7
358.951	587.2
359.35	598.7
359.75	588.1
360.149	578.9
360.527	576.1
360.926	576.2
361.326	585.4
361.726	585.4
362.125	582.5
362.525	595.7
362.925	584.5
363.325	588.4
363.724	587.5
364.124	579.7
364.524	577.9
364.924	585.8
365.324	598.6
365.725	576.2
366.125	593.4
366.525	587.6
366.904	587.1
367.304	575.5
367.705	605.5
368.105	600.3
368.506	583.9
368.906	588.2
369.307	585.9
369.708	593.3
370.108	574
370.509	592.7
370.91	585.9
371.311	590.1
371.712	591.2
372.113	587.8
372.514	576.3
372.894	587.4
373.295	576.2
373.696	601.5
374.097	596
374.499	614.2
374.9	585.7
375.301	577.7
375.703	592.3
376.105	580.3
376.506	592.4
376.908	594.2
377.309	589.1
377.711	590.2
378.113	585.3
378.493	587.4
378.895	579.9
379.297	591.9
379.699	575.3
380.102	594.1
380.504	591.5
380.906	580.8
381.308	609.8
381.71	582.6
382.113	600.5
382.515	582.2
382.918	591.1
383.299	588.8
383.701	594.3
384.104	586.8
384.507	568.8
384.909	584.2
385.312	572.9
385.715	573.9
386.118	587.4
386.521	574.1
386.924	601.1
387.327	577
387.709	573.1
388.112	568.4
388.515	581.6
388.918	582.2
389.322	588.8
389.725	576
390.129	606.7
390.532	592.7
390.936	579.1
391.339	573.1
391.743	581.1
392.125	586
392.529	594.8
392.933	599.6
393.337	587.3
393.74	579.6
394.144	580.1
394.548	581.6
394.953	580.4
395.357	589.6
395.761	578.6
396.144	584.2
396.548	581.5
396.952	583.9
397.357	585.6
397.761	577.1
398.166	582.1
398.57	583.1
398.975	570.5
399.379	587.3
399.763	628.7
400.168	581.6
400.572	582.7
400.977	580.4
401.382	601.5
401.787	596.3
402.192	604.2
402.597	599.9
403.002	569.1
403.386	598.9
403.791	601.8
404.197	581.7
404.602	580.2
405.007	580.3
405.413	578.2
405.818	573.5
406.224	577
406.608	576.9
407.014	575.8
407.42	597.5
407.825	578.8
408.231	594.1
408.637	588.2
409.043	603.2
409.449	584.5
409.834	579.4
410.24	589.6
410.646	601.2
411.052	592.1
411.458	586.6
411.865	591.7
412.271	595.2
412.677	591
413.062	589.2
413.469	580.2
413.875	606.1
414.282	603.5
414.689	589.8
415.095	590.8
415.502	579.4
415.888	585.5
416.294	575.6
416.701	623.7
417.108	578.2
417.515	596.1
417.923	585.5
418.33	609.9
418.715	597.3
419.123	577.4
419.53	580.4
419.937	590.9
420.345	604.4
420.752	581.2
421.16	602.1
421.546	586.6
421.953	591.1
422.361	588.2
422.769	584.2
423.177	579.9
423.585	618.3
423.992	602.6
424.379	600.2
424.787	595.5
425.195	614.7
425.603	587.3
426.011	604.8
426.419	607.5
426.806	588.4
427.214	591.9
427.623	600.8
428.031	605.4
428.44	596.3
428.848	606
429.235	609.4
429.644	599.4
430.053	596.1
430.461	612.6
430.87	630.2
431.279	620.7
431.666	612.6
432.075	626.5
432.484	635.6
432.893	639.7
433.302	666.2
433.711	701.6
434.099	676.3
434.508	686.4
434.918	688.8
435.327	720.7
435.737	729.2
436.125	743.5
436.534	770.9
436.944	792.5
437.353	800.4
437.763	844.9
438.173	843
438.561	887.4
438.971	875.7
439.381	900.1
439.791	927.4
440.201	926.4
440.589	951.1
440.999	979.5
441.409	1003.4
441.819	1011.8
442.23	1042.3
442.619	1062.1
443.029	1072
443.439	1085.1
443.85	1114.2
444.26	1126.8
444.649	1144.4
445.06	1144.1
445.471	1161.7
445.881	1176.7
446.292	1187.9
446.682	1222.1
447.092	1202.8
447.503	1269.1
447.914	1231.1
448.325	1250.8
448.715	1254.5
449.126	1252.9
449.537	1268.3
449.948	1289.4
450.338	1283.6
450.75	1305.7
451.161	1296.7
451.572	1311.5
451.984	1301.4
452.374	1311.7
452.786	1334.1
453.197	1331.6
453.609	1348.1
453.999	1321.2
454.411	1336.6
454.823	1359.6
455.235	1357.3
455.647	1342
456.037	1355
456.449	1338.3
456.862	1350.2
457.274	1353.8
457.665	1353.9
458.077	1364.8
458.489	1381.6
458.902	1358.8
459.293	1372.9
459.705	1368.3
460.118	1357.4
460.53	1366.2
460.921	1356.8
461.334	1358.6
461.747	1368.3
462.16	1370.8
462.551	1361.4
462.964	1353.9
463.377	1331.4
463.79	1346.4
464.182	1373.5
464.595	1356.5
465.008	1375.9
465.421	1366
465.813	1358.5
466.226	1372.3
466.64	1357
467.053	1401.8
467.445	1352
467.859	1345
468.272	1363.5
468.686	1359.1
469.078	1342.9
469.492	1337.2
469.906	1343.9
470.298	1338.1
470.712	1328.8
471.126	1352.2
471.54	1314.2
471.933	1323.5
472.347	1315.7
472.761	1313.1
473.175	1294.5
473.568	1307.5
473.982	1300.7
474.397	1306.7
474.79	1309.8
475.204	1299.8
475.619	1293.8
476.033	1299.9
476.426	1292.8
476.841	1291
477.256	1312.1
477.649	1280.7
478.064	1267.5
478.479	1265.3
478.872	1273.4
479.287	1248
479.702	1270
480.118	1266
480.511	1266.5
480.927	1242.2
481.342	1248.8
481.736	1250.5
482.151	1235.5
482.566	1254
482.96	1239.4
483.376	1244.4
483.792	1223.9
484.186	1235.3
484.602	1224.1
485.017	1225.4
485.412	1214.5
485.827	1224.3
486.243	1210.4
486.638	1223.5
487.054	1198.1
487.47	1208.3
487.865	1191.6
488.281	1184
488.697	1190.9
489.092	1179.5
489.508	1167.6
489.925	1182.6
490.32	1169.5
490.736	1171.4
491.153	1159.3
491.548	1154.2
491.964	1159.1
492.381	1133.6
492.776	1145.9
493.193	1147.5
493.61	1139.8
494.006	1131.6
494.422	1125.5
494.84	1120.3
495.235	1128.7
495.652	1105.6
496.069	1099.5
496.465	1098.8
496.883	1107.1
497.3	1111.2
497.696	1084.2
498.113	1094.4
498.509	1062.6
498.927	1073.6
499.344	1067.6
499.741	1062.7
500.158	1078.5
500.576	1069.6
500.973	1063.7
501.39	1041.8
501.787	1033.2
502.205	1042.5
502.623	1036.5
503.02	1014.7
503.438	1018
503.856	1029.8
504.253	1029.5
504.671	1013.8
505.068	1007.9
505.486	1006.4
505.905	1020.4
506.302	1001
506.72	1002.3
507.118	986.8
507.536	982.8
507.955	977.7
508.352	982.3
508.771	987.7
509.169	979.3
509.587	963.1
510.006	966.2
510.404	952.4
510.823	956.6
511.221	954.6
511.64	944.4
512.038	958.9
512.457	940.6
512.877	934.3
513.275	938.5
513.694	923.2
514.092	919.7
514.512	922.5
514.91	914.6
515.33	909.1
515.749	910.3
516.148	907.8
516.568	911.8
516.966	900.2
517.386	899.4
517.785	895.7
518.205	895.6
518.603	875.2
519.024	873
519.444	870.3
519.843	889.6
520.263	877.8
520.662	878.9
521.082	866.5
521.481	868.4
521.902	859.4
522.301	860.2
522.722	854.3
523.121	852.4
523.542	845.6
523.963	843.2
524.362	845.2
524.783	845.4
525.183	835.5
525.604	845.5
526.003	825.9
526.425	828.4
526.824	836.3
527.246	836.9
527.646	826.6
528.067	815.3
528.467	817.9
528.888	811.7
529.289	809.2
529.71	807.9
530.11	795.2
530.532	788.7
530.932	791.3
531.354	782.3
531.755	825.8
532.176	801.5
532.577	784.2
532.999	784.2
533.4	777.6
533.822	787.5
534.223	770.6
534.645	775.1
535.046	762.7
535.468	769.6
535.869	775.1
536.292	761
536.693	758.8
537.115	761.6
537.516	752.1
537.939	754.6
538.34	775.1
538.742	773.2
539.165	754.9
539.566	760.5
539.989	744.5
540.391	748.7
540.814	749.9
541.216	752.3
541.639	739.8
542.041	755.7
542.464	738
542.866	737.2
543.268	727.8
543.691	744.9
544.093	741.8
544.517	758.7
544.919	729.1
545.343	751.3
545.745	726.3
546.147	734.5
546.571	724.2
546.974	712.1
547.398	724.9
547.8	741.7
548.224	720.4
548.627	711.3
549.03	723.5
549.454	706.3
549.857	699
550.281	710
550.684	701.8
551.087	712.5
551.512	701
551.915	705.5
552.34	697.5
552.743	697.1
553.146	696.1
553.571	694.3
553.975	712.3
554.399	685.3
554.803	746.1
555.207	688.9
555.632	683.8
556.036	694.8
556.461	679.1
556.865	690.2
557.268	679
557.694	678.1
558.098	690.3
558.502	680.1
558.927	670
559.332	672.3
559.736	674.1
560.162	685.7
560.566	672.4
560.992	671.9
561.396	677.7
561.801	674.4
562.227	671.5
562.631	666.9
563.036	669.7
563.462	676.2
563.867	671.5
564.272	656
564.698	670.4
565.103	647.6
565.508	681.6
565.935	662.5
566.34	651.2
566.745	667.2
567.172	644.5
567.577	675.9
567.982	657.7
568.409	661.4
568.815	649.8
569.22	654.6
569.626	654.5
570.053	639.5
570.459	656.8
570.865	654.2
571.292	656.5
571.698	652.5
572.104	633.6
572.531	641.3
572.937	660.5
573.343	640
573.75	638.3
574.177	646.1
574.583	648.8
574.99	639.2
575.396	643.6
575.824	634.7
576.231	645.4
576.637	633.2
577.065	657.1
577.472	630.5
577.879	626.8
578.286	651.9
578.714	622.5
579.121	627.7
579.528	627.2
579.935	643.2
580.364	626.8
580.771	610.4
581.178	617.5
581.585	636
582.014	636.1
582.421	621.8
582.829	620.5
583.236	634.1
583.644	614.5
584.073	625
584.481	622
584.889	611.7
585.296	625.7
585.726	612
586.134	612.8
586.542	610.6
586.95	635.9
587.358	600.2
587.787	614.2
588.196	602.1
588.604	615.3
589.012	611.9
589.421	603.5
589.851	600
590.259	613.8
590.668	608
591.076	645.9
591.485	605.3
591.894	607
592.324	625.8
592.733	618.6
593.142	595.2
593.551	600.9
593.96	633.9
594.369	595.3
594.8	600.9
595.209	601.5
595.618	592.1
596.028	598.2
596.437	595.8
596.847	604.7
597.256	608
597.687	605.3
598.097	602.9
598.507	587.1
598.917	603
599.327	601.6
599.736	600.2
600.146	610.1
600.556	600.1
600.988	613.6
601.398	595.1
601.808	605.6
602.219	586.8
602.629	593.5
603.039	596.8
603.45	622.8
603.86	597.7
604.271	607.5
604.703	595.2
605.114	590.3
605.525	596.3
605.935	600
606.346	614.5
606.757	600
607.168	589.8
607.579	586.7
607.99	605.6
608.402	593.8
608.813	592.1
609.224	587.3
609.636	589.8
610.047	585
610.48	593.1
610.892	594
611.303	593
611.715	585.3
612.127	588.9
612.539	583.9
612.95	587.2
613.362	578.5
613.774	581.7
614.186	580.8
614.599	585.5
615.011	593.8
615.423	578.3
615.835	584.9
616.248	580.6
616.66	596.3
617.073	578
617.485	581.5
617.898	592
618.311	586.7
618.723	589.4
619.136	620.3
619.549	596.8
619.962	611.7
620.375	583.8
620.788	587
621.201	580.7
621.614	591
622.028	586.2
622.441	588.1
622.854	599.4
623.268	581.4
623.681	587.9
624.095	586
624.509	596.9
624.922	589.1
625.336	569.5
625.728	586.1
626.142	591.8
626.556	602.3
626.97	592.5
627.384	582.3
627.799	582.7
628.213	594.6
628.627	578.9
629.041	581.6
629.456	578
629.87	582.7
630.285	592
630.699	586.2
631.093	582.2
631.507	587.9
631.922	584.2
632.337	597.5
632.752	572.9
633.167	579.4
633.582	574.2
633.997	577.7
634.412	575.2
634.806	584.3
635.221	568.1
635.637	581.5
636.052	568.6
636.468	581.1
636.883	592.8
637.299	576.3
637.715	563.3
638.109	579.6
638.525	565
638.941	592
639.357	577.3
639.773	592.6
640.189	572.7
640.584	577.6
641	581.8
641.416	564.7
641.832	577.3
642.249	577.3
642.665	579.7
643.06	578.8
643.477	580.8
643.894	567.8
644.31	577.7
644.727	572.4
645.123	580.4
645.54	570.1
645.957	577.6
646.374	583.5
646.77	573.5
647.187	601.5
647.604	570.3
648.021	557.3
648.439	567.9
648.835	575
649.252	573.4
649.67	567.3
650.088	577.5
650.484	576
650.902	572.5
651.32	580.4
651.738	569.8
652.134	581.6
652.552	594
652.971	582.3
653.389	580.3
653.786	586.1
654.204	576.1
654.622	567.3
655.019	571.8
655.438	578.4
655.857	574.6
656.275	579
656.673	569.8
657.091	641.3
657.51	574.8
657.908	583.8
658.327	589.1
658.746	561.2
659.144	571.6
659.563	589.8
659.982	579.1
660.38	568
660.8	575
661.219	583
661.617	578.8
662.037	572.9
662.457	581
662.855	561.5
663.275	606.6
663.695	576.3
664.094	569.4
664.514	575.4
664.934	566.4
665.333	583.3
665.753	569.7
666.152	566.6
666.572	567
666.993	582.6
667.392	570.4
667.812	568.7
668.212	567.3
668.632	583.1
669.053	568.9
669.453	578.7
669.874	573.4
670.273	574.8
670.694	563.2
671.116	579
671.515	578.2
671.937	569.3
672.337	571.9
672.758	564.4
673.158	579.9
673.58	563.2
673.98	575.8
674.402	581.2
674.824	566.9
675.224	567.1
675.646	566.6
676.047	568.4
676.469	571.3
676.869	573.4
677.292	573.8
677.693	562.4
678.115	565.3
678.516	579.6
678.939	574.4
679.34	565.7
679.762	577.2
680.164	577.3
680.586	561.8
680.988	566.3
681.411	590.8
681.812	560.8
682.236	556.8
682.637	561.7
683.061	549.7
683.462	571.5
683.864	561.3
684.288	575.3
684.69	561.3
685.114	575
685.516	575.3
685.94	556.6
686.342	575.1
686.766	562.9
687.168	567.1
687.571	573.6
687.995	566.6
688.398	555.8
688.822	567.3
689.225	575.1
689.628	581.2
690.052	561.7
690.456	569.1
690.88	570.3
691.284	554.9
691.687	575.7
692.112	559.3
692.515	561.8
692.919	566.5
693.344	573.7
693.747	563.3
694.173	558.7
694.577	572.4
694.98	568.3
695.406	567.7
695.81	569
696.214	566
696.64	573.4
697.044	571.5
697.448	573.9
697.874	566.1
698.279	564.4
698.684	561.4
699.11	561
699.514	565.9
699.919	564.8
700.324	559.6
700.75	566.6
701.156	567.9
701.561	581.3
701.987	577.7
702.393	573.9
702.798	576.8
703.203	567.7
703.63	563.9
704.036	567
704.442	568.9
704.847	558
705.274	560.5
705.68	573.2
706.086	576.5
706.492	554
706.92	560.6
707.326	576.3
707.732	568.9
708.139	552.4
708.545	552.4
708.973	557.5
709.38	568.7
709.786	554.4
710.193	577.2
710.6	562.8
711.028	561.1
711.435	563.9
711.842	563
712.249	559.2
712.656	555.8
713.064	574.6
713.492	563.2
713.9	555.8
714.307	564.5
714.715	565
715.123	572.6
715.53	566.3
715.938	576.7
716.367	570.4
716.775	562
717.184	557.9
717.592	558
718	575
718.408	591
718.816	613.2
719.225	566.2
719.633	567.6
720.042	555.1
720.472	567.5
720.881	586.1
721.29	568.6
721.699	556.6
722.108	569.7
722.517	563
722.926	560.5
723.335	571.6
723.744	562.6
724.154	564.3
724.563	565.7
724.973	565.9
725.382	568.2
725.792	562
726.202	552.9
726.612	572
727.022	559.8
727.432	560.8
779.813	559.5
780.223	608.3
780.634	558.8
781.044	556.8
781.454	563
781.865	571.1
782.276	557.5
782.686	578.2
783.097	563.5
783.508	560.6
783.919	564.6
784.33	576.3
784.741	575.1
785.152	556.9
785.563	548.8
785.974	551.4
786.386	570.7
786.776	560
787.188	558.1
787.599	554.1
788.011	569.6
788.423	567.8
788.835	562.6
789.247	560.7
789.659	554.4
790.071	559.8
790.483	606.6
790.874	558.8
791.286	572.9
791.699	556.7
792.111	557.7
792.524	569.7
792.937	560.5
793.349	552.1
793.741	556.9
794.154	558.5
794.567	580.4
794.98	561
795.393	551.5
795.785	578.5
796.198	548.2
796.612	562.4
797.026	562.1
797.439	552.8
797.831	559
798.245	553.3
798.659	559.7
799.073	554
799.487	557.3
799.88	555
800.294	560.4
800.708	571.9
801.123	559.3
801.516	583.1
801.93	554.9
802.345	556.5
802.76	563.9
803.153	574.1
803.568	576.5
803.983	571.2
804.377	565.9
804.792	558.3
805.207	549.6
805.601	559.9
806.016	593.3
806.432	554.8
806.826	591.4
807.242	575.8
807.658	566.6
808.052	557.8
808.468	555.9
808.884	558
809.279	560.6
809.695	575.3
810.111	584.8
810.506	570.9
810.922	578.9
811.339	559.1
811.734	571.2
812.151	557.5
812.546	554.2
812.963	557.7
813.38	562.9
813.776	562.8
814.193	581.2
814.589	559.5
815.006	560
815.402	555.3
815.82	554.8
816.237	555.7
816.633	562.5
817.051	553.7
817.448	559.6
817.866	555.9
818.262	584.6
818.68	557.5
819.077	559.4
819.495	559
819.892	600.6
820.311	554.8
820.708	556.3
821.127	558.9
821.524	571.1
821.943	570.7
822.34	581.4
822.759	562
823.157	559.4
823.576	573.2
823.974	568.6
824.393	575.3
824.791	552.2
825.189	555
825.609	556.6
826.007	553.7
826.427	548.5
826.826	558.3
827.246	559.6
827.644	546.6
828.043	566.4
828.463	556.3
828.862	564.5
829.261	575.6
829.682	549.7
830.081	566.1
830.502	550.4
830.901	565.5
831.301	555.3
831.722	545.7
832.121	559.8
832.521	553
832.943	560.2
833.342	559.8
833.742	551.8
834.164	558.4
834.564	549.2
834.965	557.5
835.386	557.6
835.787	557
836.188	557.4
836.588	558.5
837.01	559.3
837.411	551
837.812	566.8
838.213	557
838.636	557.1
839.037	621.1
839.438	559.9
839.84	560.7
840.263	559.9
840.664	559.8
841.066	562.7
841.468	564.7
841.891	560
842.293	572.9
842.695	564.4
843.098	566.6
