#lambda/nm	C1
208.295	481.9
208.67	443.9
209.045	407.2
209.419	413.1
209.794	595.8
210.169	566.4
210.544	684.5
210.919	585.2
211.295	573.2
211.67	582.2
212.045	574.4
212.421	578.2
212.796	613.8
213.172	580
213.547	577
213.923	576.2
214.299	571.8
214.675	586.1
215.051	585.7
215.427	577.2
215.803	596.6
216.179	584.3
216.555	569.4
216.932	583.3
217.308	577
217.684	575.6
218.061	587.7
218.438	584.7
218.814	579.6
219.191	586.8
219.568	574
219.945	577.3
220.322	583.4
220.699	581.1
221.076	584.5
221.453	581.8
221.83	568.7
222.208	573.9
222.585	577.4
222.962	576.8
223.34	583.3
223.717	583.8
224.095	575.2
224.473	586.5
224.851	574.2
225.229	570.3
225.607	598.7
225.985	566
226.363	587.2
226.741	580.5
227.119	583.5
227.497	592.3
227.876	568.4
228.254	586.4
228.633	581.5
229.011	583.2
229.39	582.5
229.769	580.8
230.148	587.4
230.527	596.8
230.905	584.5
231.284	583
231.664	576.6
232.043	591.9
232.422	586.7
232.801	576.9
233.181	584.3
233.56	575.6
233.94	576.1
234.319	562
234.699	579.4
235.079	615.3
235.458	616.4
235.838	591.7
236.218	575.1
236.598	571.9
236.978	575.1
237.358	572.4
237.738	577.5
238.119	585
238.499	572.6
238.88	580.9
239.26	594.3
239.641	571.8
240.021	579.1
240.402	576.4
240.783	578.8
241.163	579.7
241.544	586.9
241.925	577.4
242.306	596.8
242.687	568.8
243.069	585.9
243.45	589.5
243.831	575
244.212	576
244.594	614.4
244.975	588.6
245.357	586.7
245.739	576.5
246.12	584.9
246.502	600.2
246.884	578.5
247.266	578.9
247.648	576.3
248.03	605.8
248.412	582.7
248.794	583.2
249.176	577.1
249.559	588.9
249.941	569.1
250.323	568.9
250.706	568.2
251.089	584.2
251.471	580.8
251.854	577
252.237	585.2
252.62	583.5
253.002	578.2
253.385	574
253.769	594.4
254.152	579.9
254.535	588.3
254.918	570
255.301	583.2
255.685	579.1
256.068	577.6
256.452	603.6
256.835	584.6
257.219	588.6
257.603	588.9
257.986	576.4
258.37	588.9
258.754	570.8
259.138	589.5
259.522	591.8
259.906	581.5
260.29	580.1
260.675	579.4
261.059	585.3
261.443	572
261.828	583.7
262.212	589.5
262.597	573.1
262.981	576.8
263.366	585.7
263.751	583.1
264.136	579
264.521	577.8
264.906	576.2
265.291	589.1
265.676	576.7
266.061	584.2
266.446	595.1
266.831	582.7
267.217	602.4
267.602	582.2
267.987	586.1
268.373	577.5
268.759	588.9
269.144	585.9
269.53	586.8
269.916	577.8
270.302	583.7
270.688	585.9
271.074	589.6
271.46	591.2
271.846	612.5
272.232	587
272.618	580.6
273.004	577.4
273.391	588.5
273.777	590.5
274.164	581.5
274.55	596.5
274.937	586.1
275.324	584.3
275.71	577.1
276.097	587.6
276.484	569.5
276.871	581.9
277.258	586
277.645	569.1
278.032	580.2
278.419	577
278.807	586.4
279.194	576.2
279.581	576.3
279.969	590.4
280.356	585.7
280.744	584.1
281.131	608.8
281.519	592.2
281.907	581.1
282.295	585.2
282.682	589.9
283.07	585.4
283.458	590.4
283.846	593.6
284.235	589.8
284.623	593
285.011	578
285.399	578.9
285.788	581.7
286.176	565.4
286.565	588.5
286.953	577.9
287.342	577.5
287.731	574
288.119	569.4
288.508	578.8
288.897	581.6
289.286	568.9
289.675	576.4
290.064	590.4
290.453	570.8
290.821	583.3
291.21	594.1
291.599	577.1
291.989	580.9
292.378	590.3
292.768	600.1
293.157	582.6
293.547	590.5
293.936	577.1
294.326	577.5
294.716	585
295.106	579.8
295.496	586.7
295.886	593.2
296.276	580.7
296.666	575.1
297.056	577.5
297.446	574.5
297.836	593.3
298.227	576.5
298.617	577.7
299.008	588.9
299.398	578.9
299.789	576.3
300.179	587.8
300.57	592.4
300.961	578.9
301.352	582.4
301.742	589.1
302.133	585
302.524	582.4
302.915	580.4
303.307	572.6
303.698	590.6
304.089	588.4
304.48	582.5
304.872	587
305.263	583.1
305.655	578.9
306.046	588.7
306.438	584.3
306.829	578
307.221	595.6
307.613	586
308.005	597.4
308.397	596.1
308.789	603.7
309.181	609.6
309.573	600.9
309.965	596.6
310.357	581.9
310.749	588.4
311.142	576.4
311.534	577.1
311.926	587.5
312.319	582.8
312.711	574.1
313.104	591.5
313.497	583.9
313.889	614.7
314.282	597.7
314.675	606.1
315.068	582.4
315.461	586.4
315.854	611.4
316.247	586.2
316.64	583.3
317.033	582.6
317.405	587.9
317.798	585.5
318.192	588.2
318.585	574.3
318.979	583.1
319.372	577.2
319.766	584.6
320.16	592
320.553	600.6
320.947	604
321.341	580.9
321.735	579.3
322.129	572.1
322.523	606.6
322.917	577.1
323.311	596.7
323.705	586.9
324.099	584.8
324.494	595.6
324.888	587.1
325.282	577.4
325.677	585.9
326.071	585.7
326.466	601.9
326.861	584.5
327.255	590.5
327.65	592.3
328.045	598.9
328.44	583.4
328.835	585.4
329.23	572.8
329.625	611.2
330.02	576.3
330.415	603.3
330.81	587
331.206	583.1
331.601	576.7
331.996	587.1
332.37	600.4
332.766	575.4
333.161	605.2
333.557	574.4
333.953	585.7
334.348	965.1
334.744	579.2
335.14	573.2
335.536	575.8
335.932	591
336.328	585.5
336.724	593.9
337.12	582
337.516	584.6
337.913	583.6
338.309	596.5
338.705	581.1
339.102	593
339.498	578.4
339.895	591.6
340.291	576
340.688	595.7
341.085	570.4
341.481	578.7
341.878	580.5
342.275	602.9
342.672	572
343.069	575.3
343.466	565.9
343.842	590.7
344.239	577.8
344.636	582
345.033	571.9
345.431	568.9
345.828	580.2
346.225	573
346.623	593.9
347.02	583
347.418	590.9
347.816	597.9
348.213	570.1
348.611	585.3
349.009	572.4
349.407	598.7
349.805	571.9
350.203	568.8
350.601	594.4
350.999	581
351.397	573.8
351.795	580.4
352.193	591.9
352.57	590.7
352.969	593.5
353.367	571.8
353.766	576.5
354.164	572.4
354.563	592.9
354.961	580.4
355.36	574.8
355.759	581.6
356.158	565.5
356.557	571.4
356.956	570.3
357.355	566.7
357.754	583.5
358.153	589
358.552	599.1
358.951	579.1
359.35	587.6
359.75	579.2
360.149	568.1
360.527	573.9
360.926	569.4
361.326	578.2
361.726	578.6
362.125	567.4
362.525	585.9
362.925	576.9
363.325	578.5
363.724	576.4
364.124	571.6
364.524	573.3
364.924	570.7
365.324	586.9
365.725	563.3
366.125	584.2
366.525	573.3
366.904	570.4
367.304	558.3
367.705	591.5
368.105	593.4
368.506	569.9
368.906	573.6
369.307	575.1
369.708	586.5
370.108	566.1
370.509	587.2
370.91	568.8
371.311	576.2
371.712	580
372.113	567.7
372.514	553.5
372.894	571.6
373.295	570.3
373.696	582.6
374.097	581
374.499	604.8
374.9	577.3
375.301	573.1
375.703	580
376.105	569.5
376.506	574.2
376.908	579.5
377.309	577.8
377.711	576.3
378.113	568.5
378.493	579.4
378.895	567.7
379.297	586
379.699	565.7
380.102	573.4
380.504	569.4
380.906	568.6
381.308	602
381.71	573.6
382.113	580
382.515	571.7
382.918	576.5
383.299	570.9
383.701	583.4
384.104	578.7
384.507	551.8
384.909	567.8
385.312	566.7
385.715	567.8
386.118	569.1
386.521	563.6
386.924	587
387.327	571.3
387.709	558.1
388.112	562.2
388.515	574
388.918	568.1
389.322	579.8
389.725	572.8
390.129	598.7
390.532	579.4
390.936	574.2
391.339	566.8
391.743	584.5
392.125	567.5
392.529	586.9
392.933	588.2
393.337	576.8
393.74	571
394.144	578.3
394.548	564.6
394.953	570.8
395.357	582.7
395.761	565.9
396.144	569.7
396.548	573.7
396.952	576.9
397.357	575.1
397.761	572.8
398.166	571.1
398.57	571
398.975	566.6
399.379	574.3
399.763	619.1
400.168	576.8
400.572	569.4
400.977	572.4
401.382	591.8
401.787	580.6
402.192	596.1
402.597	592.3
403.002	557.9
403.386	580.9
403.791	588.8
404.197	572.6
404.602	570.3
405.007	574.4
405.413	576.6
405.818	565.1
406.224	569.8
406.608	571.7
407.014	564.5
407.42	585.5
407.825	567.4
408.231	584.8
408.637	573.9
409.043	585.7
409.449	571.4
409.834	569.1
410.24	573.1
410.646	578.9
411.052	579.5
411.458	575.1
411.865	578.6
412.271	583.9
412.677	576.5
413.062	578.8
413.469	569.9
413.875	602.2
414.282	585.5
414.689	574.7
415.095	582.4
415.502	568.5
415.888	578.6
416.294	562.6
416.701	616.2
417.108	565.5
417.515	580.6
417.923	577.3
418.33	591.7
418.715	584.7
419.123	574.1
419.53	572.9
419.937	577.6
420.345	594
420.752	573.2
421.16	592.8
421.546	581.4
421.953	585.9
422.361	577.9
422.769	576.2
423.177	567.9
423.585	602.8
423.992	596.5
424.379	586
424.787	587.3
425.195	598.5
425.603	576.6
426.011	589.5
426.419	590.4
426.806	579.8
427.214	578.3
427.623	589.3
428.031	595.1
428.44	579.2
428.848	594.2
429.235	599.7
429.644	590.7
430.053	586.4
430.461	603.3
430.87	619.2
431.279	609.1
431.666	603.4
432.075	614.7
432.484	632
432.893	627.9
433.302	662.6
433.711	699
434.099	675.5
434.508	680.9
434.918	698.6
435.327	719.5
435.737	743.3
436.125	760.1
436.534	784.7
436.944	804.7
437.353	822.8
437.763	864.3
438.173	851.1
438.561	896.6
438.971	901.9
439.381	934.7
439.791	959.4
440.201	958.6
440.589	1002.5
440.999	1023.3
441.409	1038.2
441.819	1051.4
442.23	1094.1
442.619	1108.6
443.029	1109.1
443.439	1134.4
443.85	1168.1
444.26	1189.3
444.649	1201.8
445.06	1208.4
445.471	1212.6
445.881	1225.5
446.292	1252.4
446.682	1264
447.092	1242.5
447.503	1320.7
447.914	1305.8
448.325	1305.5
448.715	1316.3
449.126	1324.6
449.537	1338.9
449.948	1351.8
450.338	1351.8
450.75	1373.7
451.161	1370.6
451.572	1376.9
451.984	1379.1
452.374	1372.8
452.786	1393.2
453.197	1399.8
453.609	1412.6
453.999	1409.6
454.411	1399
454.823	1436.6
455.235	1428.4
455.647	1419.9
456.037	1437.6
456.449	1430.4
456.862	1434.6
457.274	1436.8
457.665	1431.9
458.077	1445
458.489	1452.1
458.902	1445.9
459.293	1449.9
459.705	1452
460.118	1448.4
460.53	1447.5
460.921	1449.8
461.334	1445.1
461.747	1446.6
462.16	1463.6
462.551	1461.7
462.964	1440.3
463.377	1425.5
463.79	1425.6
464.182	1441.9
464.595	1424.6
465.008	1434.6
465.421	1433.5
465.813	1429.4
466.226	1418.6
466.64	1429.5
467.053	1458.3
467.445	1417
467.859	1412.2
468.272	1418.9
468.686	1419
469.078	1400.2
469.492	1386.6
469.906	1407.7
470.298	1403.8
470.712	1393.6
471.126	1430.7
471.54	1384.4
471.933	1374.5
472.347	1383.5
472.761	1387.5
473.175	1371.8
473.568	1375.9
473.982	1367.4
474.397	1361.3
474.79	1380
475.204	1383.8
475.619	1356.3
476.033	1364.6
476.426	1355
476.841	1333.1
477.256	1374.7
477.649	1336.9
478.064	1333.9
478.479	1314.8
478.872	1314.2
479.287	1302.1
479.702	1308
480.118	1313
480.511	1299.5
480.927	1285.3
481.342	1292.4
481.736	1294.2
482.151	1281.1
482.566	1309.5
482.96	1285
483.376	1291.6
483.792	1277.6
484.186	1275.3
484.602	1269.6
485.017	1267.7
485.412	1269.6
485.827	1263.4
486.243	1264.7
486.638	1276.8
487.054	1252.1
487.47	1260.1
487.865	1238.2
488.281	1231.7
488.697	1227.4
489.092	1231.2
489.508	1210.5
489.925	1228.5
490.32	1208.6
490.736	1232
491.153	1208.1
491.548	1206.8
491.964	1203.7
492.381	1171
492.776	1187.3
493.193	1181
493.61	1182.7
494.006	1173.5
494.422	1172.2
494.84	1154.1
495.235	1163.5
495.652	1158.1
496.069	1157.5
496.465	1124.9
496.883	1133.1
497.3	1165.9
497.696	1123
498.113	1124.6
498.509	1118
498.927	1102.4
499.344	1096.2
499.741	1101.5
500.158	1106.6
500.576	1095.9
500.973	1074.9
501.39	1064.7
501.787	1067.9
502.205	1073.1
502.623	1066.5
503.02	1050.9
503.438	1045.7
503.856	1050
504.253	1056.3
504.671	1031.3
505.068	1039.2
505.486	1030.4
505.905	1036.6
506.302	1021.1
506.72	1031.2
507.118	1008.8
507.536	1009
507.955	998
508.352	1006.3
508.771	1004.8
509.169	1006
509.587	978.6
510.006	988.9
510.404	967.1
510.823	972.6
511.221	975.6
511.64	957
512.038	967.2
512.457	954.7
512.877	951.1
513.275	952.2
513.694	948.6
514.092	940.9
514.512	941.8
514.91	939.2
515.33	938.7
515.749	933.5
516.148	925.8
516.568	922.1
516.966	919.7
517.386	919.1
517.785	915
518.205	903.6
518.603	904.1
519.024	899.6
519.444	894.2
519.843	906.5
520.263	889.8
520.662	887.8
521.082	876
521.481	876.1
521.902	873.3
522.301	881.9
522.722	870
523.121	871.3
523.542	861.1
523.963	858.8
524.362	861.1
524.783	851.5
525.183	846.8
525.604	847.9
526.003	829.9
526.425	831
526.824	843.1
527.246	834.1
527.646	836.2
528.067	826.8
528.467	821.9
528.888	823.9
529.289	810.9
529.71	818.8
530.11	805
530.532	800.7
530.932	798.5
531.354	794.7
531.755	830.8
532.176	799.5
532.577	791.9
532.999	789.9
533.4	775.3
533.822	788
534.223	777.7
534.645	777.8
535.046	778.1
535.468	779.7
535.869	793
536.292	764.3
536.693	762.9
537.115	773.2
537.516	765.4
537.939	767.5
538.34	779.4
538.742	769.1
539.165	767.2
539.566	754.1
539.989	749.5
540.391	754
540.814	755.4
541.216	753.6
541.639	749.7
542.041	757.5
542.464	743.3
542.866	736.2
543.268	737.3
543.691	741.7
544.093	743.5
544.517	754.2
544.919	726.4
545.343	759.2
545.745	725.8
546.147	727.2
546.571	722.5
546.974	723.5
547.398	728.4
547.8	736.2
548.224	723.6
548.627	713.2
549.03	717.6
549.454	705.2
549.857	706.6
550.281	704.6
550.684	700.5
551.087	715.8
551.512	715.3
551.915	712.7
552.34	700.1
552.743	697.4
553.146	702.2
553.571	699.3
553.975	717.5
554.399	688.6
554.803	733.5
555.207	688.2
555.632	685.5
556.036	691.4
556.461	678.3
556.865	678
557.268	667.1
557.694	678.4
558.098	686.9
558.502	681
558.927	668.4
559.332	671.4
559.736	672.6
560.162	676.8
560.566	666.8
560.992	673.4
561.396	668.6
561.801	662.5
562.227	666.7
562.631	661
563.036	665.1
563.462	670
563.867	659.6
564.272	647.2
564.698	662.4
565.103	648.3
565.508	673.4
565.935	651.3
566.34	648.4
566.745	662.2
567.172	649.2
567.577	666.8
567.982	660.3
568.409	650.1
568.815	641.1
569.22	640.5
569.626	651.7
570.053	626.8
570.459	643.9
570.865	645.7
571.292	647.7
571.698	638.5
572.104	627.3
572.531	629.8
572.937	646.8
573.343	637.3
573.75	631.3
574.177	629.9
574.583	639.2
574.99	624.9
575.396	639.7
575.824	620.9
576.231	634.2
576.637	624.2
577.065	655.9
577.472	626.7
577.879	618.3
578.286	641.4
578.714	610.3
579.121	626.4
579.528	621.8
579.935	634.6
580.364	621.1
580.771	608.7
581.178	612.6
581.585	631
582.014	619.2
582.421	612.1
582.829	613.8
583.236	626.7
583.644	610
584.073	607.8
584.481	612.8
584.889	605.7
585.296	614.9
585.726	613.4
586.134	607.7
586.542	603.6
586.95	627.1
587.358	597.8
587.787	605.9
588.196	600
588.604	604.9
589.012	614.7
589.421	598.7
589.851	602.9
590.259	608.9
590.668	601.2
591.076	632.2
591.485	595.6
591.894	604.1
592.324	614.2
592.733	613.3
593.142	588.9
593.551	595
593.96	631.5
594.369	589.5
594.8	589.3
595.209	590.4
595.618	583.8
596.028	594.1
596.437	586.6
596.847	594.1
597.256	593
597.687	589.3
598.097	589.1
598.507	580
598.917	592.5
599.327	596
599.736	588.9
600.146	597
600.556	588.8
600.988	600.3
601.398	588.7
601.808	595.3
602.219	572.9
602.629	587.5
603.039	585.7
603.45	608.4
603.86	583.5
604.271	590.5
604.703	582.6
605.114	579.2
605.525	582.7
605.935	584.2
606.346	598.4
606.757	581.9
607.168	580.3
607.579	570.5
607.99	590
608.402	579.6
608.813	580.2
609.224	573.3
609.636	568.5
610.047	571.4
610.48	571.7
610.892	588.1
611.303	584.6
611.715	573.9
612.127	574
612.539	569.5
612.95	575.6
613.362	564.2
613.774	569.9
614.186	571.4
614.599	571.6
615.011	586.3
615.423	570.1
615.835	571.1
616.248	568.3
616.66	576.3
617.073	565.7
617.485	574.8
617.898	578.6
618.311	576.6
618.723	575.8
619.136	599.7
619.549	596.1
619.962	593.3
620.375	581
620.788	580.2
621.201	569.1
621.614	575.9
622.028	571.5
622.441	579.1
622.854	591.5
623.268	565.2
623.681	574.6
624.095	571.6
624.509	580.7
624.922	575.1
625.336	564.1
625.728	575.8
626.142	581
626.556	589.4
626.97	578.1
627.384	574.6
627.799	571.8
628.213	579.8
628.627	566.7
629.041	570
629.456	571.1
629.87	568.4
630.285	580
630.699	582
631.093	570.7
631.507	575.4
631.922	577
632.337	584.9
632.752	564.7
633.167	570.2
633.582	569.8
633.997	562.5
634.412	563
634.806	570.3
635.221	562.9
635.637	583
636.052	561.8
636.468	571.6
636.883	587.2
637.299	567.6
637.715	550.9
638.109	568.8
638.525	561
638.941	576.2
639.357	575
639.773	575.2
640.189	565.2
640.584	567.7
641	570.4
641.416	558
641.832	564.3
642.249	564.9
642.665	561.8
643.06	563.7
643.477	576.5
643.894	555.9
644.31	568.4
644.727	564.2
645.123	561.9
645.54	560.5
645.957	568.9
646.374	568.1
646.77	564
647.187	594.4
647.604	568
648.021	552.8
648.439	557.4
648.835	566.8
649.252	572
649.67	559.9
650.088	562.3
650.484	567.6
650.902	571.3
651.32	570.9
651.738	566.9
652.134	572
652.552	579.5
652.971	568.3
653.389	560.4
653.786	575.9
654.204	566.9
654.622	554.4
655.019	563.5
655.438	565.1
655.857	562.4
656.275	564.2
656.673	561.8
657.091	629
657.51	553.8
657.908	571.1
658.327	572.5
658.746	553
659.144	562.4
659.563	576.4
659.982	563.7
660.38	560
660.8	559.9
661.219	574.3
661.617	562.2
662.037	557.6
662.457	569.7
662.855	552.9
663.275	595.2
663.695	558.2
664.094	559.4
664.514	559
664.934	554.2
665.333	564.2
665.753	555
666.152	552.7
666.572	554.2
666.993	572.9
667.392	555.8
667.812	557.1
668.212	557.3
668.632	568.5
669.053	561
669.453	568
669.874	559.2
670.273	559.8
670.694	548.2
671.116	571.5
671.515	572
671.937	558.8
672.337	555.6
672.758	559.5
673.158	562
673.58	554.8
673.98	561.2
674.402	574.6
674.824	559.8
675.224	554
675.646	544.7
676.047	558.4
676.469	560.8
676.869	567.5
677.292	559.2
677.693	553.5
678.115	555.7
678.516	562.9
678.939	564.5
679.34	550.3
679.762	568.2
680.164	562.7
680.586	551.4
680.988	555.9
681.411	582.3
681.812	556.7
682.236	549.2
682.637	556.2
683.061	543.4
683.462	560.7
683.864	555.8
684.288	557.2
684.69	549.4
685.114	564.7
685.516	565.6
685.94	550.2
686.342	563.1
686.766	552.3
687.168	557.3
687.571	573.8
687.995	556.2
688.398	544.3
688.822	549.8
689.225	570.5
689.628	575.2
690.052	557.7
690.456	560.8
690.88	556.4
691.284	542.2
691.687	562.4
692.112	547.3
692.515	547.7
692.919	556.3
693.344	556
693.747	550.5
694.173	546.8
694.577	568.9
694.98	556.5
695.406	549.5
695.81	556.1
696.214	558.6
696.64	562.1
697.044	559.6
697.448	565.1
697.874	553.7
698.279	552.2
698.684	549.8
699.11	541.3
699.514	551.1
699.919	552.2
700.324	544.7
700.75	552
701.156	553.1
701.561	563.2
701.987	559.7
702.393	564.4
702.798	563.9
703.203	553.8
703.63	547.9
704.036	548
704.442	557.4
704.847	549.7
705.274	560.5
705.68	557.3
706.086	561.6
706.492	548.9
706.92	553
707.326	559.3
707.732	554
708.139	545.5
708.545	546.5
708.973	549.2
709.38	550.9
709.786	546.1
710.193	568.5
710.6	547.2
711.028	542.6
711.435	554.4
711.842	551.2
712.249	555.7
712.656	552.4
713.064	560.5
713.492	546.3
713.9	550
714.307	561
714.715	559.8
715.123	558
715.53	558.7
715.938	558.3
716.367	557.9
716.775	553
717.184	548.5
717.592	545.6
718	562.1
718.408	582.9
718.816	592.9
719.225	554.3
719.633	557.7
720.042	545.7
720.472	544
720.881	572.5
721.29	558.5
721.699	538.6
722.108	556.5
722.517	557.7
722.926	549.7
723.335	557
723.744	554
724.154	549.9
724.563	554.9
724.973	554.4
725.382	556.6
725.792	551.1
726.202	547
726.612	565.7
727.022	551.3
727.432	552.3
779.813	551.1
780.223	594.5
780.634	550.1
781.044	548.1
781.454	552.6
781.865	565.4
782.276	543.6
782.686	558.6
783.097	549.1
783.508	553.7
783.919	561.5
784.33	560.1
784.741	563.1
785.152	547.6
785.563	543.8
785.974	545.2
786.386	566
786.776	553
787.188	550.6
787.599	549.6
788.011	560.5
788.423	557.2
788.835	547.1
789.247	544.4
789.659	546.6
790.071	548.7
790.483	593
790.874	545.9
791.286	559.4
791.699	545.1
792.111	555.5
792.524	555.1
792.937	554.3
793.349	543.2
793.741	550.9
794.154	545.3
794.567	569.4
794.98	553.4
795.393	543.6
795.785	568.1
796.198	545.7
796.612	543
797.026	547.1
797.439	539.6
797.831	555.2
798.245	541.3
798.659	549
799.073	549.1
799.487	545
799.88	555.2
800.294	546.9
800.708	548.9
801.123	549.9
801.516	564
801.93	539.5
802.345	537.6
802.76	549
803.153	558.6
803.568	566.7
803.983	559.7
804.377	552.5
804.792	537.8
805.207	538.5
805.601	548.9
806.016	579.4
806.432	546.2
806.826	575.7
807.242	554.5
807.658	557.1
808.052	542.2
808.468	548
808.884	547.7
809.279	551.1
809.695	559.7
810.111	571.6
810.506	554.6
810.922	567.6
811.339	542.3
811.734	562.4
812.151	540.9
812.546	546
812.963	543.5
813.38	554.2
813.776	549.1
814.193	568.2
814.589	544.5
815.006	547.1
815.402	543
815.82	541.5
816.237	549.6
816.633	549.6
817.051	544.3
817.448	551.8
817.866	536.6
818.262	565.1
818.68	543.9
819.077	545.1
819.495	548.2
819.892	586.7
820.311	543.4
820.708	540.3
821.127	544.7
821.524	556.5
821.943	546.7
822.34	567.4
822.759	555.9
823.157	551.7
823.576	562.9
823.974	553.6
824.393	559.9
824.791	543.3
825.189	545.2
825.609	545.2
826.007	547.8
826.427	533
826.826	543.1
827.246	548.1
827.644	534.6
828.043	553.9
828.463	547.8
828.862	557.7
829.261	555.7
829.682	543.2
830.081	555.6
830.502	542.7
830.901	555.9
831.301	544.4
831.722	540.8
832.121	555.7
832.521	543.7
832.943	545.8
833.342	552.9
833.742	542.3
834.164	548.4
834.564	539.8
834.965	545.6
835.386	540.5
835.787	544.4
836.188	547
836.588	550.5
837.01	547.1
837.411	531.2
837.812	553.7
838.213	544.8
838.636	543.7
839.037	611.1
839.438	550.2
839.84	549.9
840.263	550.9
840.664	546.6
841.066	546.3
841.468	553.1
841.891	539.8
842.293	553.8
842.695	554.5
843.098	553.3
