#lambda/nm	C1
208.295	486.4
208.67	447.9
209.045	411.2
209.419	415.4
209.794	599.6
210.169	580.6
210.544	695.4
210.919	596
211.295	578.4
211.67	593.4
212.045	590.5
212.421	587.9
212.796	626.8
213.172	586.5
213.547	582.7
213.923	586
214.299	587.6
214.675	597.5
215.051	598.7
215.427	595.9
215.803	615.5
216.179	597.2
216.555	585
216.932	595.6
217.308	595.6
217.684	586.9
218.061	596
218.438	594.2
218.814	585.1
219.191	601.4
219.568	585.7
219.945	587.1
220.322	594.7
220.699	593.1
221.076	602.7
221.453	591.8
221.83	580.6
222.208	587.5
222.585	587.6
222.962	591
223.34	598.1
223.717	584
224.095	591.5
224.473	594.6
224.851	583.7
225.229	579.1
225.607	608.2
225.985	582.8
226.363	589.1
226.741	590.8
227.119	587.3
227.497	601
227.876	578
228.254	599.1
228.633	594.9
229.011	592.3
229.39	597.7
229.769	589.7
230.148	600.4
230.527	610.1
230.905	590.5
231.284	590
231.664	583.6
232.043	603.9
232.422	596.7
232.801	586.3
233.181	600.9
233.56	588.2
233.94	591.1
234.319	578.9
234.699	587
235.079	630.2
235.458	632.6
235.838	605.3
236.218	587.9
236.598	580.6
236.978	584.8
237.358	588.2
237.738	582.9
238.119	596.3
238.499	583.5
238.88	591.3
239.26	610
239.641	579.2
240.021	586.7
240.402	590.3
240.783	589.7
241.163	590.1
241.544	589
241.925	588.6
242.306	608.1
242.687	587.6
243.069	588.6
243.45	600.3
243.831	590
244.212	590.9
244.594	628.8
244.975	597
245.357	595.9
245.739	586.5
246.12	595.8
246.502	604.6
246.884	586.3
247.266	591.5
247.648	598.5
248.03	614.3
248.412	599.8
248.794	598.5
249.176	587.9
249.559	603.7
249.941	586.7
250.323	581.3
250.706	589.3
251.089	592.3
251.471	593.8
251.854	596.3
252.237	592.4
252.62	599.4
253.002	592.4
253.385	593.6
253.769	610
254.152	589
254.535	600.2
254.918	588.7
255.301	587.1
255.685	590.1
256.068	588.8
256.452	612
256.835	596.9
257.219	598.2
257.603	602.9
257.986	576.8
258.37	596.7
258.754	578
259.138	597.2
259.522	602.3
259.906	586.5
260.29	596.9
260.675	593.2
261.059	597.9
261.443	585.6
261.828	598.6
262.212	596.1
262.597	580.4
262.981	588.3
263.366	599.9
263.751	594.8
264.136	587.6
264.521	590.9
264.906	586.4
265.291	606.4
265.676	590.1
266.061	594.5
266.446	610.3
266.831	592.1
267.217	611.5
267.602	595.9
267.987	597.1
268.373	592.5
268.759	600.9
269.144	593.6
269.53	589.8
269.916	591.1
270.302	586.5
270.688	602.2
271.074	598.3
271.46	608.7
271.846	621.8
272.232	596.2
272.618	588
273.004	594.6
273.391	604.6
273.777	609.3
274.164	597.1
274.55	608.1
274.937	598.5
275.324	589.3
275.71	598.5
276.097	601.3
276.484	584.7
276.871	599.1
277.258	601.6
277.645	581
278.032	593.3
278.419	590.1
278.807	594.5
279.194	585.1
279.581	586.6
279.969	594.8
280.356	595.4
280.744	590.4
281.131	616.8
281.519	605.9
281.907	595.1
282.295	593.6
282.682	603
283.07	595.5
283.458	602.2
283.846	603.1
284.235	602.8
284.623	603.7
285.011	588.7
285.399	591.9
285.788	591.5
286.176	578.5
286.565	606.9
286.953	595.8
287.342	589.9
287.731	584
288.119	580.8
288.508	593.6
288.897	596.4
289.286	580.8
289.675	593.5
290.064	596.5
290.453	594.8
290.821	593
291.21	607.5
291.599	587.9
291.989	594.6
292.378	604.3
292.768	612.4
293.157	595.1
293.547	606.6
293.936	595.1
294.326	591.1
294.716	599.2
295.106	591
295.496	599.5
295.886	602.2
296.276	596.8
296.666	589.9
297.056	587.6
297.446	581.5
297.836	608.4
298.227	589.4
298.617	597.8
299.008	609.3
299.398	591.6
299.789	594.2
300.179	600
300.57	611
300.961	586.6
301.352	591.5
301.742	604.3
302.133	599.5
302.524	590.8
302.915	599.6
303.307	586.4
303.698	599.4
304.089	597.8
304.48	590.9
304.872	598.7
305.263	593.4
305.655	586.9
306.046	597.9
306.438	594.7
306.829	589.4
307.221	610.1
307.613	600.9
308.005	609.6
308.397	600.5
308.789	618.9
309.181	615.3
309.573	611.3
309.965	600.3
310.357	594.1
310.749	593.4
311.142	584.4
311.534	588.8
311.926	604.4
312.319	596.1
312.711	586
313.104	608.3
313.497	594.7
313.889	634.3
314.282	610
314.675	620.4
315.068	595.4
315.461	601
315.854	620.8
316.247	598.1
316.64	594.7
317.033	600.8
317.405	604.9
317.798	590.4
318.192	593.7
318.585	584
318.979	600.6
319.372	585.1
319.766	593
320.16	606.9
320.553	604.7
320.947	615.1
321.341	591.4
321.735	596
322.129	582.2
322.523	623.2
322.917	588.7
323.311	600.1
323.705	594.9
324.099	598.8
324.494	609.7
324.888	601.9
325.282	593.9
325.677	591.2
326.071	600.5
326.466	606.1
326.861	595.3
327.255	603.5
327.65	605.2
328.045	611.8
328.44	594.5
328.835	598.1
329.23	589.7
329.625	622.7
330.02	590.8
330.415	614
330.81	595.4
331.206	599.1
331.601	589.7
331.996	607.9
332.37	607.3
332.766	592
333.161	615.4
333.557	590.9
333.953	596.5
334.348	886
334.744	592.9
335.14	590.2
335.536	594.4
335.932	604.1
336.328	591.5
336.724	602.1
337.12	593.2
337.516	596.3
337.913	595.4
338.309	610.6
338.705	593.6
339.102	600.5
339.498	583.6
339.895	607.6
340.291	590.2
340.688	605.1
341.085	591.6
341.481	594.3
341.878	594.6
342.275	614.3
342.672	584.9
343.069	589.9
343.466	583.8
343.842	597.8
344.239	586.7
344.636	596.7
345.033	587.3
345.431	584.4
345.828	597.1
346.225	590.9
346.623	602.1
347.02	592.6
347.418	607.6
347.816	610.4
348.213	584.7
348.611	599
349.009	588.8
349.407	604.2
349.805	581.9
350.203	578
350.601	604.3
350.999	589.3
351.397	585
351.795	597.1
352.193	598.6
352.57	605
352.969	602.9
353.367	591.2
353.766	584.3
354.164	590.1
354.563	599
354.961	585.1
355.36	590.8
355.759	587.6
356.158	586.5
356.557	581.9
356.956	579.4
357.355	583.2
357.754	594.8
358.153	592
358.552	617.8
358.951	589.8
359.35	605.3
359.75	587.8
360.149	575.6
360.527	578.9
360.926	580.8
361.326	592.7
361.726	591.3
362.125	583.2
362.525	597.8
362.925	585.7
363.325	590.7
363.724	593.7
364.124	585.4
364.524	582.2
364.924	589.6
365.324	600.7
365.725	573.6
366.125	596
366.525	580.1
366.904	582.8
367.304	575.1
367.705	610.9
368.105	598.2
368.506	584
368.906	592.3
369.307	586.2
369.708	596.9
370.108	576.4
370.509	596.8
370.91	578.9
371.311	593.9
371.712	588.1
372.113	582.9
372.514	576.2
372.894	587.2
373.295	576.4
373.696	601.7
374.097	596.9
374.499	617.9
374.9	586.9
375.301	582.1
375.703	591.8
376.105	581.4
376.506	587.8
376.908	588.3
377.309	586.5
377.711	588.3
378.113	583
378.493	581.6
378.895	580
379.297	596.7
379.699	574
380.102	591.9
380.504	582.2
380.906	577.7
381.308	614.6
381.71	586.8
382.113	591.6
382.515	584.5
382.918	588
383.299	583.4
383.701	593.2
384.104	590.4
384.507	571.7
384.909	585.8
385.312	574.6
385.715	572.5
386.118	579.9
386.521	574.7
386.924	595.2
387.327	585.7
387.709	575.6
388.112	567.7
388.515	580.5
388.918	585.1
389.322	595
389.725	581.9
390.129	606
390.532	590
390.936	584.6
391.339	580.1
391.743	591.8
392.125	584.2
392.529	592.6
392.933	602.6
393.337	590.7
393.74	587.3
394.144	580.2
394.548	586.8
394.953	579.8
395.357	590.3
395.761	584
396.144	584.3
396.548	581.1
396.952	585.3
397.357	580.2
397.761	586.9
398.166	576.2
398.57	588.3
398.975	577.5
399.379	588.4
399.763	627.8
400.168	590.4
400.572	580.7
400.977	584.1
401.382	604.1
401.787	596
402.192	598.4
402.597	605.9
403.002	570.3
403.386	596.1
403.791	604.8
404.197	580.1
404.602	587.7
405.007	587.9
405.413	584.4
405.818	583
406.224	584.8
406.608	580.2
407.014	573.6
407.42	596.6
407.825	581.9
408.231	593.3
408.637	587.6
409.043	605.7
409.449	580.8
409.834	580
410.24	591.3
410.646	596.4
411.052	592.3
411.458	588.7
411.865	590.6
412.271	593.3
412.677	585.3
413.062	595
413.469	582.1
413.875	604
414.282	595.9
414.689	589.3
415.095	595.3
415.502	581.1
415.888	585.4
416.294	573.8
416.701	623.1
417.108	576.6
417.515	593.5
417.923	581.7
418.33	601.4
418.715	599.6
419.123	585.1
419.53	583.6
419.937	586.5
420.345	603.3
420.752	582.8
421.16	603.1
421.546	588.5
421.953	597
422.361	578.9
422.769	583.9
423.177	580.7
423.585	613.6
423.992	606.7
424.379	597.3
424.787	597.3
425.195	605.5
425.603	588.1
426.011	600.3
426.419	603.4
426.806	593.8
427.214	593.3
427.623	600.6
428.031	612.7
428.44	588.5
428.848	601.5
429.235	610.3
429.644	590.9
430.053	592.1
430.461	605.9
430.87	615.5
431.279	601.2
431.666	587
432.075	588.6
432.484	597.2
432.893	589.6
433.302	615.3
433.711	633.6
434.099	604.6
434.508	597.7
434.918	598.1
435.327	616.1
435.737	618.3
436.125	619.2
436.534	616.9
436.944	632.7
437.353	631.5
437.763	654
438.173	633.2
438.561	656.6
438.971	639.4
439.381	650.2
439.791	665.9
440.201	647.1
440.589	673.9
440.999	690
441.409	695.1
441.819	682.8
442.23	706
442.619	710.9
443.029	710.5
443.439	711.2
443.85	725.1
444.26	740.3
444.649	739
445.06	731.7
445.471	728.4
445.881	736
446.292	760
446.682	766.5
447.092	746.9
447.503	808.9
447.914	762.7
448.325	758.8
448.715	771.2
449.126	763.9
449.537	771.4
449.948	773
450.338	779.5
450.75	783.1
451.161	782.5
451.572	792.4
451.984	784.3
452.374	777.9
452.786	791.4
453.197	797.5
453.609	803.3
453.999	785.6
454.411	789.2
454.823	804.6
455.235	803.2
455.647	796.4
456.037	809.2
456.449	784.7
456.862	800.4
457.274	810.6
457.665	800.1
458.077	807.4
458.489	815.4
458.902	806.1
459.293	814
459.705	812.3
460.118	808
460.53	809.9
460.921	808.5
461.334	815
461.747	810.9
462.16	822
462.551	822.6
462.964	805.1
463.377	801.8
463.79	808.7
464.182	817.3
464.595	803.4
465.008	808.4
465.421	816.5
465.813	801.8
466.226	815
466.64	810.7
467.053	857.7
467.445	812
467.859	813.9
468.272	810
468.686	822.4
469.078	809.3
469.492	791.2
469.906	811.6
470.298	804.3
470.712	803.2
471.126	836.1
471.54	793.7
471.933	787.1
472.347	796.3
472.761	793.5
473.175	792.5
473.568	791
473.982	781.8
474.397	792.9
474.79	797.3
475.204	803.3
475.619	797.1
476.033	799.3
476.426	788.8
476.841	791.5
477.256	809
477.649	787.8
478.064	777.7
478.479	780.3
478.872	772.3
479.287	771
479.702	776.1
480.118	783.5
480.511	785
480.927	769
481.342	778.3
481.736	777.6
482.151	771.8
482.566	789.2
482.96	775.6
483.376	782.4
483.792	774.3
484.186	780.7
484.602	771.7
485.017	775.7
485.412	770.5
485.827	780.4
486.243	774.5
486.638	785.9
487.054	776.7
487.47	786.4
487.865	765.3
488.281	755.6
488.697	759.7
489.092	762.1
489.508	755.3
489.925	768.9
490.32	749.2
490.736	761.8
491.153	753.6
491.548	759
491.964	763.5
492.381	738.4
492.776	747.6
493.193	748.8
493.61	752.6
494.006	745.6
494.422	756.6
494.84	739.5
495.235	746.5
495.652	747.9
496.069	741.7
496.465	726.9
496.883	742.4
497.3	761.1
497.696	732.4
498.113	745.7
498.509	721.9
498.927	717.6
499.344	721.7
499.741	724.8
500.158	731.7
500.576	741.9
500.973	727.8
501.39	721.5
501.787	720.9
502.205	726.8
502.623	715.6
503.02	709.2
503.438	708.3
503.856	715.3
504.253	711.4
504.671	711.5
505.068	709.7
505.486	706.3
505.905	718.8
506.302	713.7
506.72	718.1
507.118	698.1
507.536	715.9
507.955	701.1
508.352	707.2
508.771	704.6
509.169	710.9
509.587	692.4
510.006	701.4
510.404	686.1
510.823	682.3
511.221	691.4
511.64	695.2
512.038	707.2
512.457	694.6
512.877	690
513.275	688.2
513.694	681.6
514.092	680.5
514.512	683.5
514.91	677.2
515.33	687.4
515.749	680.6
516.148	689.5
516.568	683.9
516.966	682
517.386	678.8
517.785	674.6
518.205	672.4
518.603	663.3
519.024	663.5
519.444	674.7
519.843	681.4
520.263	672.8
520.662	669.5
521.082	664.8
521.481	669.3
521.902	668
522.301	667.8
522.722	674.4
523.121	664.1
523.542	660.8
523.963	661.3
524.362	660.3
524.783	663
525.183	655.7
525.604	662.8
526.003	654.5
526.425	647.8
526.824	664.9
527.246	662.7
527.646	658.9
528.067	653.6
528.467	651
528.888	654.9
529.289	651
529.71	646.7
530.11	646.6
530.532	644
530.932	635.7
531.354	639.4
531.755	680.3
532.176	650.2
532.577	637.8
532.999	645.5
533.4	638.6
533.822	644.9
534.223	642.8
534.645	637.8
535.046	632.6
535.468	639.3
535.869	651.9
536.292	634.7
536.693	630.9
537.115	638.1
537.516	631.3
537.939	633.5
538.34	652.2
538.742	643.2
539.165	637.1
539.566	639.3
539.989	630.3
540.391	629.7
540.814	629.2
541.216	631.5
541.639	632.6
542.041	635
542.464	627.6
542.866	624.4
543.268	618.7
543.691	628.6
544.093	631.8
544.517	642
544.919	616.9
545.343	650
545.745	615.4
546.147	632.2
546.571	623.7
546.974	619
547.398	619.9
547.8	638.4
548.224	619.4
548.627	614.4
549.03	627.5
549.454	612.8
549.857	614.4
550.281	610.7
550.684	614.7
551.087	627
551.512	618.8
551.915	622.1
552.34	613.3
552.743	614.5
553.146	620
553.571	611.4
553.975	627.9
554.399	608.9
554.803	658.3
555.207	610.5
555.632	603.8
556.036	615.9
556.461	602.8
556.865	617.7
557.268	602.8
557.694	609.3
558.098	619.1
558.502	618.1
558.927	603.1
559.332	607.1
559.736	610.4
560.162	616.6
560.566	600.8
560.992	613.1
561.396	599.1
561.801	603.1
562.227	609.1
562.631	600
563.036	600.4
563.462	610.5
563.867	601.8
564.272	592.9
564.698	609.6
565.103	593.6
565.508	617
565.935	601.1
566.34	599.1
566.745	606.5
567.172	603
567.577	619.4
567.982	607.8
568.409	604.4
568.815	595.3
569.22	603.1
569.626	604.1
570.053	584.5
570.459	601.3
570.865	596.5
571.292	600.6
571.698	594.9
572.104	585.7
572.531	595
572.937	606
573.343	595.8
573.75	592.9
574.177	594.3
574.583	599.5
574.99	595.8
575.396	597.7
575.824	592.5
576.231	594.7
576.637	592.2
577.065	617.2
577.472	587
577.879	589.8
578.286	608.7
578.714	585.1
579.121	586.2
579.528	594.4
579.935	598
580.364	588.6
580.771	576.1
581.178	586.5
581.585	590.8
582.014	594.7
582.421	584.1
582.829	586.9
583.236	593.9
583.644	585.5
584.073	581.8
584.481	589.4
584.889	584.3
585.296	590
585.726	586.6
586.134	579.8
586.542	583
586.95	607.5
587.358	574.9
587.787	591.6
588.196	572
588.604	584
589.012	583.9
589.421	576.1
589.851	577
590.259	590.8
590.668	590.2
591.076	616.9
591.485	576.2
591.894	583
592.324	599.1
592.733	601.1
593.142	572.5
593.551	580.4
593.96	621.6
594.369	566.5
594.8	572.8
595.209	575.9
595.618	566.4
596.028	576.3
596.437	568.9
596.847	578.4
597.256	574.2
597.687	578.6
598.097	577.8
598.507	569
598.917	580.5
599.327	586.1
599.736	577.8
600.146	587.2
600.556	582
600.988	588.3
601.398	579
601.808	587.7
602.219	570.4
602.629	577
603.039	582.9
603.45	604.6
603.86	577.9
604.271	589
604.703	577.8
605.114	574.1
605.525	577.3
605.935	586.4
606.346	598
606.757	582.2
607.168	578.7
607.579	570
607.99	587.6
608.402	583.9
608.813	581.9
609.224	571.7
609.636	569
610.047	568.5
610.48	578.8
610.892	582.1
611.303	583.5
611.715	570
612.127	562.7
612.539	569.5
612.95	579.9
613.362	562
613.774	564.8
614.186	570.5
614.599	563.6
615.011	578.5
615.423	566.9
615.835	569.4
616.248	564.7
616.66	577.3
617.073	567.3
617.485	571
617.898	582.1
618.311	574.3
618.723	569.1
619.136	602.7
619.549	589.7
619.962	597.4
620.375	569.3
620.788	573.5
621.201	567.7
621.614	579.1
622.028	566.6
622.441	582.3
622.854	587.2
623.268	562.3
623.681	578.4
624.095	575.1
624.509	583
624.922	577.3
625.336	560.1
625.728	573.9
626.142	581.5
626.556	589.3
626.97	576.3
627.384	566.1
627.799	575.4
628.213	588.8
628.627	574.1
629.041	568
629.456	572.9
629.87	574.5
630.285	586.9
630.699	578.9
631.093	573.5
631.507	576
631.922	572.7
632.337	591.3
632.752	564.4
633.167	569.6
633.582	573.4
633.997	569
634.412	567.3
634.806	576.8
635.221	568.9
635.637	584.4
636.052	559.8
636.468	577.3
636.883	588
637.299	567.4
637.715	558.4
638.109	574.8
638.525	560.9
638.941	581.6
639.357	580.3
639.773	585.3
640.189	572.2
640.584	570.7
641	576.3
641.416	560.2
641.832	574.5
642.249	564.5
642.665	573.9
643.06	572
643.477	576.6
643.894	561.4
644.31	573.9
644.727	572.8
645.123	572.2
645.54	566.9
645.957	567
646.374	572
646.77	571.3
647.187	600.9
647.604	572.9
648.021	560.6
648.439	565
648.835	575
649.252	573.3
649.67	564.2
650.088	572
650.484	574.5
650.902	577.2
651.32	577.9
651.738	565
652.134	574.8
652.552	586.4
652.971	578.2
653.389	566.4
653.786	587.3
654.204	569.5
654.622	565.6
655.019	571.9
655.438	571.5
655.857	572.9
656.275	577.1
656.673	562.5
657.091	639
657.51	562.9
657.908	577.1
658.327	585.7
658.746	558.2
659.144	569.7
659.563	578.4
659.982	578.2
660.38	558.7
660.8	572.3
661.219	579
661.617	572.1
662.037	564.9
662.457	573.4
662.855	562.3
663.275	601.7
663.695	569.1
664.094	566.1
664.514	574.3
664.934	561.7
665.333	578.2
665.753	559.1
666.152	557.9
666.572	559.7
666.993	576.6
667.392	564.1
667.812	564.8
668.212	563.8
668.632	582.9
669.053	565.9
669.453	571.9
669.874	570.7
670.273	571.4
670.694	560.2
671.116	584.7
671.515	574.2
671.937	567
672.337	554.8
672.758	567.9
673.158	575.8
673.58	557.9
673.98	566.8
674.402	580.6
674.824	565.2
675.224	562.8
675.646	561.7
676.047	564.1
676.469	565.5
676.869	576.6
677.292	575.5
677.693	563.2
678.115	564
678.516	570.5
678.939	577.2
679.34	569.1
679.762	576.6
680.164	571.3
680.586	565.2
680.988	569
681.411	589.2
681.812	565.5
682.236	563.8
682.637	563.5
683.061	561
683.462	566.5
683.864	561.3
684.288	570.5
684.69	560.4
685.114	569.3
685.516	574.5
685.94	559.9
686.342	572.2
686.766	563.8
687.168	564.2
687.571	580.1
687.995	562.8
688.398	553.4
688.822	565.3
689.225	585.4
689.628	583.4
690.052	563.8
690.456	574.7
690.88	561
691.284	557
691.687	569.4
692.112	557.6
692.515	560.6
692.919	562.2
693.344	569
693.747	562
694.173	561.8
694.577	572
694.98	565.8
695.406	561.7
695.81	564.7
696.214	569.7
696.64	565.3
697.044	567.6
697.448	574.8
697.874	567.2
698.279	559.6
698.684	556.3
699.11	558.9
699.514	562.8
699.919	563.2
700.324	560.6
700.75	568.3
701.156	569.8
701.561	581.1
701.987	566.9
702.393	575.8
702.798	580
703.203	569.3
703.63	562.1
704.036	560.6
704.442	574.5
704.847	555.4
705.274	559.4
705.68	564.5
706.086	575.7
706.492	555.9
706.92	566.5
707.326	572.4
707.732	555.3
708.139	556
708.545	558.6
708.973	563.4
709.38	560
709.786	558.7
710.193	577
710.6	566.3
711.028	555.8
711.435	559.2
711.842	563.5
712.249	562.8
712.656	563.2
713.064	576
713.492	553.4
713.9	563.5
714.307	564.5
714.715	561.1
715.123	565.7
715.53	566.8
715.938	573.3
716.367	564.2
716.775	562.2
717.184	562.8
717.592	558.9
718	571.9
718.408	595.7
718.816	603.8
719.225	568.1
719.633	567.5
720.042	560.1
720.472	560.8
720.881	584.8
721.29	565.2
721.699	555.1
722.108	565.2
722.517	566.7
722.926	566.6
723.335	574.8
723.744	559.2
724.154	561.6
724.563	565.4
724.973	563.8
725.382	570.7
725.792	564.1
726.202	564
726.612	572.6
727.022	563.8
727.432	561.1
779.813	563.2
780.223	609.4
780.634	567.7
781.044	561.7
781.454	560.4
781.865	577.8
782.276	551.8
782.686	575.2
783.097	566.5
783.508	560
783.919	565.8
784.33	573
784.741	570.5
785.152	564.7
785.563	552
785.974	560.8
786.386	570.6
786.776	565.3
787.188	562.6
787.599	557.8
788.011	574
788.423	570.6
788.835	556.2
789.247	555.2
789.659	562.7
790.071	558.4
790.483	602.5
790.874	564.1
791.286	570.1
791.699	558.4
792.111	565.9
792.524	567.9
792.937	567.6
793.349	555
793.741	556.8
794.154	558.3
794.567	577.4
794.98	566.1
795.393	558.4
795.785	577.6
796.198	560.7
796.612	565.9
797.026	561
797.439	548.8
797.831	562.1
798.245	546.6
798.659	562
799.073	562.5
799.487	556.9
799.88	564.9
800.294	559.1
800.708	567.4
801.123	561.4
801.516	578.4
801.93	549.5
802.345	551.3
802.76	558.2
803.153	569.5
803.568	576.9
803.983	567
804.377	570.7
804.792	547.1
805.207	544.8
805.601	562.6
806.016	591.7
806.432	555
806.826	592.4
807.242	577.2
807.658	560.2
808.052	557
808.468	556.7
808.884	555.1
809.279	560.9
809.695	570.3
810.111	578.1
810.506	565.7
810.922	578.3
811.339	556.1
811.734	568.4
812.151	558.8
812.546	561.1
812.963	557
813.38	561.6
813.776	563.1
814.193	577.5
814.589	551.4
815.006	552
815.402	550
815.82	556.5
816.237	562.7
816.633	559.5
817.051	555.4
817.448	564.5
817.866	551
818.262	582.9
818.68	555
819.077	556.1
819.495	562.9
819.892	600.3
820.311	555.5
820.708	556.3
821.127	551.4
821.524	572.3
821.943	561.9
822.34	573.7
822.759	563.7
823.157	565.9
823.576	574.6
823.974	568.3
824.393	568
824.791	557.6
825.189	552.4
825.609	557.2
826.007	562
826.427	549.3
826.826	557.6
827.246	563.3
827.644	550.4
828.043	566.5
828.463	560.9
828.862	569.3
829.261	566.6
829.682	552.4
830.081	564.2
830.502	550.9
830.901	562.7
831.301	555.6
831.722	551.9
832.121	556.2
832.521	558.1
832.943	557
833.342	553.5
833.742	551.2
834.164	553.4
834.564	552.3
834.965	563.6
835.386	555.1
835.787	557
836.188	560.3
836.588	557.6
837.01	559.9
837.411	552.6
837.812	564
838.213	564.9
838.636	554.4
839.037	628.4
839.438	559.7
839.84	561.4
840.263	569.2
840.664	564.8
841.066	558.8
841.468	561.8
841.891	552.7
842.293	566.7
842.695	561.7
843.098	566.4
843.5	557.8
843.902	561.2
844.326	564.7
844.729	561.2
845.131	570.1
845.534	556.6
845.937	567.2
846.34	575.9
846.764	555.3
847.167	559.2
847.571	554.2
847.974	554.8
848.377	558.6
848.781	603.1
