#lambda/nm	C1
208.295	485.1
208.67	448.8
209.045	409.6
209.419	414.6
209.794	603.5
210.169	580
210.544	696.3
210.919	598.3
211.295	592.7
211.67	597.9
212.045	587.9
212.421	590.6
212.796	625.3
213.172	585.7
213.547	585.8
213.923	585.5
214.299	586.2
214.675	599.7
215.051	599.7
215.427	593.9
215.803	607.7
216.179	597.4
216.555	584.5
216.932	599.2
217.308	588.1
217.684	592.1
218.061	596.4
218.438	590.6
218.814	587.2
219.191	598.5
219.568	583
219.945	588.1
220.322	600.3
220.699	591.2
221.076	602.8
221.453	594.6
221.83	585.4
222.208	585.4
222.585	586.2
222.962	594.6
223.34	597.9
223.717	593
224.095	592.1
224.473	593.1
224.851	579.3
225.229	579.3
225.607	606.6
225.985	581.8
226.363	595.6
226.741	593.7
227.119	589.9
227.497	602.9
227.876	588
228.254	605.5
228.633	600.4
229.011	595.2
229.39	596.8
229.769	593.8
230.148	600.5
230.527	613.5
230.905	589.1
231.284	595.3
231.664	590.8
232.043	608.9
232.422	596.8
232.801	590
233.181	595.5
233.56	589.5
233.94	591.1
234.319	581
234.699	591.3
235.079	627.8
235.458	627.1
235.838	601.8
236.218	587.5
236.598	577.7
236.978	589
237.358	585.8
237.738	586.5
238.119	597.3
238.499	585.7
238.88	595.9
239.26	603.6
239.641	578.9
240.021	587.4
240.402	592
240.783	588
241.163	594.7
241.544	596.6
241.925	593.1
242.306	604.8
242.687	587.2
243.069	594.3
243.45	597.2
243.831	586.2
244.212	587.2
244.594	626.9
244.975	602.7
245.357	596.8
245.739	586.8
246.12	596.2
246.502	601.5
246.884	588.8
247.266	585.4
247.648	593.4
248.03	611.7
248.412	592.5
248.794	601.1
249.176	590.4
249.559	600.4
249.941	585.9
250.323	582.4
250.706	583.6
251.089	594.7
251.471	593
251.854	595.2
252.237	593.8
252.62	602.2
253.002	591.7
253.385	597.4
253.769	602.7
254.152	588.1
254.535	597.6
254.918	586.9
255.301	589.8
255.685	591
256.068	585.1
256.452	614.5
256.835	598.9
257.219	603
257.603	606.5
257.986	582.4
258.37	595.6
258.754	581.2
259.138	598.7
259.522	602.9
259.906	589.1
260.29	596.4
260.675	592.6
261.059	595.1
261.443	591.7
261.828	603.2
262.212	596.8
262.597	580.3
262.981	592.5
263.366	595.4
263.751	593.7
264.136	585.2
264.521	593.1
264.906	589.1
265.291	600.4
265.676	592.6
266.061	603.5
266.446	610.8
266.831	594.6
267.217	614.6
267.602	597.7
267.987	596.3
268.373	587.5
268.759	601.6
269.144	595.8
269.53	595.4
269.916	588.8
270.302	587.8
270.688	602.2
271.074	594.9
271.46	605.2
271.846	624.9
272.232	591.7
272.618	588.6
273.004	589.2
273.391	599.2
273.777	607.7
274.164	597.6
274.55	601.7
274.937	594.6
275.324	592.2
275.71	598.8
276.097	597.8
276.484	584.5
276.871	599.5
277.258	601.1
277.645	587.4
278.032	592.5
278.419	587.6
278.807	597.2
279.194	586
279.581	584.1
279.969	595.4
280.356	596.8
280.744	597.9
281.131	617.7
281.519	601.6
281.907	592.6
282.295	594.9
282.682	608.4
283.07	598.9
283.458	603.1
283.846	602.3
284.235	607
284.623	602
285.011	586.5
285.399	590.8
285.788	587.8
286.176	582.3
286.565	609.4
286.953	589.1
287.342	586.6
287.731	584.2
288.119	582.5
288.508	584.6
288.897	596.3
289.286	578.8
289.675	594.3
290.064	599.9
290.453	590.6
290.821	590.4
291.21	606.8
291.599	584.4
291.989	595.2
292.378	595.8
292.768	614.3
293.157	595
293.547	604.8
293.936	589.3
294.326	586.3
294.716	596.8
295.106	592.8
295.496	600.1
295.886	600.9
296.276	591.6
296.666	587.9
297.056	585.1
297.446	582
297.836	606.8
298.227	586.3
298.617	593.9
299.008	603.9
299.398	584.2
299.789	589.3
300.179	595.6
300.57	609.3
300.961	583.2
301.352	578.3
301.742	599.3
302.133	596
302.524	596.9
302.915	595.8
303.307	589.3
303.698	601.2
304.089	594.2
304.48	596.2
304.872	597.8
305.263	596.9
305.655	585
306.046	598.3
306.438	603.7
306.829	590.7
307.221	612.9
307.613	600.5
308.005	605.5
308.397	610.9
308.789	609.5
309.181	619.1
309.573	609.5
309.965	607.7
310.357	588.2
310.749	594.4
311.142	587
311.534	590.9
311.926	609.2
312.319	602
312.711	588.9
313.104	602.4
313.497	588.9
313.889	633.9
314.282	612.6
314.675	618
315.068	598.9
315.461	596.1
315.854	621
316.247	597.3
316.64	593.1
317.033	594.7
317.405	601.5
317.798	590.7
318.192	588.6
318.585	586.2
318.979	599.8
319.372	588.6
319.766	591.2
320.16	607.7
320.553	612.6
320.947	611.4
321.341	590.8
321.735	589.2
322.129	584.2
322.523	621.3
322.917	592.1
323.311	603.4
323.705	596.1
324.099	607.5
324.494	615.4
324.888	602.1
325.282	594.1
325.677	597.3
326.071	601
326.466	603.7
326.861	597.4
327.255	608
327.65	608.9
328.045	611.6
328.44	603.1
328.835	593.8
329.23	586.7
329.625	617.5
330.02	589.2
330.415	612.8
330.81	599.1
331.206	594.2
331.601	594.3
331.996	602.4
332.37	608.9
332.766	582.4
333.161	614.1
333.557	589
333.953	596.4
334.348	1028.4
334.744	594.9
335.14	590.2
335.536	585.5
335.932	605.9
336.328	591.4
336.724	608.2
337.12	595
337.516	596.2
337.913	592.1
338.309	607
338.705	593.8
339.102	607.7
339.498	590.5
339.895	610.7
340.291	592.2
340.688	603.7
341.085	588.5
341.481	590.4
341.878	590.1
342.275	613.5
342.672	587.3
343.069	595.3
343.466	584.7
343.842	606
344.239	584.5
344.636	589.9
345.033	578.1
345.431	587.6
345.828	594.6
346.225	585.1
346.623	603.5
347.02	598.9
347.418	604.5
347.816	615.8
348.213	589.9
348.611	600.6
349.009	587.2
349.407	607
349.805	584.4
350.203	582
350.601	607.8
350.999	585.8
351.397	588.3
351.795	595.5
352.193	594.4
352.57	599.9
352.969	603.4
353.367	581
353.766	585
354.164	592.7
354.563	603.8
354.961	594
355.36	588.2
355.759	586.1
356.158	585.8
356.557	585.4
356.956	581.5
357.355	581.9
357.754	597.6
358.153	596.2
358.552	612.8
358.951	596.8
359.35	598.3
359.75	587.9
360.149	581
360.527	580.5
360.926	586.2
361.326	590.1
361.726	594.1
362.125	580.7
362.525	593.8
362.925	581.2
363.325	594.7
363.724	594.4
364.124	585.3
364.524	582.2
364.924	591.6
365.324	602.7
365.725	582.6
366.125	595.1
366.525	588.4
366.904	586.2
367.304	572.6
367.705	602.4
368.105	602.4
368.506	589.9
368.906	592.3
369.307	593.4
369.708	591.9
370.108	572.4
370.509	597.2
370.91	585.1
371.311	589.9
371.712	589.3
372.113	582.5
372.514	579
372.894	582.1
373.295	584.6
373.696	596.7
374.097	600.6
374.499	618.9
374.9	593.4
375.301	580.5
375.703	591.9
376.105	583.4
376.506	589.2
376.908	591
377.309	585.3
377.711	587.4
378.113	587.5
378.493	589.1
378.895	581.2
379.297	596.2
379.699	569.7
380.102	591
380.504	592
380.906	577
381.308	606.7
381.71	584.1
382.113	593.1
382.515	588.4
382.918	589.1
383.299	584.8
383.701	594
384.104	590.1
384.507	563
384.909	575.7
385.312	568.9
385.715	573
386.118	587.8
386.521	577.8
386.924	584.8
387.327	579.9
387.709	570.5
388.112	567.9
388.515	583.1
388.918	580.9
389.322	588.1
389.725	580.2
390.129	605.9
390.532	587.7
390.936	581.1
391.339	584.4
391.743	591.8
392.125	579.7
392.529	592
392.933	599.4
393.337	585.8
393.74	579.5
394.144	584
394.548	578.9
394.953	579.6
395.357	586.9
395.761	575.7
396.144	582
396.548	580.3
396.952	583.3
397.357	588.4
397.761	580.9
398.166	580.5
398.57	583.9
398.975	575.5
399.379	589
399.763	632.7
400.168	579.4
400.572	578.5
400.977	576.4
401.382	605.3
401.787	597.1
402.192	603.7
402.597	605.1
403.002	581.5
403.386	597
403.791	606.6
404.197	578.8
404.602	584.5
405.007	582.5
405.413	579.7
405.818	581.4
406.224	583.8
406.608	580.3
407.014	578.4
407.42	600.2
407.825	584.5
408.231	591.3
408.637	589
409.043	600.3
409.449	586.1
409.834	579.9
410.24	585.1
410.646	593.5
411.052	595.7
411.458	587.1
411.865	589.5
412.271	594.5
412.677	588.7
413.062	590.5
413.469	579.1
413.875	611.5
414.282	605.9
414.689	588.9
415.095	596.4
415.502	584.5
415.888	589.1
416.294	573.5
416.701	625.9
417.108	581.2
417.515	593.4
417.923	583.5
418.33	608.2
418.715	595.9
419.123	586.4
419.53	587.5
419.937	594.6
420.345	603.1
420.752	582.3
421.16	606.4
421.546	588.7
421.953	593.4
422.361	576.3
422.769	592.4
423.177	582.4
423.585	613.5
423.992	607.1
424.379	597.8
424.787	596.8
425.195	609.7
425.603	586.8
426.011	603.3
426.419	603.2
426.806	593.1
427.214	593.6
427.623	607.9
428.031	605.7
428.44	593.9
428.848	605.7
429.235	608.1
429.644	597.1
430.053	597.2
430.461	614.3
430.87	625.4
431.279	617.8
431.666	599.7
432.075	619
432.484	629.6
432.893	633.4
433.302	662.4
433.711	695.6
434.099	666.7
434.508	672.6
434.918	681.4
435.327	710
435.737	722.7
436.125	741.3
436.534	757.7
436.944	777.2
437.353	805.4
437.763	832.6
438.173	823.1
438.561	853.4
438.971	857.1
439.381	877.5
439.791	898.7
440.201	913.6
440.589	953.8
440.999	969.4
441.409	999.2
441.819	985.2
442.23	1034.4
442.619	1042.9
443.029	1060.5
443.439	1077.2
443.85	1110
444.26	1120.4
444.649	1130.2
445.06	1134.2
445.471	1136
445.881	1168.2
446.292	1201.8
446.682	1211.2
447.092	1200.8
447.503	1263.1
447.914	1226
448.325	1240.3
448.715	1257.3
449.126	1248.3
449.537	1263
449.948	1265.3
450.338	1271.4
450.75	1294.5
451.161	1294.4
451.572	1310.4
451.984	1302.9
452.374	1301.8
452.786	1319.3
453.197	1324.8
453.609	1332
453.999	1319.2
454.411	1328.1
454.823	1348.9
455.235	1342.7
455.647	1348.7
456.037	1356.2
456.449	1340.4
456.862	1344.4
457.274	1361.7
457.665	1344.7
458.077	1358.9
458.489	1378.1
458.902	1368.6
459.293	1354.7
459.705	1368.1
460.118	1350.3
460.53	1362.9
460.921	1372.9
461.334	1362.1
461.747	1361.6
462.16	1370.1
462.551	1366.9
462.964	1373.7
463.377	1355.3
463.79	1372
464.182	1376.1
464.595	1371.4
465.008	1371.6
465.421	1371.2
465.813	1357.8
466.226	1363.2
466.64	1361
467.053	1396.9
467.445	1370.3
467.859	1356.2
468.272	1362.9
468.686	1357.4
469.078	1340
469.492	1330.1
469.906	1348.5
470.298	1350.9
470.712	1338.9
471.126	1366.7
471.54	1313.8
471.933	1323.7
472.347	1318.1
472.761	1320.1
473.175	1320.5
473.568	1312.3
473.982	1299.5
474.397	1321.8
474.79	1309.1
475.204	1309.6
475.619	1300.6
476.033	1300.8
476.426	1295.5
476.841	1284.9
477.256	1313.5
477.649	1273.4
478.064	1279.9
478.479	1273.3
478.872	1264.9
479.287	1256.8
479.702	1268
480.118	1263
480.511	1262.4
480.927	1242.7
481.342	1247.4
481.736	1257.2
482.151	1232.8
482.566	1259.4
482.96	1235.3
483.376	1254.2
483.792	1230.4
484.186	1229.5
484.602	1218.9
485.017	1227.4
485.412	1222
485.827	1224.9
486.243	1213.6
486.638	1227.4
487.054	1214.1
487.47	1228.4
487.865	1201.1
488.281	1202.3
488.697	1180.4
489.092	1183
489.508	1179.6
489.925	1193.7
490.32	1164.6
490.736	1174.6
491.153	1171.3
491.548	1171.2
491.964	1166.7
492.381	1136.3
492.776	1159.4
493.193	1142.9
493.61	1147.8
494.006	1140.7
494.422	1140.3
494.84	1119.9
495.235	1133.5
495.652	1111.3
496.069	1111.5
496.465	1100.3
496.883	1116.5
497.3	1126.8
497.696	1092.4
498.113	1104.1
498.509	1075.3
498.927	1075.4
499.344	1073
499.741	1063.3
500.158	1076.5
500.576	1078.4
500.973	1067
501.39	1047.5
501.787	1052.5
502.205	1046.2
502.623	1035
503.02	1032.8
503.438	1022.1
503.856	1033.2
504.253	1026.9
504.671	1024.8
505.068	1009.2
505.486	1010.5
505.905	1032.3
506.302	1000.5
506.72	1019.7
507.118	984.9
507.536	1000.5
507.955	990.3
508.352	994.4
508.771	993.5
509.169	983.6
509.587	971.2
510.006	978.2
510.404	965.5
510.823	962.6
511.221	955.9
511.64	957.1
512.038	967.4
512.457	950.8
512.877	943.6
513.275	934.8
513.694	936.6
514.092	931.6
514.512	924
514.91	922.3
515.33	924
515.749	933.9
516.148	921.3
516.568	917.9
516.966	913
517.386	910.2
517.785	900.1
518.205	898.3
518.603	896.4
519.024	886.3
519.444	893.8
519.843	894
520.263	887.5
520.662	882.3
521.082	882.5
521.481	867.3
521.902	866.5
522.301	872.6
522.722	877.5
523.121	861.9
523.542	859.2
523.963	854.3
524.362	849.7
524.783	856.3
525.183	849.1
525.604	843.1
526.003	848.5
526.425	827.1
526.824	838.3
527.246	840.7
527.646	845.9
528.067	831.3
528.467	830.1
528.888	825.1
529.289	817.3
529.71	817.7
530.11	802
530.532	801.7
530.932	801.6
531.354	790.4
531.755	826.1
532.176	800.6
532.577	789.3
532.999	792.9
533.4	785.2
533.822	800.6
534.223	786.2
534.645	775.1
535.046	772.1
535.468	778.8
535.869	785.7
536.292	765.4
536.693	767.7
537.115	773.5
537.516	759.5
537.939	767.1
538.34	783.6
538.742	775.2
539.165	767.6
539.566	760.6
539.989	745.3
540.391	750.5
540.814	756.9
541.216	765
541.639	751.8
542.041	758.5
542.464	749.8
542.866	745.8
543.268	733.3
543.691	748.4
544.093	751.6
544.517	759.1
544.919	729
545.343	760.1
545.745	727.6
546.147	736.3
546.571	734
546.974	720.4
547.398	736
547.8	743.4
548.224	730.1
548.627	718.1
549.03	721.9
549.454	714.5
549.857	704.7
550.281	712
550.684	716
551.087	725.6
551.512	717.4
551.915	716.7
552.34	718
552.743	702.7
553.146	716.4
553.571	710.1
553.975	723.7
554.399	694.8
554.803	744.8
555.207	698.1
555.632	686
556.036	700.7
556.461	684.7
556.865	695.7
557.268	684
557.694	687.9
558.098	687.1
558.502	687.5
558.927	684.3
559.332	684
559.736	686.5
560.162	686.8
560.566	686.6
560.992	686.7
561.396	677
561.801	680.6
562.227	675.3
562.631	676.1
563.036	674.3
563.462	682.2
563.867	670.7
564.272	654.1
564.698	671.8
565.103	660
565.508	680.6
565.935	667
566.34	657.9
566.745	674.7
567.172	659.2
567.577	676.7
567.982	671.6
568.409	661.1
568.815	655.1
569.22	659.3
569.626	661.2
570.053	633.7
570.459	652.8
570.865	652.9
571.292	657.1
571.698	649.4
572.104	637.7
572.531	649.3
572.937	659.3
573.343	643
573.75	640.7
574.177	641.8
574.583	649
574.99	640.4
575.396	648.7
575.824	634
576.231	635.4
576.637	628.8
577.065	665.1
577.472	632
577.879	627.9
578.286	651.8
578.714	633.4
579.121	630.5
579.528	635.2
579.935	639.9
580.364	632.9
580.771	613.8
581.178	620
581.585	629.6
582.014	637
582.421	621.9
582.829	621.7
583.236	633
583.644	622
584.073	625.6
584.481	619
584.889	615.3
585.296	624.5
585.726	622.1
586.134	612.9
586.542	612.6
586.95	636.3
587.358	602.6
587.787	615.2
588.196	609.5
588.604	620
589.012	615.7
589.421	610.9
589.851	609.3
590.259	619.2
590.668	612.5
591.076	651.3
591.485	603.2
591.894	610.8
592.324	629
592.733	623
593.142	598.8
593.551	613.6
593.96	644.3
594.369	603.6
594.8	602.4
595.209	608.1
595.618	599
596.028	608.7
596.437	597
596.847	602.4
597.256	614.9
597.687	610.3
598.097	602.5
598.507	593.2
598.917	606.5
599.327	604
599.736	600.8
600.146	612.6
600.556	604.3
600.988	612.6
601.398	596.8
601.808	602.4
602.219	586.5
602.629	597.3
603.039	598.7
603.45	625.5
603.86	595.7
604.271	613.1
604.703	593.8
605.114	591.5
605.525	600.5
605.935	598.1
606.346	613.8
606.757	595.8
607.168	592.5
607.579	587.5
607.99	608.6
608.402	593.2
608.813	594.6
609.224	590.4
609.636	582.8
610.047	586.1
610.48	591.9
610.892	594
611.303	602.8
611.715	591
612.127	587.3
612.539	587.3
612.95	592
613.362	575.3
613.774	580.4
614.186	587.4
614.599	583
615.011	599.8
615.423	580.8
615.835	581
616.248	582.9
616.66	590.7
617.073	579
617.485	587.6
617.898	592
618.311	592.2
618.723	584.1
619.136	616
619.549	597.4
619.962	608.7
620.375	587.7
620.788	588.3
621.201	584.2
621.614	591.5
622.028	586.3
622.441	589.9
622.854	601.2
623.268	584.2
623.681	593.1
624.095	588.7
624.509	588.6
624.922	590.4
625.336	579.5
625.728	587.8
626.142	596.8
626.556	600.2
626.97	594.5
627.384	578.4
627.799	586.2
628.213	597.8
628.627	579.6
629.041	584
629.456	578.6
629.87	586.6
630.285	593.6
630.699	590.1
631.093	581.5
631.507	586.3
631.922	587.2
632.337	594.8
632.752	582.8
633.167	582.8
633.582	578.4
633.997	580
634.412	576.9
634.806	580
635.221	572.8
635.637	593.6
636.052	573.9
636.468	580.9
636.883	601.3
637.299	578.7
637.715	564.1
638.109	582
638.525	571
638.941	590.2
639.357	578.6
639.773	585.1
640.189	581.1
640.584	579.1
641	580
641.416	568.5
641.832	573.1
642.249	576.8
642.665	581.2
643.06	587.7
643.477	591.4
643.894	565.3
644.31	577.1
644.727	583.2
645.123	578.3
645.54	572.5
645.957	578.5
646.374	578.7
646.77	580.3
647.187	603.3
647.604	577.2
648.021	563.1
648.439	575.9
648.835	580.8
649.252	579
649.67	577.3
650.088	575.1
650.484	577.4
650.902	581.4
651.32	592.4
651.738	574.3
652.134	581.3
652.552	591.5
652.971	580.6
653.389	573.5
653.786	584.9
654.204	574.5
654.622	571.7
655.019	577.5
655.438	575.2
655.857	577.6
656.275	578.9
656.673	573.4
657.091	643
657.51	575.2
657.908	580.7
658.327	593.8
658.746	566.8
659.144	573
659.563	587.2
659.982	580.3
660.38	562.2
660.8	575.6
661.219	589.7
661.617	578.6
662.037	571.7
662.457	586.2
662.855	557.1
663.275	608.6
663.695	569.5
664.094	575
664.514	575.6
664.934	564.3
665.333	582.1
665.753	576.3
666.152	555.9
666.572	567.7
666.993	586
667.392	570.1
667.812	568.1
668.212	565.2
668.632	581.6
669.053	563.5
669.453	573.4
669.874	571.7
670.273	567.8
670.694	563.6
671.116	580.2
671.515	574.2
671.937	566.2
672.337	563.6
672.758	564.6
673.158	576.1
673.58	559.2
673.98	573.9
674.402	577.8
674.824	570.4
675.224	566.6
675.646	567.5
676.047	564.7
676.469	571.9
676.869	575.6
677.292	571.6
677.693	556.3
678.115	566.5
678.516	580.2
678.939	568.9
679.34	562.3
679.762	570.9
680.164	575.6
680.586	555.4
680.988	566.9
681.411	593.8
681.812	568.7
682.236	565
682.637	563.2
683.061	555.1
683.462	569.7
683.864	568.4
684.288	573.1
684.69	559
685.114	578.6
685.516	577.8
685.94	564.1
686.342	572.9
686.766	561.7
687.168	572.3
687.571	590.8
687.995	569.4
688.398	558
688.822	562.1
689.225	585.6
689.628	591.1
690.052	566.1
690.456	577.9
690.88	566.9
691.284	559.9
691.687	575.8
692.112	560.2
692.515	560.5
692.919	572.1
693.344	571
693.747	572.3
694.173	560
694.577	574.2
694.98	565.4
695.406	563.5
695.81	577.3
696.214	566.4
696.64	565.1
697.044	570.6
697.448	581.4
697.874	568.8
698.279	563.3
698.684	555.6
699.11	560.5
699.514	564
699.919	565.6
700.324	558.9
700.75	571.3
701.156	569
701.561	572.3
701.987	569.2
702.393	574.5
702.798	577.1
703.203	570.5
703.63	563.5
704.036	559.7
704.442	566.2
704.847	562.8
705.274	563.3
705.68	571.2
706.086	578.7
706.492	553.9
706.92	560.5
707.326	569.9
707.732	563.7
708.139	561.4
708.545	559
708.973	565.5
709.38	567.3
709.786	551.5
710.193	578.9
710.6	568.4
711.028	562
711.435	562
711.842	567.5
712.249	564.4
712.656	561.7
713.064	571.3
713.492	555.9
713.9	563.3
714.307	570.9
714.715	564.7
715.123	569.6
715.53	571.3
715.938	572.4
716.367	568.6
716.775	561
717.184	555.7
717.592	567.2
718	578.2
718.408	597.3
718.816	612.6
719.225	569.4
719.633	565.9
720.042	559.9
720.472	563
720.881	583.7
721.29	571.1
721.699	555
722.108	571.2
722.517	564.5
722.926	566.8
723.335	572.6
723.744	563.5
724.154	562.4
724.563	563.8
724.973	567.7
725.382	565.8
725.792	569.6
726.202	559.3
726.612	579.1
727.022	562.3
727.432	557.6
779.813	563.3
780.223	607.1
780.634	562.9
781.044	561.1
781.454	562.1
781.865	578.6
782.276	557.1
782.686	569.1
783.097	562.2
783.508	565.5
783.919	571.5
784.33	578.9
784.741	585.2
785.152	560.7
785.563	549.8
785.974	560.9
786.386	572
786.776	560.6
787.188	563.6
787.599	558.7
788.011	574.8
788.423	570.6
788.835	566.3
789.247	559.2
789.659	555.7
790.071	561.6
790.483	603.3
790.874	559.8
791.286	570.2
791.699	560.2
792.111	563.9
792.524	565.1
792.937	565.8
793.349	550.8
793.741	559.5
794.154	563.7
794.567	577.3
794.98	562.5
795.393	551.2
795.785	580.3
796.198	554.5
796.612	565.2
797.026	560.2
797.439	546.9
797.831	559.7
798.245	555.1
798.659	558.3
799.073	557.2
799.487	560.3
799.88	561.7
800.294	562.4
800.708	567.5
801.123	562
801.516	577.8
801.93	551.2
802.345	551
802.76	565
803.153	574.1
803.568	585.3
803.983	570.7
804.377	564
804.792	556
805.207	551.1
805.601	560.2
806.016	591.7
806.432	561
806.826	594.2
807.242	578.6
807.658	563.8
808.052	560
808.468	562.7
808.884	559.3
809.279	563.2
809.695	576.8
810.111	580.7
810.506	569.1
810.922	577.7
811.339	561.5
811.734	571.9
812.151	563.6
812.546	551.7
812.963	560.4
813.38	562.1
813.776	567.1
814.193	583.4
814.589	558.3
815.006	555.5
815.402	550.4
815.82	557.1
816.237	561.9
816.633	562
817.051	551.9
817.448	563.5
817.866	546.3
818.262	579.3
818.68	560.4
819.077	555.9
819.495	556.7
819.892	599.8
820.311	557.8
820.708	553.8
821.127	561
821.524	571.5
821.943	558.8
822.34	582
822.759	566.1
823.157	561.2
823.576	575.4
823.974	569.3
824.393	563.1
824.791	555.4
825.189	556.4
825.609	560.9
826.007	560.2
826.427	543
826.826	551.7
827.246	561.1
827.644	549.3
828.043	568.4
828.463	558.4
828.862	568.7
829.261	565.9
829.682	551.8
830.081	567.1
830.502	557.2
830.901	560.8
831.301	554.3
831.722	553.4
832.121	560.2
832.521	558.2
832.943	557
833.342	561.2
833.742	550.4
834.164	553.6
834.564	559.7
834.965	561.3
835.386	557.3
835.787	557.7
836.188	557.3
836.588	561.9
837.01	562.3
837.411	553.5
837.812	572.1
838.213	567.8
838.636	556.5
839.037	630.1
839.438	564.8
839.84	566.1
840.263	563.7
840.664	563.1
841.066	556.4
841.468	568.5
841.891	557.2
842.293	569.1
842.695	566.2
843.098	573.3
