#lambda/nm	C1
208.295	480.4
208.67	444.2
209.045	406.8
209.419	412.1
209.794	581.1
210.169	562.2
210.544	677.9
210.919	580.5
211.295	570
211.67	584
212.045	576.4
212.421	577.4
212.796	614.5
213.172	575.6
213.547	572.1
213.923	576.3
214.299	576.6
214.675	588.7
215.051	578.2
215.427	579.6
215.803	595.3
216.179	580.4
216.555	568.4
216.932	585.3
217.308	575.4
217.684	580.1
218.061	586.9
218.438	581
218.814	573.2
219.191	584.3
219.568	570.5
219.945	573.3
220.322	581.8
220.699	585.7
221.076	590
221.453	582.4
221.83	569.7
222.208	579.6
222.585	573.4
222.962	576.5
223.34	584.5
223.717	579.7
224.095	574
224.473	582.9
224.851	573.3
225.229	572.5
225.607	589.7
225.985	569.1
226.363	584.2
226.741	583.4
227.119	585.7
227.497	593.5
227.876	570.6
228.254	589.6
228.633	587.3
229.011	581.1
229.39	584.1
229.769	579.9
230.148	589.3
230.527	597.1
230.905	581.5
231.284	585.5
231.664	580.2
232.043	593.1
232.422	586.5
232.801	568.6
233.181	587.3
233.56	581
233.94	576.7
234.319	567.1
234.699	582.4
235.079	614.2
235.458	617.5
235.838	592
236.218	577.8
236.598	572
236.978	575.4
237.358	575.5
237.738	579.2
238.119	587.1
238.499	566.7
238.88	576.4
239.26	590.9
239.641	568.7
240.021	574.9
240.402	578.1
240.783	574.9
241.163	578.6
241.544	577.1
241.925	576.2
242.306	590.8
242.687	567.9
243.069	580
243.45	588.4
243.831	573.3
244.212	578.1
244.594	614.6
244.975	590.2
245.357	581.7
245.739	581.5
246.12	580.3
246.502	592.3
246.884	577.7
247.266	580
247.648	583.3
248.03	600.4
248.412	583.2
248.794	587.4
249.176	577.1
249.559	595.2
249.941	572.1
250.323	575.1
250.706	578.1
251.089	575.8
251.471	585.4
251.854	579.6
252.237	581.6
252.62	591.3
253.002	582.4
253.385	580.2
253.769	594.3
254.152	583.1
254.535	589.4
254.918	574.2
255.301	577
255.685	577
256.068	567.6
256.452	601.8
256.835	585.3
257.219	594
257.603	588.5
257.986	576.5
258.37	584.1
258.754	566.6
259.138	581.8
259.522	592.7
259.906	580.4
260.29	583.8
260.675	579.8
261.059	580.9
261.443	570.8
261.828	589.3
262.212	587.1
262.597	564.9
262.981	578
263.366	589.3
263.751	582.3
264.136	579
264.521	576.2
264.906	574.6
265.291	589
265.676	577.9
266.061	584.2
266.446	597
266.831	581.2
267.217	601.1
267.602	587.2
267.987	579.1
268.373	573.7
268.759	591.7
269.144	586.5
269.53	583.6
269.916	577.7
270.302	579.1
270.688	592.9
271.074	580.6
271.46	593.9
271.846	608.4
272.232	580.3
272.618	578.5
273.004	579.7
273.391	586.9
273.777	595
274.164	582.2
274.55	593.1
274.937	580.5
275.324	576.3
275.71	588.1
276.097	593
276.484	571.9
276.871	584.4
277.258	582.2
277.645	573.1
278.032	579.5
278.419	581
278.807	583.6
279.194	573.5
279.581	575.5
279.969	586.3
280.356	584
280.744	586.3
281.131	604.2
281.519	590.3
281.907	577.7
282.295	576.2
282.682	592.5
283.07	580.6
283.458	588.7
283.846	596.2
284.235	591.1
284.623	594.3
285.011	575.2
285.399	583.2
285.788	583.1
286.176	571.3
286.565	591.7
286.953	578.7
287.342	577.6
287.731	577.2
288.119	572.8
288.508	580.5
288.897	581.4
289.286	572.1
289.675	584.6
290.064	593.9
290.453	581
290.821	585.4
291.21	599.5
291.599	585.6
291.989	581.7
292.378	591.3
292.768	597.9
293.157	585.6
293.547	588.9
293.936	576.7
294.326	577.3
294.716	587.1
295.106	579.6
295.496	591.8
295.886	589.7
296.276	579.1
296.666	577.8
297.056	578.5
297.446	567.1
297.836	602.2
298.227	578.6
298.617	586
299.008	598.7
299.398	576.4
299.789	575.4
300.179	587.7
300.57	588.6
300.961	574.7
301.352	577.1
301.742	591.1
302.133	584.7
302.524	582.1
302.915	579.6
303.307	570.5
303.698	594.3
304.089	583.5
304.48	577.1
304.872	586.3
305.263	586.5
305.655	574.7
306.046	585
306.438	584.8
306.829	576.8
307.221	597.3
307.613	588.2
308.005	585.5
308.397	591.2
308.789	603.8
309.181	606.8
309.573	596.5
309.965	594.2
310.357	576.7
310.749	582.7
311.142	573.6
311.534	575.8
311.926	589.6
312.319	584.3
312.711	580.4
313.104	590.1
313.497	578.5
313.889	618.4
314.282	592.7
314.675	605
315.068	582.3
315.461	591.1
315.854	611
316.247	582.8
316.64	584.3
317.033	584.1
317.405	585.6
317.798	590.2
318.192	591.9
318.585	575
318.979	585.4
319.372	575.6
319.766	580.7
320.16	589.8
320.553	593.9
320.947	604.1
321.341	584.4
321.735	583.9
322.129	571.4
322.523	605.9
322.917	575.5
323.311	588.9
323.705	581
324.099	583.5
324.494	594.8
324.888	593.4
325.282	580.2
325.677	579.7
326.071	585.1
326.466	594.4
326.861	583.6
327.255	587.9
327.65	588.6
328.045	597.6
328.44	585.2
328.835	585.1
329.23	581.3
329.625	610.8
330.02	579.7
330.415	602.7
330.81	586.8
331.206	582.6
331.601	578.1
331.996	590.5
332.37	597.8
332.766	571.5
333.161	602.9
333.557	578.2
333.953	583.3
334.348	953.3
334.744	582
335.14	577.9
335.536	576.4
335.932	594.7
336.328	582.2
336.724	588.5
337.12	582
337.516	580.3
337.913	578.4
338.309	593.8
338.705	586.1
339.102	586.6
339.498	580.9
339.895	593.2
340.291	582.3
340.688	587.2
341.085	572.8
341.481	579.1
341.878	576.1
342.275	599.4
342.672	572.6
343.069	574.1
343.466	569.9
343.842	590.4
344.239	572.9
344.636	585.1
345.033	576.4
345.431	570.9
345.828	582.2
346.225	577.3
346.623	586
347.02	580.1
347.418	590.1
347.816	592.8
348.213	574.3
348.611	581.2
349.009	576.3
349.407	586.4
349.805	572.4
350.203	576
350.601	592.9
350.999	575.7
351.397	575.4
351.795	578.4
352.193	584
352.57	586.4
352.969	591.7
353.367	575.7
353.766	573
354.164	579.4
354.563	583.7
354.961	574.8
355.36	575.1
355.759	577.7
356.158	575.1
356.557	570.1
356.956	571.2
357.355	566.8
357.754	580.3
358.153	579.1
358.552	604
358.951	576.6
359.35	583.7
359.75	571.9
360.149	567.6
360.527	564.2
360.926	567.2
361.326	578.8
361.726	574.7
362.125	566
362.525	581.2
362.925	577
363.325	581.1
363.724	577.2
364.124	579.2
364.524	569.9
364.924	573.2
365.324	585.8
365.725	567.7
366.125	584.1
366.525	577.2
366.904	571.2
367.304	561.3
367.705	591.4
368.105	590.5
368.506	582.7
368.906	579.4
369.307	577.9
369.708	581.6
370.108	566.2
370.509	583.4
370.91	567.6
371.311	573.7
371.712	581.5
372.113	570.8
372.514	565.9
372.894	574.1
373.295	574.9
373.696	582.7
374.097	589
374.499	607.8
374.9	581.5
375.301	568
375.703	577
376.105	576.2
376.506	582.7
376.908	583
377.309	577.4
377.711	582.7
378.113	569.6
378.493	572.2
378.895	571.7
379.297	585.2
379.699	561.2
380.102	578.5
380.504	574.4
380.906	572.1
381.308	594.6
381.71	575.5
382.113	589.6
382.515	577
382.918	575.9
383.299	579.3
383.701	581.8
384.104	578.8
384.507	563.7
384.909	578.2
385.312	561
385.715	572.6
386.118	574.7
386.521	567.9
386.924	586.4
387.327	564.9
387.709	567.1
388.112	560.6
388.515	570.4
388.918	571.3
389.322	581.3
389.725	572
390.129	599.1
390.532	577.4
390.936	569.8
391.339	568.7
391.743	573.5
392.125	573.2
392.529	582
392.933	584.9
393.337	570.5
393.74	571.4
394.144	573.1
394.548	568.4
394.953	573.3
395.357	584.4
395.761	569.6
396.144	571.8
396.548	574.4
396.952	573.3
397.357	579.8
397.761	575.3
398.166	569.1
398.57	569.5
398.975	563.6
399.379	580.7
399.763	620.1
400.168	575.3
400.572	573.4
400.977	573.9
401.382	588.8
401.787	582.5
402.192	587.7
402.597	588.4
403.002	562.6
403.386	582.1
403.791	591
404.197	571.4
404.602	574.1
405.007	570.9
405.413	572.2
405.818	560.7
406.224	566.2
406.608	568.7
407.014	560.3
407.42	585
407.825	569.4
408.231	579.5
408.637	578.3
409.043	581.3
409.449	573.1
409.834	566.2
410.24	575.7
410.646	583.3
411.052	582.8
411.458	574.3
411.865	580
412.271	587.2
412.677	572.5
413.062	578.8
413.469	568.8
413.875	598.7
414.282	585.7
414.689	580.1
415.095	578.8
415.502	569.7
415.888	577.7
416.294	563.5
416.701	610.7
417.108	571.1
417.515	577.4
417.923	576.4
418.33	592.5
418.715	590.9
419.123	567.1
419.53	570.1
419.937	573.9
420.345	585.8
420.752	572.4
421.16	594.4
421.546	571.3
421.953	592.7
422.361	566.9
422.769	574.5
423.177	563.7
423.585	597.1
423.992	595
424.379	586
424.787	586.6
425.195	597.1
425.603	578.1
426.011	591.4
426.419	588.4
426.806	584.5
427.214	578.3
427.623	588.6
428.031	594.6
428.44	583.7
428.848	596.1
429.235	599.9
429.644	586.2
430.053	586.9
430.461	610.1
430.87	621.6
431.279	606.6
431.666	598.8
432.075	613.9
432.484	624.7
432.893	629.2
433.302	657.4
433.711	690.8
434.099	666.6
434.508	671
434.918	685.6
435.327	714.4
435.737	726.4
436.125	746.8
436.534	767.6
436.944	781.8
437.353	815.6
437.763	833.7
438.173	838.4
438.561	874.3
438.971	868.2
439.381	905.1
439.791	918.2
440.201	919.2
440.589	958
440.999	989.1
441.409	1011.6
441.819	1013.3
442.23	1053.9
442.619	1059.6
443.029	1078.4
443.439	1103.8
443.85	1122.9
444.26	1136
444.649	1150.2
445.06	1158.9
445.471	1163.4
445.881	1189
446.292	1196.5
446.682	1215.9
447.092	1201.5
447.503	1282.2
447.914	1247.4
448.325	1262.1
448.715	1263.5
449.126	1267.9
449.537	1283.5
449.948	1290.7
450.338	1308
450.75	1311.2
451.161	1314.8
451.572	1318
451.984	1307.4
452.374	1302.6
452.786	1326.5
453.197	1344.5
453.609	1349.1
453.999	1346.9
454.411	1359.9
454.823	1375.3
455.235	1361.4
455.647	1359.8
456.037	1375.8
456.449	1367.3
456.862	1370.8
457.274	1374.3
457.665	1362.2
458.077	1381
458.489	1401.7
458.902	1382.7
459.293	1395.4
459.705	1400.2
460.118	1377.9
460.53	1382.1
460.921	1379
461.334	1375.1
461.747	1396.6
462.16	1401.8
462.551	1398.5
462.964	1388.9
463.377	1367.7
463.79	1373.4
464.182	1384
464.595	1379.5
465.008	1390.4
465.421	1377.2
465.813	1355
466.226	1386.2
466.64	1352.2
467.053	1398.1
467.445	1359.8
467.859	1360.1
468.272	1350.7
468.686	1366.3
469.078	1333.3
469.492	1332.1
469.906	1338.7
470.298	1352.3
470.712	1335.5
471.126	1384.7
471.54	1332.3
471.933	1325.7
472.347	1328.6
472.761	1328.2
473.175	1316.3
473.568	1318.9
473.982	1302.2
474.397	1313.2
474.79	1312.7
475.204	1311.5
475.619	1304
476.033	1298.6
476.426	1296.9
476.841	1290.9
477.256	1308.2
477.649	1285.4
478.064	1280.9
478.479	1275.8
478.872	1261
479.287	1258.9
479.702	1264.3
480.118	1260.5
480.511	1261.2
480.927	1246.4
481.342	1250.5
481.736	1265.1
482.151	1251.7
482.566	1264.4
482.96	1240.7
483.376	1251.2
483.792	1240.8
484.186	1247.5
484.602	1228.3
485.017	1231
485.412	1216.1
485.827	1217.8
486.243	1216.7
486.638	1243.6
487.054	1214.4
487.47	1213.1
487.865	1192.1
488.281	1195.6
488.697	1180.6
489.092	1184.8
489.508	1175.8
489.925	1195.1
490.32	1168.9
490.736	1172.9
491.153	1162.8
491.548	1160.8
491.964	1166.9
492.381	1136.2
492.776	1145.1
493.193	1145.5
493.61	1140.8
494.006	1129.9
494.422	1135.5
494.84	1118
495.235	1132
495.652	1109.6
496.069	1106.8
496.465	1093.9
496.883	1095.8
497.3	1112.9
497.696	1087.9
498.113	1094.8
498.509	1072.5
498.927	1061.3
499.344	1063.9
499.741	1056.6
500.158	1062
500.576	1070.1
500.973	1045.9
501.39	1035.3
501.787	1038.9
502.205	1039.6
502.623	1030.3
503.02	1020.3
503.438	1023
503.856	1021.6
504.253	1017.5
504.671	1017.2
505.068	1003.5
505.486	999.6
505.905	1015.6
506.302	995.7
506.72	997.3
507.118	978.6
507.536	984.4
507.955	976
508.352	980.4
508.771	982.5
509.169	973.6
509.587	954.1
510.006	954
510.404	943.6
510.823	953.3
511.221	941.7
511.64	940.8
512.038	965
512.457	938.5
512.877	943
513.275	928.5
513.694	925.1
514.092	925.7
514.512	919.9
514.91	912.2
515.33	913
515.749	912.7
516.148	908
516.568	899.8
516.966	896
517.386	895.4
517.785	893.3
518.205	890.9
518.603	881.9
519.024	880.3
519.444	883.2
519.843	886.7
520.263	876.1
520.662	876.6
521.082	860.5
521.481	861.8
521.902	849.8
522.301	860.2
522.722	860.4
523.121	849.1
523.542	847
523.963	840
524.362	836.8
524.783	834.3
525.183	828.6
525.604	824.1
526.003	812.1
526.425	814.2
526.824	825.3
527.246	814.5
527.646	812.3
528.067	806.6
528.467	811.5
528.888	811.6
529.289	798.2
529.71	799
530.11	793.8
530.532	783.1
530.932	779.2
531.354	780.9
531.755	816.7
532.176	780.5
532.577	779.2
532.999	775.5
533.4	771
533.822	779.6
534.223	763.4
534.645	763.3
535.046	761.9
535.468	765.5
535.869	776.6
536.292	758.9
536.693	756.1
537.115	753.2
537.516	748.2
537.939	748.8
538.34	766.8
538.742	762.6
539.165	754
539.566	742.4
539.989	739
540.391	740.7
540.814	736.9
541.216	740.9
541.639	735.5
542.041	745.9
542.464	739.8
542.866	732.7
543.268	722.4
543.691	734
544.093	738.4
544.517	746.4
544.919	716.8
545.343	748.8
545.745	715.1
546.147	722.7
546.571	713.5
546.974	714.8
547.398	721.6
547.8	727.5
548.224	706.9
548.627	701.1
549.03	709.6
549.454	700.9
549.857	695.2
550.281	693.7
550.684	693.6
551.087	709.4
551.512	696.3
551.915	706.4
552.34	697.9
552.743	693.3
553.146	697.5
553.571	689.7
553.975	707.9
554.399	679.9
554.803	732.7
555.207	675.8
555.632	676.5
556.036	685.3
556.461	667.2
556.865	673.4
557.268	660.2
557.694	667.9
558.098	685.4
558.502	675.2
558.927	666.8
559.332	663.5
559.736	668.3
560.162	670.9
560.566	657.7
560.992	667.6
561.396	665
561.801	656.9
562.227	663.6
562.631	661.4
563.036	658.4
563.462	664.6
563.867	653.1
564.272	637.7
564.698	653.4
565.103	643.7
565.508	663.3
565.935	650.2
566.34	650.4
566.745	658.2
567.172	638.7
567.577	664.6
567.982	661
568.409	648.9
568.815	636.2
569.22	644.1
569.626	643
570.053	624.9
570.459	638.8
570.865	640.7
571.292	651.2
571.698	635
572.104	623.4
572.531	628.1
572.937	644
573.343	634.2
573.75	630
574.177	634
574.583	632.4
574.99	625.5
575.396	630.8
575.824	631.4
576.231	629.6
576.637	621.4
577.065	649.9
577.472	619.3
577.879	623.4
578.286	634.4
578.714	619.2
579.121	617.8
579.528	621.7
579.935	624.1
580.364	617.7
580.771	605.3
581.178	608.1
581.585	620
582.014	620.1
582.421	609.6
582.829	614.5
583.236	622.8
583.644	607.9
584.073	609.6
584.481	605.8
584.889	605.1
585.296	617
585.726	609.7
586.134	605.4
586.542	605.9
586.95	631.7
587.358	593.2
587.787	604
588.196	593.3
588.604	603.3
589.012	607.3
589.421	591.5
589.851	597.6
590.259	599.7
590.668	593.4
591.076	634.9
591.485	599.3
591.894	592.1
592.324	610.4
592.733	608.4
593.142	583.9
593.551	593.5
593.96	601.8
594.369	580.9
594.8	586.7
595.209	588.3
595.618	578.6
596.028	589.8
596.437	581.7
596.847	587.2
597.256	586.8
597.687	586.8
598.097	586.7
598.507	575.2
598.917	585.9
599.327	594.4
599.736	588.8
600.146	601.4
600.556	582.8
600.988	597.4
601.398	579.6
601.808	589.5
602.219	572.9
602.629	584.1
603.039	577.8
603.45	607.9
603.86	582
604.271	594.3
604.703	585
605.114	582.7
605.525	581.4
605.935	588.9
606.346	603
606.757	578.1
607.168	581.8
607.579	573.7
607.99	589.8
608.402	580.9
608.813	582.2
609.224	573.8
609.636	576.3
610.047	569.1
610.48	577.7
610.892	575.3
611.303	584
611.715	571.3
612.127	565.2
612.539	572.4
612.95	575.7
613.362	567
613.774	567.4
614.186	569.8
614.599	571.2
615.011	583.8
615.423	566.7
615.835	576.1
616.248	564.7
616.66	575.9
617.073	567.6
617.485	575.3
617.898	578.7
618.311	576.7
618.723	567.6
619.136	597.8
619.549	589.2
619.962	591.1
620.375	570.8
620.788	571.8
621.201	567.6
621.614	574.8
622.028	573.5
622.441	574.6
622.854	578.4
623.268	566.7
623.681	573.5
624.095	566.8
624.509	582.4
624.922	574.1
625.336	562.2
625.728	572.9
626.142	581.4
626.556	588.7
626.97	578.4
627.384	562.9
627.799	566.3
628.213	582.7
628.627	564.8
629.041	570.6
629.456	565.8
629.87	573
630.285	573.4
630.699	576.6
631.093	568.7
631.507	570.5
631.922	574.6
632.337	579.6
632.752	567.4
633.167	569.9
633.582	564.7
633.997	562.5
634.412	566.4
634.806	568.6
635.221	555.6
635.637	576.7
636.052	556.8
636.468	572.4
636.883	587
637.299	566.1
637.715	560.9
638.109	563.2
638.525	557.7
638.941	570.7
639.357	572.6
639.773	576.2
640.189	558.1
640.584	562.1
641	573.1
641.416	555.7
641.832	563.3
642.249	556.5
642.665	566
643.06	566.9
643.477	570.9
643.894	553.1
644.31	560.3
644.727	566.7
645.123	564.1
645.54	557.1
645.957	570.6
646.374	565.8
646.77	565
647.187	590.3
647.604	564.7
648.021	552.1
648.439	565.1
648.835	564.5
649.252	562.8
649.67	559.9
650.088	565.9
650.484	566.6
650.902	566.9
651.32	570
651.738	566.4
652.134	565.6
652.552	579.1
652.971	566.7
653.389	560.1
653.786	572.2
654.204	562.6
654.622	555
655.019	567.8
655.438	570.5
655.857	569.5
656.275	565.5
656.673	555
657.091	630.6
657.51	556.6
657.908	576.6
658.327	572.3
658.746	549.7
659.144	562.1
659.563	575.7
659.982	565.4
660.38	553.6
660.8	556.7
661.219	571.7
661.617	565.7
662.037	558.5
662.457	573.6
662.855	550.1
663.275	589.4
663.695	566.4
664.094	561.2
664.514	564
664.934	557
665.333	568.8
665.753	554.2
666.152	555.8
666.572	559
666.993	573.8
667.392	557.5
667.812	553.7
668.212	556
668.632	569.2
669.053	557.2
669.453	562.7
669.874	559
670.273	560
670.694	554.8
671.116	575.9
671.515	563.2
671.937	561.2
672.337	553.7
672.758	554
673.158	568.4
673.58	555.1
673.98	557.4
674.402	570.7
674.824	555.2
675.224	556.3
675.646	550.2
676.047	559.8
676.469	553.5
676.869	565.1
677.292	558.4
677.693	553.3
678.115	553.7
678.516	563
678.939	561.4
679.34	558.5
679.762	567.9
680.164	564.2
680.586	550.3
680.988	561.3
681.411	581.5
681.812	557.3
682.236	553.1
682.637	545.5
683.061	541.5
683.462	559.2
683.864	558.7
684.288	561.3
684.69	546.9
685.114	565.6
685.516	566.7
685.94	542.5
686.342	562.1
686.766	548.1
687.168	549.1
687.571	570.8
687.995	555.9
688.398	542.6
688.822	548.8
689.225	570.1
689.628	571.5
690.052	555.6
690.456	557.1
690.88	553.3
691.284	548.9
691.687	554.1
692.112	548
692.515	549.2
692.919	551.8
693.344	561.2
693.747	556.4
694.173	540.6
694.577	562.1
694.98	550.1
695.406	554.3
695.81	554.4
696.214	558.5
696.64	555.7
697.044	555.5
697.448	559.9
697.874	558.7
698.279	551.6
698.684	542.6
699.11	548.3
699.514	553.2
699.919	549.2
700.324	548.3
700.75	554.5
701.156	560.9
701.561	566.1
701.987	555.7
702.393	560.2
702.798	563.6
703.203	558.6
703.63	547.4
704.036	550
704.442	553.8
704.847	547.2
705.274	549.6
705.68	556.2
706.086	560.7
706.492	542.4
706.92	549.5
707.326	558.3
707.732	554.3
708.139	547.5
708.545	547.6
708.973	548.7
709.38	556.4
709.786	538.7
710.193	566.2
710.6	561.1
711.028	544.6
711.435	552.7
711.842	555
712.249	549.5
712.656	549.3
713.064	556
713.492	545.3
713.9	550.5
714.307	559.4
714.715	553.3
715.123	552.5
715.53	551.8
715.938	558.8
716.367	548.7
716.775	550.2
717.184	549.3
717.592	550.6
718	560.4
718.408	582.3
718.816	591.6
719.225	554.1
719.633	553.2
720.042	544.5
720.472	553.6
720.881	570.3
721.29	556
721.699	548
722.108	551.7
722.517	548.1
722.926	545.2
723.335	561.4
723.744	549.9
724.154	550.9
724.563	552.8
724.973	552.4
725.382	553.8
725.792	552.6
726.202	544
726.612	567.8
727.022	551.2
727.432	548.7
779.813	547.5
780.223	596.6
780.634	545.9
781.044	542.5
781.454	553.4
781.865	569.4
782.276	546.1
782.686	564.4
783.097	545.9
783.508	542.6
783.919	553.8
784.33	568.1
784.741	562
785.152	544.7
785.563	537.5
785.974	547.9
786.386	561.6
786.776	548.4
787.188	549.3
787.599	547.5
788.011	553.3
788.423	552.3
788.835	545.8
789.247	541
789.659	545.8
790.071	548.1
790.483	593.2
790.874	548.2
791.286	559.1
791.699	556.3
792.111	548.4
792.524	555.5
792.937	546.8
793.349	540.6
793.741	547.4
794.154	549.7
794.567	569.4
794.98	554.5
795.393	543.5
795.785	561.1
796.198	546
796.612	550.6
797.026	547.5
797.439	539.7
797.831	550.2
798.245	546.6
798.659	551
799.073	550.2
799.487	547.4
799.88	552.2
800.294	548.1
800.708	555.7
801.123	553
801.516	566.6
801.93	541.6
802.345	538.5
802.76	549.2
803.153	562.5
803.568	566.5
803.983	563.8
804.377	554.9
804.792	541.8
805.207	539.5
805.601	552.6
806.016	577.6
806.432	549.4
806.826	578
807.242	563
807.658	558.1
808.052	545.3
808.468	547.4
808.884	544.5
809.279	553.3
809.695	555.3
810.111	566.6
810.506	549.7
810.922	568.5
811.339	549.9
811.734	559.9
812.151	549.6
812.546	549.8
812.963	549.9
813.38	554.7
813.776	550.8
814.193	566.3
814.589	540.7
815.006	545.4
815.402	548.5
815.82	543.6
816.237	550.3
816.633	555.2
817.051	539.8
817.448	551.4
817.866	540.9
818.262	569.1
818.68	548.7
819.077	544
819.495	551
819.892	590.6
820.311	541.6
820.708	546.3
821.127	546.6
821.524	563.6
821.943	550.9
822.34	571.2
822.759	548.8
823.157	552.3
823.576	563.6
823.974	556.3
824.393	562.7
824.791	548.6
825.189	539.4
825.609	543.8
826.007	549.8
826.427	539.6
826.826	550.1
827.246	550.5
827.644	538.4
828.043	561.8
828.463	548
828.862	557
829.261	553.1
829.682	535.5
830.081	550
830.502	539
830.901	556.9
831.301	543.1
831.722	535.6
832.121	549.1
832.521	542.7
832.943	546.2
833.342	539.7
833.742	540.9
834.164	546.2
834.564	538.5
834.965	545.4
835.386	546.6
835.787	545.2
836.188	545.7
836.588	540.9
837.01	544
837.411	535.6
837.812	548.5
838.213	553.1
838.636	543.9
839.037	608.9
839.438	546.8
839.84	546.5
840.263	553.7
840.664	552.4
841.066	554.3
841.468	547.7
841.891	543.8
842.293	555.2
