#lambda/nm	C1
208.295	476.2
208.67	444.8
209.045	405.1
209.419	411.7
209.794	586.5
210.169	564
210.544	678.5
210.919	582.8
211.295	579.3
211.67	582.1
212.045	576
212.421	574.8
212.796	616.8
213.172	572.6
213.547	573.2
213.923	571.5
214.299	571.1
214.675	585
215.051	581.9
215.427	579.8
215.803	596.1
216.179	580.1
216.555	570
216.932	585.5
217.308	576.7
217.684	577
218.061	588.5
218.438	576.7
218.814	572.8
219.191	586.7
219.568	572.7
219.945	576.3
220.322	586
220.699	578.2
221.076	585.6
221.453	582.7
221.83	567.2
222.208	573.3
222.585	577.4
222.962	579.5
223.34	581.2
223.717	576.1
224.095	575.8
224.473	576.6
224.851	571.1
225.229	564.5
225.607	587.4
225.985	561.2
226.363	577.2
226.741	578
227.119	578
227.497	593.8
227.876	569.9
228.254	584.9
228.633	578.3
229.011	577.5
229.39	587.1
229.769	582.6
230.148	581.6
230.527	596.3
230.905	580.2
231.284	581.5
231.664	575
232.043	580.7
232.422	581.9
232.801	573.7
233.181	583.8
233.56	575
233.94	578.5
234.319	564.6
234.699	576.3
235.079	617.7
235.458	616.8
235.838	592.1
236.218	571.6
236.598	564.6
236.978	573.9
237.358	574.9
237.738	573.4
238.119	583.7
238.499	567.1
238.88	575
239.26	599.5
239.641	568
240.021	573
240.402	579.3
240.783	580.6
241.163	578.2
241.544	581.7
241.925	575.7
242.306	592.6
242.687	574.9
243.069	581
243.45	583.4
243.831	570.6
244.212	578.1
244.594	607.4
244.975	582.5
245.357	583.3
245.739	570.8
246.12	576.7
246.502	591.2
246.884	575.1
247.266	574.6
247.648	577.3
248.03	600.5
248.412	580.9
248.794	585.8
249.176	576.8
249.559	585.6
249.941	569.6
250.323	569.5
250.706	571.2
251.089	581
251.471	583.4
251.854	579.4
252.237	570.7
252.62	584.6
253.002	578.8
253.385	578.7
253.769	589.2
254.152	575.3
254.535	589.3
254.918	569.8
255.301	579.4
255.685	573.6
256.068	569
256.452	599.7
256.835	583.1
257.219	580.4
257.603	592.5
257.986	571.2
258.37	579.6
258.754	566.4
259.138	588.1
259.522	590.8
259.906	568.2
260.29	579.2
260.675	578.3
261.059	579.8
261.443	569
261.828	578
262.212	578
262.597	569.9
262.981	571.5
263.366	582.6
263.751	583.8
264.136	575
264.521	575.3
264.906	579.9
265.291	592.9
265.676	578.1
266.061	586.6
266.446	593.6
266.831	581.3
267.217	594.4
267.602	580.1
267.987	582.5
268.373	578.1
268.759	589.3
269.144	586
269.53	583.5
269.916	579.3
270.302	579.8
270.688	580.4
271.074	580.9
271.46	592.8
271.846	609.9
272.232	573.4
272.618	576.8
273.004	577.6
273.391	586.2
273.777	590.9
274.164	583.6
274.55	594.7
274.937	584.1
275.324	573.1
275.71	584.4
276.097	587.2
276.484	570.5
276.871	577.8
277.258	584.2
277.645	570.9
278.032	576.7
278.419	575.7
278.807	583
279.194	574.1
279.581	573.9
279.969	581.4
280.356	582.3
280.744	581.8
281.131	607.1
281.519	589
281.907	577.2
282.295	577.1
282.682	584.5
283.07	583.3
283.458	588.1
283.846	589.5
284.235	586.3
284.623	587.7
285.011	571.4
285.399	579.1
285.788	582.8
286.176	568.6
286.565	592.1
286.953	575.4
287.342	572.7
287.731	575.1
288.119	566.9
288.508	580.3
288.897	581.7
289.286	567.8
289.675	582.7
290.064	591.4
290.453	581
290.821	579
291.21	596
291.599	576.6
291.989	582.3
292.378	585.7
292.768	599.5
293.157	578.1
293.547	587.7
293.936	581.3
294.326	572.6
294.716	580.7
295.106	579.1
295.496	586
295.886	588.7
296.276	580.7
296.666	579
297.056	576.2
297.446	566.2
297.836	597.4
298.227	580.8
298.617	583.3
299.008	592.1
299.398	581.4
299.789	573.9
300.179	587.4
300.57	590.9
300.961	575.1
301.352	575.3
301.742	586.2
302.133	577.7
302.524	581.8
302.915	582.9
303.307	570.4
303.698	590.7
304.089	583.2
304.48	579.3
304.872	582.8
305.263	577.5
305.655	577.5
306.046	581.1
306.438	583.2
306.829	578.4
307.221	592.3
307.613	584.7
308.005	587.9
308.397	593.2
308.789	604.7
309.181	602.8
309.573	592.8
309.965	592
310.357	573.5
310.749	579.5
311.142	568.3
311.534	575.1
311.926	584.8
312.319	575.7
312.711	570.7
313.104	591.6
313.497	582.9
313.889	613.9
314.282	589.3
314.675	598
315.068	583.8
315.461	584
315.854	611.8
316.247	587.3
316.64	580.3
317.033	574.8
317.405	583.8
317.798	584.2
318.192	585.2
318.585	571.4
318.979	591.1
319.372	574
319.766	575.8
320.16	589.2
320.553	594.2
320.947	601.6
321.341	578.7
321.735	577
322.129	569.4
322.523	603.5
322.917	575.7
323.311	588.9
323.705	580.6
324.099	582.7
324.494	590.4
324.888	589.6
325.282	578.7
325.677	585.1
326.071	587.4
326.466	587.2
326.861	585.8
327.255	591.8
327.65	590.2
328.045	594.6
328.44	582.1
328.835	573
329.23	579.5
329.625	610.2
330.02	578.6
330.415	606.1
330.81	581.8
331.206	584.2
331.601	577.1
331.996	585.3
332.37	589.3
332.766	574.3
333.161	600.8
333.557	576.8
333.953	583.1
334.348	934.2
334.744	580.7
335.14	578.6
335.536	575
335.932	587.4
336.328	586.8
336.724	583
337.12	582.4
337.516	582
337.913	579.2
338.309	593.5
338.705	583.1
339.102	592.1
339.498	577.4
339.895	590.4
340.291	576.7
340.688	582.9
341.085	574.9
341.481	577.9
341.878	575.5
342.275	598.2
342.672	568
343.069	574.2
343.466	571.3
343.842	584
344.239	573.8
344.636	577.2
345.033	569.4
345.431	573.6
345.828	584.4
346.225	574
346.623	589.3
347.02	581.3
347.418	588.3
347.816	591.9
348.213	573.3
348.611	581
349.009	572.3
349.407	586.7
349.805	565.6
350.203	567.5
350.601	588.9
350.999	579.5
351.397	577.6
351.795	579
352.193	586.9
352.57	583.4
352.969	583.9
353.367	568.6
353.766	568.1
354.164	569.3
354.563	586.7
354.961	572
355.36	574.2
355.759	571.3
356.158	567.6
356.557	571
356.956	572.2
357.355	565.5
357.754	579.3
358.153	582.7
358.552	595.4
358.951	573.5
359.35	584.6
359.75	572.4
360.149	567.7
360.527	560.7
360.926	571.3
361.326	579.2
361.726	574.3
362.125	567
362.525	581.2
362.925	572.6
363.325	573.8
363.724	575.5
364.124	570.1
364.524	566.8
364.924	571
365.324	585
365.725	561.6
366.125	580.2
366.525	574.2
366.904	570.9
367.304	559.1
367.705	588.2
368.105	587.2
368.506	570.8
368.906	575.4
369.307	571.8
369.708	581
370.108	563.3
370.509	580.2
370.91	567.4
371.311	577.7
371.712	574.2
372.113	573.7
372.514	563.4
372.894	575.8
373.295	563.6
373.696	585.7
374.097	581.7
374.499	597.7
374.9	582.1
375.301	562
375.703	572.7
376.105	565
376.506	575.7
376.908	568.6
377.309	570.1
377.711	574
378.113	565.3
378.493	570.4
378.895	567.1
379.297	579.2
379.699	561.9
380.102	571.1
380.504	576.2
380.906	568.8
381.308	597.7
381.71	568.3
382.113	583.6
382.515	570.9
382.918	575.3
383.299	571.8
383.701	579.6
384.104	578
384.507	551.4
384.909	568.4
385.312	554.5
385.715	562.6
386.118	571.7
386.521	560.9
386.924	577.1
387.327	565.6
387.709	560.7
388.112	549.6
388.515	562.5
388.918	567
389.322	574.5
389.725	566
390.129	590.3
390.532	574.5
390.936	565.9
391.339	561.2
391.743	567.6
392.125	565.5
392.529	579.8
392.933	581
393.337	571.9
393.74	566.3
394.144	567.1
394.548	562.8
394.953	568
395.357	572.5
395.761	563.4
396.144	573.2
396.548	569.2
396.952	572.2
397.357	570.6
397.761	565.9
398.166	567.2
398.57	568.5
398.975	563.1
399.379	575.7
399.763	620.2
400.168	568.5
400.572	574.5
400.977	568.4
401.382	586.3
401.787	580.9
402.192	591.3
402.597	588.6
403.002	563.3
403.386	580.3
403.791	582.4
404.197	567.3
404.602	568.9
405.007	574
405.413	569.5
405.818	558
406.224	562.3
406.608	569.4
407.014	559.7
407.42	591.8
407.825	565.9
408.231	580.2
408.637	571.9
409.043	583.3
409.449	566.8
409.834	563.1
410.24	572.2
410.646	584
411.052	581.7
411.458	577.5
411.865	576.9
412.271	583.5
412.677	569
413.062	574.4
413.469	565
413.875	591.5
414.282	586.3
414.689	575.5
415.095	579.4
415.502	563
415.888	577.1
416.294	556
416.701	611.2
417.108	563.6
417.515	581.1
417.923	569.9
418.33	590.4
418.715	578.9
419.123	573.5
419.53	569.3
419.937	573.7
420.345	592.3
420.752	573.3
421.16	581.7
421.546	578.4
421.953	573
422.361	567.1
422.769	575.3
423.177	570.6
423.585	593.4
423.992	590.5
424.379	583.9
424.787	586.9
425.195	589.1
425.603	577.3
426.011	591.4
426.419	587.1
426.806	577.5
427.214	575.7
427.623	587.4
428.031	591.9
428.44	582.7
428.848	593.1
429.235	597.9
429.644	578.4
430.053	579.3
430.461	598.2
430.87	609.7
431.279	591.2
431.666	578.9
432.075	593.2
432.484	596.7
432.893	592.4
433.302	621.1
433.711	644.9
434.099	620.3
434.508	613.7
434.918	618.3
435.327	641.1
435.737	645.8
436.125	654
436.534	665.1
436.944	676.4
437.353	688.8
437.763	707.5
438.173	695.8
438.561	728
438.971	708.6
439.381	738.1
439.791	752.7
440.201	751.3
440.589	775.9
440.999	789.6
441.409	802.6
441.819	795.5
442.23	823.8
442.619	834.3
443.029	844.5
443.439	852
443.85	871.1
444.26	887.7
444.649	886.1
445.06	893.1
445.471	893.6
445.881	911.4
446.292	929.3
446.682	946.5
447.092	911.8
447.503	980
447.914	931.2
448.325	940.8
448.715	945.7
449.126	941.6
449.537	960.4
449.948	968
450.338	972.6
450.75	981.8
451.161	981.9
451.572	989.1
451.984	984.4
452.374	974.7
452.786	987.3
453.197	1001
453.609	1003.1
453.999	990.3
454.411	995.2
454.823	1017.8
455.235	1014.8
455.647	1015.9
456.037	1018.6
456.449	1010.8
456.862	1016.8
457.274	1028.8
457.665	1021.4
458.077	1023.9
458.489	1037.2
458.902	1015.1
459.293	1029.9
459.705	1022.1
460.118	1025.9
460.53	1029.6
460.921	1033
461.334	1031.4
461.747	1027
462.16	1033.8
462.551	1036.2
462.964	1032
463.377	1013.4
463.79	1026.1
464.182	1035.5
464.595	1024.2
465.008	1038
465.421	1028.4
465.813	1026.5
466.226	1032.1
466.64	1012.9
467.053	1065.4
467.445	1031.7
467.859	1016.2
468.272	1015.3
468.686	1029.5
469.078	1004.6
469.492	1001.2
469.906	1000.7
470.298	1005.2
470.712	999
471.126	1034.6
471.54	985.7
471.933	997.6
472.347	999.3
472.761	996.1
473.175	987
473.568	993.5
473.982	989.7
474.397	997.7
474.79	991
475.204	986.9
475.619	988.1
476.033	984.2
476.426	987
476.841	980.3
477.256	994.7
477.649	964.8
478.064	975.1
478.479	970.9
478.872	963
479.287	958.1
479.702	966.9
480.118	964.5
480.511	960.7
480.927	955
481.342	962.7
481.736	960.7
482.151	950.6
482.566	963.3
482.96	949.8
483.376	959.2
483.792	948
484.186	951
484.602	936.7
485.017	955.4
485.412	936.3
485.827	950.4
486.243	945.7
486.638	965.8
487.054	939.2
487.47	949.8
487.865	924
488.281	932.4
488.697	923.6
489.092	925.2
489.508	914
489.925	927.1
490.32	907.7
490.736	922.8
491.153	913.8
491.548	919.7
491.964	923.4
492.381	898.8
492.776	907.8
493.193	902.1
493.61	908.5
494.006	898.3
494.422	895.9
494.84	882.5
495.235	893.5
495.652	884.3
496.069	886.3
496.465	874.8
496.883	876.4
497.3	899.7
497.696	865.8
498.113	876.9
498.509	857.4
498.927	858.5
499.344	860.8
499.741	860.2
500.158	870.7
500.576	862
500.973	848.8
501.39	847.3
501.787	833.2
502.205	844.5
502.623	834
503.02	823.3
503.438	832
503.856	831.9
504.253	838.3
504.671	821.7
505.068	825
505.486	822.2
505.905	838.7
506.302	827
506.72	822.3
507.118	805.4
507.536	805.6
507.955	810.1
508.352	810.1
508.771	814.7
509.169	810.6
509.587	795.8
510.006	797.4
510.404	782.6
510.823	791.7
511.221	784
511.64	799.8
512.038	797.5
512.457	784.6
512.877	782.9
513.275	780.3
513.694	774.2
514.092	776.5
514.512	773.9
514.91	770.1
515.33	769.5
515.749	765.6
516.148	771.6
516.568	764.3
516.966	763.5
517.386	756.2
517.785	760.7
518.205	755
518.603	747.4
519.024	749.6
519.444	757.1
519.843	753.2
520.263	747.2
520.662	747.1
521.082	736.9
521.481	741
521.902	741
522.301	743
522.722	734.1
523.121	725.3
523.542	721
523.963	722.6
524.362	721.5
524.783	732.8
525.183	724.5
525.604	729.4
526.003	712.4
526.425	712.4
526.824	714.2
527.246	719.4
527.646	721
528.067	719.1
528.467	706.9
528.888	706.7
529.289	702.1
529.71	702
530.11	697.1
530.532	698.5
530.932	694.4
531.354	688.1
531.755	716.9
532.176	702.4
532.577	687.4
532.999	688.6
533.4	682.3
533.822	695.7
534.223	683.5
534.645	685.9
535.046	682.5
535.468	684.4
535.869	699.3
536.292	678.6
536.693	678.4
537.115	674.8
537.516	669
537.939	668.1
538.34	691.4
538.742	686.7
539.165	678.7
539.566	673.6
539.989	663.5
540.391	670.1
540.814	668.1
541.216	668.6
541.639	666
542.041	672.3
542.464	665.6
542.866	656.2
543.268	655.9
543.691	670.1
544.093	669
544.517	677.5
544.919	649.3
545.343	681.3
545.745	643.3
546.147	664.2
546.571	651.8
546.974	650.3
547.398	658.6
547.8	664
548.224	652
548.627	637.2
549.03	655.6
549.454	638.2
549.857	643.4
550.281	640
550.684	642.2
551.087	654
551.512	643.9
551.915	648.3
552.34	646.2
552.743	631.1
553.146	638.9
553.571	636.9
553.975	653.8
554.399	630.8
554.803	677
555.207	627
555.632	622.7
556.036	636.9
556.461	627.8
556.865	637.5
557.268	620.5
557.694	628.7
558.098	636.5
558.502	635
558.927	621.2
559.332	628.5
559.736	630.8
560.162	636.5
560.566	618.2
560.992	628.1
561.396	619.1
561.801	619
562.227	622.3
562.631	621.8
563.036	624.1
563.462	627.3
563.867	620
564.272	608.6
564.698	614.7
565.103	608.6
565.508	626.1
565.935	615.9
566.34	609.6
566.745	623
567.172	605.9
567.577	629.8
567.982	616.5
568.409	614.3
568.815	603.8
569.22	611.1
569.626	617.4
570.053	598.5
570.459	607.6
570.865	614.6
571.292	617.6
571.698	604.8
572.104	596.3
572.531	600.5
572.937	610.1
573.343	599.9
573.75	594
574.177	602.1
574.583	606.1
574.99	596.3
575.396	601.6
575.824	596.2
576.231	606.5
576.637	592.8
577.065	617.8
577.472	597.4
577.879	596.3
578.286	611.2
578.714	590.8
579.121	590.4
579.528	603.5
579.935	600.5
580.364	594
580.771	576.2
581.178	586.3
581.585	596.2
582.014	600.8
582.421	583.7
582.829	584.9
583.236	602.8
583.644	584.3
584.073	580.5
584.481	587.6
584.889	584.5
585.296	596.6
585.726	589.6
586.134	572.7
586.542	579.4
586.95	604.3
587.358	578.5
587.787	592.3
588.196	575.5
588.604	581.8
589.012	582.4
589.421	576.4
589.851	575.7
590.259	585.2
590.668	579.9
591.076	612.3
591.485	575.2
591.894	582.1
592.324	589.8
592.733	588.2
593.142	571.6
593.551	575
593.96	613.2
594.369	568.9
594.8	578.5
595.209	570.8
595.618	565.7
596.028	563.5
596.437	568.8
596.847	573.2
597.256	577.3
597.687	576.8
598.097	575.7
598.507	561.4
598.917	571.7
599.327	582.1
599.736	576.3
600.146	581.8
600.556	574.5
600.988	585.6
601.398	574.1
601.808	587.5
602.219	560.8
602.629	573.2
603.039	569.2
603.45	595.5
603.86	570.7
604.271	582.2
604.703	575.9
605.114	570.4
605.525	570.9
605.935	568.1
606.346	591.5
606.757	574.8
607.168	566.4
607.579	565.6
607.99	585.7
608.402	562
608.813	566.9
609.224	561.2
609.636	556
610.047	562.3
610.48	571
610.892	582.3
611.303	574.2
611.715	567.6
612.127	562.9
612.539	562.8
612.95	568
613.362	558.5
613.774	555.4
614.186	562.3
614.599	558.3
615.011	578.9
615.423	558.1
615.835	559.9
616.248	560
616.66	568.6
617.073	556.9
617.485	561.5
617.898	575.8
618.311	566.8
618.723	565.1
619.136	587.5
619.549	579.7
619.962	588
620.375	560.4
620.788	570.5
621.201	557.4
621.614	575.2
622.028	564.1
622.441	565
622.854	582.3
623.268	556.5
623.681	564.3
624.095	563.8
624.509	570
624.922	569.1
625.336	552.7
625.728	563.9
626.142	570.1
626.556	575
626.97	566.5
627.384	561.4
627.799	559
628.213	570.6
628.627	557.4
629.041	558.2
629.456	558.6
629.87	563.2
630.285	568.1
630.699	575.5
631.093	560.6
631.507	565.7
631.922	573.2
632.337	574.1
632.752	560.8
633.167	565.3
633.582	553.5
633.997	560.8
634.412	552.7
634.806	564.4
635.221	549.4
635.637	567.4
636.052	552.5
636.468	564
636.883	579.2
637.299	556.6
637.715	541.7
638.109	551.3
638.525	547.6
638.941	572.2
639.357	566.7
639.773	567.2
640.189	555.3
640.584	562.1
641	564
641.416	547.8
641.832	558.3
642.249	560
642.665	562.9
643.06	566.6
643.477	569.6
643.894	545.8
644.31	551.8
644.727	553.4
645.123	559.7
645.54	555.7
645.957	554.4
646.374	561.8
646.77	557.9
647.187	584.6
647.604	554.6
648.021	545.9
648.439	552.7
648.835	556.9
649.252	554.7
649.67	557.6
650.088	559.5
650.484	562.8
650.902	562.2
651.32	570.3
651.738	554.7
652.134	564.6
652.552	575
652.971	570.4
653.389	555.3
653.786	565.2
654.204	561
654.622	549.4
655.019	558.9
655.438	562.7
655.857	563.2
656.275	565.9
656.673	547.6
657.091	622.2
657.51	549.8
657.908	560.4
658.327	574.2
658.746	549.8
659.144	553.9
659.563	564.4
659.982	554.6
660.38	549.5
660.8	559.1
661.219	564.2
661.617	561.2
662.037	563.8
662.457	569.4
662.855	548.1
663.275	583.6
663.695	559.6
664.094	553.8
664.514	564.2
664.934	548.9
665.333	563.4
665.753	551.8
666.152	547.7
666.572	549.3
666.993	568.4
667.392	557.2
667.812	553.1
668.212	554.6
668.632	569.3
669.053	552.4
669.453	558.1
669.874	557.8
670.273	560
670.694	550.6
671.116	566
671.515	563.4
671.937	552.5
672.337	549.7
672.758	549.8
673.158	567.5
673.58	547.6
673.98	558.6
674.402	566.5
674.824	552.7
675.224	549.9
675.646	545.9
676.047	552.4
676.469	554.4
676.869	561.5
677.292	556.5
677.693	548
678.115	551.4
678.516	554.9
678.939	550
679.34	552
679.762	565.9
680.164	547.7
680.586	545.3
680.988	557.1
681.411	576.5
681.812	553
682.236	549.2
682.637	545.3
683.061	545.3
683.462	550.8
683.864	556.3
684.288	556.2
684.69	545.4
685.114	560.9
685.516	559
685.94	549
686.342	557.2
686.766	550.3
687.168	549.7
687.571	568.6
687.995	551.2
688.398	542.4
688.822	550
689.225	573.1
689.628	575.4
690.052	556.9
690.456	557.6
690.88	552.2
691.284	540.8
691.687	558.8
692.112	548
692.515	543
692.919	553.3
693.344	551.2
693.747	545.3
694.173	545.4
694.577	560.2
694.98	548.4
695.406	547.5
695.81	550.8
696.214	557.7
696.64	550.7
697.044	551.4
697.448	561.2
697.874	542.7
698.279	551.4
698.684	539.2
699.11	538.1
699.514	546.1
699.919	547.9
700.324	540.9
700.75	549.7
701.156	549
701.561	555
701.987	559.1
702.393	561.3
702.798	563
703.203	550.9
703.63	547.6
704.036	545.3
704.442	548.7
704.847	549.1
705.274	551.8
705.68	554.3
706.086	552.6
706.492	540.6
706.92	549.5
707.326	563.1
707.732	549.5
708.139	544.6
708.545	540
708.973	543.7
709.38	551.6
709.786	540.8
710.193	560.9
710.6	549.6
711.028	542.7
711.435	551.4
711.842	548.4
712.249	544.1
712.656	544.2
713.064	557.7
713.492	544.5
713.9	549.5
714.307	549.8
714.715	540.3
715.123	551.3
715.53	556
715.938	554
716.367	551.2
716.775	550.6
717.184	547.5
717.592	546
718	556.2
718.408	579
718.816	589.3
719.225	555.9
719.633	546.4
720.042	546
720.472	545.8
720.881	566.9
721.29	556.6
721.699	542.3
722.108	554.1
722.517	552
722.926	546.7
723.335	556.5
723.744	544.9
724.154	547.6
724.563	549.5
724.973	554.8
725.382	550.4
725.792	549.2
726.202	542.7
726.612	560.5
727.022	547.7
727.432	548.7
779.813	543.6
780.223	591.4
780.634	548
781.044	547.2
781.454	547
781.865	558.3
782.276	535.7
782.686	554.7
783.097	546.6
783.508	544.4
783.919	551.9
784.33	561
784.741	560.7
785.152	543.9
785.563	536.8
785.974	545.4
786.386	556.7
786.776	541.9
787.188	548.3
787.599	546.5
788.011	550.1
788.423	549.5
788.835	539.9
789.247	537.6
789.659	545.7
790.071	543.9
790.483	590.7
790.874	541.4
791.286	553
791.699	549.9
792.111	552.1
792.524	554
792.937	549.9
793.349	541.1
793.741	540.7
794.154	548.5
794.567	568.1
794.98	546.8
795.393	536
795.785	556.9
796.198	541
796.612	544.7
797.026	543.6
797.439	531.5
797.831	544.7
798.245	535
798.659	543.5
799.073	549.3
799.487	542.2
799.88	546
800.294	548.2
800.708	545.2
801.123	546.2
801.516	562.2
801.93	537.1
802.345	537.9
802.76	548.9
803.153	561.3
803.568	565.4
803.983	560.1
804.377	550.7
804.792	535.7
805.207	535.3
805.601	553.9
806.016	577.4
806.432	541.8
806.826	571.3
807.242	552.7
807.658	551.4
808.052	546.3
808.468	545.3
808.884	544.8
809.279	545
809.695	550.9
810.111	564
810.506	548.2
810.922	568.5
811.339	542.9
811.734	551.6
812.151	547
812.546	542.5
812.963	540.2
813.38	544.7
813.776	545.2
814.193	561.3
814.589	539.5
815.006	543.4
815.402	541.5
815.82	541.5
816.237	542.2
816.633	544.2
817.051	540.3
817.448	546.6
817.866	544
818.262	562.1
818.68	545.3
819.077	537.8
819.495	546.8
819.892	581.1
820.311	538.2
820.708	546.1
821.127	544.4
821.524	554.7
821.943	542.1
822.34	562.2
822.759	547.1
823.157	544.3
823.576	557.4
823.974	553.7
824.393	559.4
824.791	544.4
825.189	539.2
825.609	543.7
826.007	547.8
826.427	536.5
826.826	546.6
827.246	547.8
827.644	531.2
828.043	551.1
828.463	541.1
828.862	555.8
829.261	554.1
829.682	542.3
830.081	551.1
830.502	539.9
830.901	556.9
831.301	535.2
831.722	538.7
832.121	546.8
832.521	541.7
832.943	545.8
833.342	546.1
833.742	533
834.164	541.2
834.564	531.6
834.965	543.3
835.386	543.2
835.787	543.1
836.188	544.2
836.588	548.4
837.01	546.7
837.411	539.3
837.812	549.6
838.213	538.6
838.636	543.2
839.037	601.5
839.438	542.4
839.84	548.8
840.263	551
840.664	544.8
841.066	545.3
841.468	542.9
841.891	544.3
842.293	552
842.695	554.5
843.098	553.2
843.5	544.4
843.902	553.8
844.326	547.7
844.729	545.7
845.131	553.4
845.534	545.4
845.937	549.8
846.34	553.8
846.764	540.6
847.167	545.8
847.571	535.5
847.974	545.6
