#lambda/nm	C1
208.295	484
208.67	447.7
209.045	409.1
209.419	414
209.794	596.8
210.169	580.2
210.544	690.7
210.919	587.6
211.295	588
211.67	589.8
212.045	587.2
212.421	587.1
212.796	625.5
213.172	577.2
213.547	582.8
213.923	581.9
214.299	581.5
214.675	596.6
215.051	587.4
215.427	591.3
215.803	602.2
216.179	588.1
216.555	577.2
216.932	594.4
217.308	586.6
217.684	586.4
218.061	594.8
218.438	588.7
218.814	586.7
219.191	594.6
219.568	577.2
219.945	587.5
220.322	594.4
220.699	594.8
221.076	597.6
221.453	594.1
221.83	581.6
222.208	580.5
222.585	585.7
222.962	594.6
223.34	598.1
223.717	589.5
224.095	587.7
224.473	587.5
224.851	580.1
225.229	579.6
225.607	601
225.985	576
226.363	588.9
226.741	594.2
227.119	586.5
227.497	603.1
227.876	576.2
228.254	600.2
228.633	595.1
229.011	591.5
229.39	590.1
229.769	593.2
230.148	596.1
230.527	614.7
230.905	591.9
231.284	591.4
231.664	585.5
232.043	602.2
232.422	598.9
232.801	588.7
233.181	599.1
233.56	590.9
233.94	593.7
234.319	577.1
234.699	585
235.079	623
235.458	622.3
235.838	600.1
236.218	578.2
236.598	579.9
236.978	587.3
237.358	576.9
237.738	585.8
238.119	596.6
238.499	582.7
238.88	588.4
239.26	607.4
239.641	578.3
240.021	585.8
240.402	595.6
240.783	583.9
241.163	590.1
241.544	592.3
241.925	596.7
242.306	608.4
242.687	584.4
243.069	594.2
243.45	598.3
243.831	584.4
244.212	590.3
244.594	620.1
244.975	597.4
245.357	589.2
245.739	584.3
246.12	591.6
246.502	602.2
246.884	588.5
247.266	594.5
247.648	591.5
248.03	612.6
248.412	589
248.794	589.9
249.176	589.6
249.559	593.2
249.941	583.5
250.323	577.2
250.706	585.2
251.089	587.3
251.471	602.3
251.854	591.4
252.237	588.7
252.62	592.4
253.002	586.9
253.385	592.2
253.769	606.4
254.152	586.8
254.535	594.4
254.918	577.9
255.301	582.5
255.685	588
256.068	583.9
256.452	611.8
256.835	594.9
257.219	595.4
257.603	598.1
257.986	579.4
258.37	589.3
258.754	582.2
259.138	594.3
259.522	595.1
259.906	586.5
260.29	592.8
260.675	582.4
261.059	589.6
261.443	582.1
261.828	597.2
262.212	592.5
262.597	583.9
262.981	578.7
263.366	595.3
263.751	589.7
264.136	584.5
264.521	588.1
264.906	582.5
265.291	599.1
265.676	587.5
266.061	600.4
266.446	607.4
266.831	589.1
267.217	604.3
267.602	593.6
267.987	592.1
268.373	590.7
268.759	600.2
269.144	599
269.53	585.6
269.916	583.2
270.302	585.4
270.688	585
271.074	596.5
271.46	602.2
271.846	618.1
272.232	592.5
272.618	587.3
273.004	587.5
273.391	599.5
273.777	596.2
274.164	592.7
274.55	613.1
274.937	587.3
275.324	587.7
275.71	594.3
276.097	595.6
276.484	579.9
276.871	594.8
277.258	599.4
277.645	574.8
278.032	593.1
278.419	586.8
278.807	595.3
279.194	585.3
279.581	583.1
279.969	590.7
280.356	587.6
280.744	590.1
281.131	621.5
281.519	592.3
281.907	587.4
282.295	588.3
282.682	606.6
283.07	590.2
283.458	596.3
283.846	600.3
284.235	604.9
284.623	598.7
285.011	584.3
285.399	596.4
285.788	589.2
286.176	575.3
286.565	600
286.953	589.1
287.342	590.9
287.731	580.4
288.119	584.9
288.508	586.7
288.897	592.9
289.286	577.4
289.675	594.4
290.064	605
290.453	582.9
290.821	587.3
291.21	611.3
291.599	586.3
291.989	588.6
292.378	597.2
292.768	612.6
293.157	597.3
293.547	599.9
293.936	590.8
294.326	580.1
294.716	599.6
295.106	589.5
295.496	602.3
295.886	602
296.276	587.1
296.666	586.7
297.056	589.4
297.446	579
297.836	611.2
298.227	596.6
298.617	587.2
299.008	604.8
299.398	586.8
299.789	587.9
300.179	594.1
300.57	604.9
300.961	582.8
301.352	583.1
301.742	600.6
302.133	589.1
302.524	587.7
302.915	593
303.307	585
303.698	598.4
304.089	597.2
304.48	594.9
304.872	596.1
305.263	593.4
305.655	588
306.046	597.8
306.438	595.4
306.829	587.9
307.221	605.2
307.613	600.9
308.005	601.5
308.397	603.3
308.789	612.3
309.181	616.1
309.573	601.7
309.965	605.6
310.357	585.9
310.749	587.8
311.142	585.2
311.534	588.8
311.926	600
312.319	595.7
312.711	587.2
313.104	600.8
313.497	585
313.889	632
314.282	604.9
314.675	616.4
315.068	597
315.461	598
315.854	620.9
316.247	596.4
316.64	590.8
317.033	595.2
317.405	602.6
317.798	595.4
318.192	595.1
318.585	584.6
318.979	595.2
319.372	587
319.766	591.7
320.16	606.1
320.553	606.7
320.947	610.8
321.341	588.5
321.735	589.5
322.129	581.5
322.523	615.9
322.917	588.4
323.311	598
323.705	594.4
324.099	598.9
324.494	611.8
324.888	601.6
325.282	596.3
325.677	600.3
326.071	604.5
326.466	602.9
326.861	593.2
327.255	605.6
327.65	604.3
328.045	604.3
328.44	599.2
328.835	591.8
329.23	585.7
329.625	618.6
330.02	588.3
330.415	612
330.81	597.3
331.206	596.2
331.601	583.9
331.996	596.1
332.37	602.6
332.766	582.4
333.161	611.4
333.557	592.5
333.953	596.5
334.348	971.9
334.744	593.6
335.14	587.1
335.536	581.4
335.932	602.9
336.328	592.9
336.724	601
337.12	586.8
337.516	597.2
337.913	589.9
338.309	609.6
338.705	591.2
339.102	602.2
339.498	591.8
339.895	606
340.291	587.5
340.688	603
341.085	585.3
341.481	591
341.878	584.2
342.275	608.1
342.672	581.4
343.069	584.1
343.466	579.6
343.842	604.2
344.239	585
344.636	595.9
345.033	584.4
345.431	584.4
345.828	592.7
346.225	587.4
346.623	598.2
347.02	595.8
347.418	599.3
347.816	601.5
348.213	580.6
348.611	593.8
349.009	582.1
349.407	598.9
349.805	584.3
350.203	579.8
350.601	597.5
350.999	583.2
351.397	580.2
351.795	588.2
352.193	597.8
352.57	590.9
352.969	603.4
353.367	578.6
353.766	580
354.164	585.4
354.563	593.5
354.961	588.4
355.36	585.4
355.759	586.7
356.158	579.9
356.557	584.1
356.956	579.8
357.355	578.5
357.754	592
358.153	588.3
358.552	614.8
358.951	585.9
359.35	599.9
359.75	583.4
360.149	578.8
360.527	573.6
360.926	577.1
361.326	587.6
361.726	587.2
362.125	578.7
362.525	590.8
362.925	586.5
363.325	589.1
363.724	585.2
364.124	580.9
364.524	583.4
364.924	587
365.324	595.4
365.725	572.9
366.125	589.9
366.525	584.6
366.904	574
367.304	567.2
367.705	604.7
368.105	599.9
368.506	582.3
368.906	586.6
369.307	585.6
369.708	593.7
370.108	575.3
370.509	593.7
370.91	579.8
371.311	588.4
371.712	587.2
372.113	575.9
372.514	576.8
372.894	582.9
373.295	578.9
373.696	595.5
374.097	595
374.499	608.7
374.9	580.3
375.301	579.1
375.703	581.8
376.105	573.6
376.506	588
376.908	590.2
377.309	587.2
377.711	583.3
378.113	578.2
378.493	586.2
378.895	574.5
379.297	594.5
379.699	571.1
380.102	586.1
380.504	583.3
380.906	578.8
381.308	602
381.71	579.1
382.113	588.7
382.515	587.1
382.918	586.8
383.299	579.9
383.701	594.7
384.104	581.2
384.507	571.6
384.909	579.4
385.312	575.5
385.715	576.7
386.118	583.1
386.521	570.3
386.924	598.2
387.327	575.7
387.709	570.7
388.112	564.3
388.515	575.1
388.918	581.8
389.322	591.6
389.725	579
390.129	601.2
390.532	592.9
390.936	582.3
391.339	578.2
391.743	589.8
392.125	580.5
392.529	594.4
392.933	596.5
393.337	585.8
393.74	586.2
394.144	585.8
394.548	576.6
394.953	577.8
395.357	588.6
395.761	583.7
396.144	587.4
396.548	584.5
396.952	584.7
397.357	584.7
397.761	586.1
398.166	573.4
398.57	582.3
398.975	580.1
399.379	583.9
399.763	627.8
400.168	585.4
400.572	581.7
400.977	577.1
401.382	595.8
401.787	597.6
402.192	601.8
402.597	597.6
403.002	575.4
403.386	595.5
403.791	600.3
404.197	580.3
404.602	580.9
405.007	585.5
405.413	578.4
405.818	578.9
406.224	571.9
406.608	584.6
407.014	571.2
407.42	602.9
407.825	580.7
408.231	593.9
408.637	587.7
409.043	597.9
409.449	576
409.834	571.8
410.24	588.4
410.646	593.9
411.052	590.8
411.458	586
411.865	595.4
412.271	592.4
412.677	582.9
413.062	589.4
413.469	582.2
413.875	609.8
414.282	603.5
414.689	592.5
415.095	588.1
415.502	585.5
415.888	582.6
416.294	575.7
416.701	631.5
417.108	583.7
417.515	597.1
417.923	579.7
418.33	605
418.715	590.5
419.123	582.3
419.53	580.4
419.937	592.5
420.345	603.7
420.752	580.2
421.16	597.4
421.546	594.2
421.953	591.1
422.361	579.3
422.769	587.3
423.177	581.7
423.585	613.7
423.992	603.4
424.379	596.7
424.787	599
425.195	611.1
425.603	587.3
426.011	600.4
426.419	601.4
426.806	590.5
427.214	591.3
427.623	602.1
428.031	601.4
428.44	591.6
428.848	599.1
429.235	612.6
429.644	594
430.053	601.6
430.461	614.4
430.87	627.5
431.279	615.5
431.666	605.7
432.075	621.5
432.484	632.7
432.893	637.2
433.302	663.6
433.711	701.4
434.099	672.8
434.508	685
434.918	690.5
435.327	722.8
435.737	728.1
436.125	743.2
436.534	763.8
436.944	790.8
437.353	806.1
437.763	840.2
438.173	837
438.561	874.3
438.971	864.8
439.381	904.7
439.791	921.9
440.201	925
440.589	978.3
440.999	984.6
441.409	997
441.819	994.9
442.23	1040
442.619	1049.5
443.029	1068.9
443.439	1085.4
443.85	1107.6
444.26	1123.8
444.649	1127.9
445.06	1146.6
445.471	1155.1
445.881	1157.1
446.292	1187.8
446.682	1197.5
447.092	1181.7
447.503	1252
447.914	1215.6
448.325	1225.9
448.715	1239.9
449.126	1237.5
449.537	1261.4
449.948	1269
450.338	1272.4
450.75	1285.9
451.161	1279.9
451.572	1296.7
451.984	1289.5
452.374	1284.2
452.786	1308.5
453.197	1312.3
453.609	1318.3
453.999	1306.3
454.411	1316.7
454.823	1334.7
455.235	1333.9
455.647	1331.8
456.037	1346.8
456.449	1335.5
456.862	1338.5
457.274	1343.1
457.665	1335.4
458.077	1353.8
458.489	1350.4
458.902	1341.9
459.293	1345.1
459.705	1355.4
460.118	1354
460.53	1353.1
460.921	1345.8
461.334	1352.4
461.747	1345.1
462.16	1352.6
462.551	1341.8
462.964	1346.8
463.377	1324.9
463.79	1321.4
464.182	1339.5
464.595	1324.5
465.008	1337.8
465.421	1344.1
465.813	1336.4
466.226	1348.8
466.64	1339.2
467.053	1379.6
467.445	1339.6
467.859	1326.2
468.272	1327.6
468.686	1321.2
469.078	1327.8
469.492	1300.8
469.906	1318.9
470.298	1315.8
470.712	1301.5
471.126	1349.2
471.54	1295.9
471.933	1311.1
472.347	1292.4
472.761	1293.4
473.175	1296.8
473.568	1290.7
473.982	1283.4
474.397	1281.2
474.79	1288.8
475.204	1292
475.619	1265.6
476.033	1277.8
476.426	1262.8
476.841	1252.9
477.256	1269.6
477.649	1246.6
478.064	1254.7
478.479	1239.3
478.872	1242
479.287	1222.6
479.702	1225.2
480.118	1222.4
480.511	1242.7
480.927	1224.6
481.342	1219.7
481.736	1232.6
482.151	1220.6
482.566	1223.1
482.96	1214.1
483.376	1229.4
483.792	1211.2
484.186	1208.9
484.602	1203.6
485.017	1210.1
485.412	1207
485.827	1194.6
486.243	1188.4
486.638	1212.7
487.054	1189.4
487.47	1203.7
487.865	1172.9
488.281	1168.6
488.697	1162.1
489.092	1167.3
489.508	1156.8
489.925	1169.2
490.32	1143.5
490.736	1153.8
491.153	1148.8
491.548	1147.7
491.964	1145.4
492.381	1111.2
492.776	1131.9
493.193	1122.6
493.61	1123.1
494.006	1113.3
494.422	1113.1
494.84	1098.4
495.235	1098.8
495.652	1084.8
496.069	1089.1
496.465	1079.3
496.883	1081.9
497.3	1093.1
497.696	1065.2
498.113	1067.6
498.509	1040.5
498.927	1045.8
499.344	1048.5
499.741	1041.7
500.158	1053.1
500.576	1049.4
500.973	1032.5
501.39	1022.3
501.787	1025.3
502.205	1030.8
502.623	1016.5
503.02	1010.3
503.438	1005.9
503.856	1009.4
504.253	1006
504.671	1003.6
505.068	993.5
505.486	991.2
505.905	1001.4
506.302	987.6
506.72	993.2
507.118	973.4
507.536	980.3
507.955	963.8
508.352	964.2
508.771	967.3
509.169	968.4
509.587	955.1
510.006	945.7
510.404	937.8
510.823	935.9
511.221	934.1
511.64	928.7
512.038	948
512.457	926.3
512.877	922
513.275	915.3
513.694	921.9
514.092	912.4
514.512	903.5
514.91	903.8
515.33	902.5
515.749	896.2
516.148	900.8
516.568	892.6
516.966	890.7
517.386	878.5
517.785	888.3
518.205	881.4
518.603	873.5
519.024	866.5
519.444	874.1
519.843	868.9
520.263	861
520.662	865.7
521.082	850.1
521.481	852.6
521.902	852.7
522.301	847.7
522.722	846.2
523.121	835.9
523.542	830.7
523.963	825.9
524.362	831.2
524.783	845.1
525.183	832.7
525.604	834.7
526.003	816.2
526.425	814.2
526.824	820.8
527.246	818.1
527.646	818
528.067	810.1
528.467	807.9
528.888	802.4
529.289	803.2
529.71	802.1
530.11	792.5
530.532	784.8
530.932	788.8
531.354	775
531.755	811.9
532.176	788.7
532.577	778
532.999	781
533.4	771.2
533.822	777.1
534.223	763.9
534.645	769.2
535.046	763.5
535.468	764.6
535.869	773.4
536.292	755.5
536.693	754.9
537.115	758.7
537.516	746.1
537.939	752.7
538.34	764.1
538.742	764.4
539.165	744.4
539.566	744.1
539.989	740.3
540.391	740.4
540.814	747.9
541.216	742.8
541.639	739.9
542.041	739
542.464	734.6
542.866	728.8
543.268	732.2
543.691	735.5
544.093	745.3
544.517	747.3
544.919	717.6
545.343	743.9
545.745	715.3
546.147	716.3
546.571	719
546.974	710.8
547.398	720.7
547.8	728.9
548.224	716.7
548.627	705.9
549.03	710.1
549.454	709.2
549.857	695.8
550.281	705.6
550.684	697.2
551.087	710.2
551.512	710.9
551.915	709.5
552.34	698.9
552.743	690.4
553.146	695.8
553.571	693.8
553.975	708.8
554.399	678
554.803	734.7
555.207	682.4
555.632	674.9
556.036	685.4
556.461	677.2
556.865	681.5
557.268	663.7
557.694	675.2
558.098	681.2
558.502	675
558.927	668.6
559.332	672.6
559.736	677.1
560.162	679.1
560.566	670.3
560.992	675.3
561.396	676.6
561.801	663.5
562.227	671.7
562.631	663
563.036	669.2
563.462	674.7
563.867	662.6
564.272	650.3
564.698	656.1
565.103	647.5
565.508	677
565.935	654.6
566.34	653.1
566.745	664.9
567.172	653.5
567.577	668.6
567.982	661.2
568.409	654
568.815	641.7
569.22	650.8
569.626	657.3
570.053	627.5
570.459	642.8
570.865	652.1
571.292	645.4
571.698	645.9
572.104	627.8
572.531	630.7
572.937	643.7
573.343	636.6
573.75	643.5
574.177	638
574.583	645.4
574.99	634.7
575.396	641.1
575.824	634.9
576.231	634
576.637	635.3
577.065	656.9
577.472	626.9
577.879	627.8
578.286	640.7
578.714	620.3
579.121	620.7
579.528	626
579.935	634
580.364	620.2
580.771	612.9
581.178	617.1
581.585	632.1
582.014	631.6
582.421	622.2
582.829	623.1
583.236	633.5
583.644	615.2
584.073	613.7
584.481	622.4
584.889	615.8
585.296	619
585.726	619.7
586.134	612.3
586.542	611.8
586.95	629.4
587.358	603.2
587.787	619.7
588.196	602.1
588.604	612.5
589.012	613.1
589.421	604.3
589.851	609.1
590.259	615
590.668	603
591.076	641.8
591.485	602.8
591.894	610.9
592.324	625.7
592.733	616.1
593.142	594.4
593.551	602.1
593.96	635.2
594.369	591
594.8	596.2
595.209	606.2
595.618	590
596.028	595.6
596.437	596
596.847	597.3
597.256	600.1
597.687	602.1
598.097	598.7
598.507	586.5
598.917	599.3
599.327	603.9
599.736	596.7
600.146	608.7
600.556	597.2
600.988	604.5
601.398	589.6
601.808	600.9
602.219	586.2
602.629	595.5
603.039	596.4
603.45	613.9
603.86	593.2
604.271	600
604.703	598.7
605.114	589.6
605.525	587.5
605.935	595.6
606.346	610.7
606.757	593.8
607.168	588.4
607.579	582.1
607.99	598.7
608.402	588.2
608.813	591.7
609.224	581
609.636	575.5
610.047	577.9
610.48	588.8
610.892	592.6
611.303	599.6
611.715	588
612.127	577.5
612.539	578.5
612.95	588
613.362	574.7
613.774	582.5
614.186	578.3
614.599	583.1
615.011	594.3
615.423	574.9
615.835	576.8
616.248	571.5
616.66	590.6
617.073	574.6
617.485	585.2
617.898	591.5
618.311	590.4
618.723	584.3
619.136	612.8
619.549	598.1
619.962	601.7
620.375	574
620.788	584.8
621.201	577.2
621.614	588.4
622.028	582
622.441	583.9
622.854	592.7
623.268	579.6
623.681	586.8
624.095	582.7
624.509	593.1
624.922	592
625.336	578.4
625.728	578.3
626.142	587.7
626.556	602.3
626.97	586.9
627.384	572.2
627.799	578.3
628.213	589.8
628.627	574.5
629.041	571.3
629.456	573
629.87	579.5
630.285	582
630.699	588.3
631.093	578.1
631.507	579.6
631.922	582.3
632.337	588
632.752	568.8
633.167	573.3
633.582	571.7
633.997	576.2
634.412	572.7
634.806	573.3
635.221	572.7
635.637	581.6
636.052	566.6
636.468	581.6
636.883	599.7
637.299	574.8
637.715	562.5
638.109	576.1
638.525	564.2
638.941	585.1
639.357	580.4
639.773	584.3
640.189	566.9
640.584	572.1
641	581.9
641.416	564.9
641.832	571.4
642.249	572.1
642.665	574.4
643.06	577.5
643.477	581.3
643.894	564.1
644.31	569
644.727	578.2
645.123	573.7
645.54	563.3
645.957	571.3
646.374	575.7
646.77	574.6
647.187	603.3
647.604	572.7
648.021	563.6
648.439	564.8
648.835	575.1
649.252	569.5
649.67	574.7
650.088	568.6
650.484	579.3
650.902	577.9
651.32	584.9
651.738	574.1
652.134	576.4
652.552	593.3
652.971	578.6
653.389	571.7
653.786	587.4
654.204	566.2
654.622	562
655.019	575.6
655.438	571.9
655.857	570.2
656.275	581.6
656.673	567
657.091	639.2
657.51	568.3
657.908	576.8
658.327	586.6
658.746	565.8
659.144	573.4
659.563	576.9
659.982	568.8
660.38	565.7
660.8	568.6
661.219	586.9
661.617	575.5
662.037	569.3
662.457	581.4
662.855	560
663.275	599.8
663.695	570.9
664.094	568.7
664.514	578.8
664.934	567.2
665.333	571.2
665.753	566.2
666.152	563.2
666.572	564.4
666.993	580.4
667.392	569.6
667.812	571
668.212	564.4
668.632	580
669.053	564.4
669.453	572.7
669.874	569.8
670.273	566.6
670.694	561.8
671.116	578.1
671.515	587.9
671.937	566.3
672.337	561.7
672.758	567.1
673.158	571.9
673.58	564
673.98	570.8
674.402	579.9
674.824	566.4
675.224	568.4
675.646	559.5
676.047	563.3
676.469	569.8
676.869	575.5
677.292	569.7
677.693	565.9
678.115	569.4
678.516	574.4
678.939	570.7
679.34	569.7
679.762	583.9
680.164	570.3
680.586	562.5
680.988	574.2
681.411	589.6
681.812	566.8
682.236	563
682.637	553.8
683.061	560
683.462	565
683.864	563.9
684.288	570.6
684.69	551.7
685.114	576
685.516	574.2
685.94	557
686.342	571.1
686.766	558.5
687.168	563.6
687.571	579
687.995	560.4
688.398	561
688.822	560.7
689.225	583.5
689.628	581.9
690.052	564.6
690.456	575.2
690.88	567.5
691.284	554.3
691.687	571.4
692.112	557.6
692.515	557.6
692.919	563.3
693.344	574.1
693.747	561.8
694.173	560.7
694.577	576.6
694.98	559.5
695.406	566.7
695.81	567.6
696.214	570
696.64	571.1
697.044	571.8
697.448	572.3
697.874	560.2
698.279	558.2
698.684	555.6
699.11	557.7
699.514	566
699.919	562.7
700.324	556.5
700.75	565.1
701.156	566
701.561	577
701.987	571.9
702.393	570.3
702.798	572.5
703.203	559.4
703.63	562.3
704.036	563.1
704.442	567.9
704.847	550
705.274	566.4
705.68	565.8
706.086	572.2
706.492	556
706.92	567.1
707.326	565.6
707.732	564.3
708.139	553.3
708.545	555.8
708.973	560.4
709.38	564.5
709.786	550
710.193	575.4
710.6	563.3
711.028	554.2
711.435	559
711.842	559.4
712.249	566
712.656	559.3
713.064	569.9
713.492	550.1
713.9	551.5
714.307	565
714.715	557.9
715.123	570.1
715.53	562.5
715.938	572.8
716.367	565.7
716.775	559
717.184	552.6
717.592	560.7
718	575.4
718.408	597.9
718.816	608.6
719.225	568.4
719.633	564.7
720.042	556.3
720.472	559.3
720.881	577.9
721.29	568.9
721.699	556.1
722.108	572
722.517	573.4
722.926	564.2
723.335	571.1
723.744	555.9
724.154	562.5
724.563	562.4
724.973	567.3
725.382	562.8
725.792	563.7
726.202	549
726.612	571.1
727.022	556.2
727.432	555.8
779.813	561.7
780.223	601.2
780.634	559.4
781.044	556.8
781.454	557.3
781.865	573.8
782.276	546.2
782.686	566.2
783.097	563.2
783.508	557.6
783.919	563.7
784.33	570.4
784.741	575.8
785.152	556.7
785.563	545.6
785.974	555.2
786.386	577.9
786.776	557.1
787.188	564.4
787.599	556
788.011	567.2
788.423	560.3
788.835	554.9
789.247	556.3
789.659	557.3
790.071	555.9
790.483	597.2
790.874	557.2
791.286	567.7
791.699	559.4
792.111	560.5
792.524	563.2
792.937	558.1
793.349	552
793.741	558.3
794.154	557.7
794.567	577.3
794.98	563.1
795.393	554
795.785	578
796.198	556.4
796.612	559.6
797.026	551.8
797.439	547
797.831	554.3
798.245	556
798.659	565
799.073	555.7
799.487	554.4
799.88	556.2
800.294	563
800.708	563.2
801.123	564.3
801.516	579.6
801.93	549
802.345	545.1
802.76	561.5
803.153	567.7
803.568	576.4
803.983	566
804.377	558.5
804.792	552
805.207	549
805.601	559.1
806.016	596.4
806.432	554.3
806.826	585.7
807.242	575.2
807.658	561.2
808.052	554.1
808.468	554.8
808.884	560.9
809.279	559.5
809.695	565.2
810.111	581.9
810.506	558
810.922	576.3
811.339	553.7
811.734	563.9
812.151	555.6
812.546	557.9
812.963	554.5
813.38	566.6
813.776	555.7
814.193	572.4
814.589	553.9
815.006	552.1
815.402	552.7
815.82	555.1
816.237	562.5
816.633	565.4
817.051	553.6
817.448	563.1
817.866	546.8
818.262	571.8
818.68	556.9
819.077	557
819.495	560.7
819.892	596.9
820.311	559
820.708	550.3
821.127	558.1
821.524	567.7
821.943	564.1
822.34	581.8
822.759	567
823.157	562.4
823.576	577
823.974	563.8
824.393	568
824.791	556.3
825.189	549.7
825.609	557.4
826.007	557
826.427	548
826.826	553.3
827.246	560.3
827.644	544.9
828.043	562.3
828.463	555.3
828.862	563.2
829.261	563.2
829.682	552.9
830.081	566.7
830.502	551.3
830.901	563.1
831.301	554.5
831.722	549.9
832.121	559.5
832.521	551.1
832.943	558.8
833.342	559.9
833.742	555.7
834.164	556.6
834.564	551.6
834.965	558
835.386	548.8
835.787	557
836.188	554.4
836.588	557.3
837.01	554.1
837.411	547.1
837.812	565.7
838.213	563
838.636	553.6
839.037	625.2
839.438	558.4
839.84	557.7
840.263	568
840.664	559.4
841.066	556.6
841.468	561
841.891	554.3
842.293	567.2
842.695	563.2
843.098	565.3
