#lambda/nm	C1
208.295	476.9
208.67	447.6
209.045	407
209.419	411.7
209.794	586.3
210.169	567.6
210.544	679.2
210.919	587
211.295	571.5
211.67	582.4
212.045	580.1
212.421	578.1
212.796	606.8
213.172	578.8
213.547	573.5
213.923	577.8
214.299	574.3
214.675	589.4
215.051	581.8
215.427	585.1
215.803	599.2
216.179	591.5
216.555	570.4
216.932	584.5
217.308	579.4
217.684	581
218.061	591
218.438	581.7
218.814	576.7
219.191	588.2
219.568	573.4
219.945	576.9
220.322	587.9
220.699	587.3
221.076	591.6
221.453	584.8
221.83	574.7
222.208	581.1
222.585	580.2
222.962	577.7
223.34	583.4
223.717	580.7
224.095	582.4
224.473	588.1
224.851	579.8
225.229	569.3
225.607	593.5
225.985	574.1
226.363	581.4
226.741	582.6
227.119	577.9
227.497	596
227.876	563.7
228.254	593.8
228.633	589.9
229.011	581.1
229.39	587.1
229.769	588
230.148	589
230.527	595.8
230.905	578
231.284	584.2
231.664	579.7
232.043	590.9
232.422	584
232.801	577
233.181	584.5
233.56	579.3
233.94	583.6
234.319	569.9
234.699	585.2
235.079	614.2
235.458	615
235.838	594.3
236.218	576.4
236.598	566
236.978	574.1
237.358	577
237.738	581.5
238.119	586.5
238.499	568.3
238.88	581
239.26	596.1
239.641	567.8
240.021	578.4
240.402	584.5
240.783	573.2
241.163	578.8
241.544	583.1
241.925	580.6
242.306	591.6
242.687	577.9
243.069	580.3
243.45	588.8
243.831	569.7
244.212	579.9
244.594	615.5
244.975	588.1
245.357	584
245.739	567.6
246.12	584.6
246.502	593.2
246.884	579.9
247.266	581.5
247.648	585.1
248.03	601.6
248.412	588.6
248.794	590.2
249.176	576.4
249.559	590.6
249.941	573.1
250.323	576.3
250.706	573.7
251.089	585.3
251.471	588.6
251.854	585
252.237	581
252.62	588.5
253.002	587.4
253.385	582.7
253.769	600.1
254.152	584.9
254.535	584.9
254.918	574
255.301	579.7
255.685	579
256.068	572.3
256.452	603.6
256.835	588.8
257.219	587.6
257.603	591.2
257.986	572.3
258.37	587.5
258.754	571.1
259.138	589.1
259.522	593.7
259.906	579.5
260.29	587.1
260.675	576.7
261.059	587.2
261.443	569.1
261.828	589.5
262.212	589
262.597	563.9
262.981	586.1
263.366	588.3
263.751	582.7
264.136	575.4
264.521	581.7
264.906	577
265.291	590.8
265.676	580.2
266.061	585.8
266.446	602.3
266.831	587.1
267.217	604
267.602	581.3
267.987	586.9
268.373	577.3
268.759	589.4
269.144	585.3
269.53	578.2
269.916	578.2
270.302	580.6
270.688	588.3
271.074	584.8
271.46	594.1
271.846	613.6
272.232	581.9
272.618	573.7
273.004	581.1
273.391	587.8
273.777	593.6
274.164	585.5
274.55	595.1
274.937	584.5
275.324	584.2
275.71	584.7
276.097	588.4
276.484	580.7
276.871	586.1
277.258	587
277.645	568.2
278.032	581.1
278.419	583.1
278.807	586.7
279.194	576.9
279.581	576.1
279.969	586.9
280.356	585
280.744	579.7
281.131	606.3
281.519	590.5
281.907	579.1
282.295	581
282.682	595.1
283.07	581
283.458	588.3
283.846	594.2
284.235	592.2
284.623	598.2
285.011	570
285.399	584.9
285.788	578.8
286.176	569.1
286.565	588.5
286.953	576.7
287.342	575.8
287.731	573.2
288.119	573.6
288.508	577.7
288.897	585.7
289.286	569.7
289.675	581
290.064	593.9
290.453	581
290.821	576.5
291.21	596.7
291.599	580.5
291.989	583.4
292.378	587.7
292.768	601
293.157	586.6
293.547	588.8
293.936	576.2
294.326	577.1
294.716	585
295.106	580.5
295.496	585.4
295.886	592.5
296.276	579
296.666	576.3
297.056	572.5
297.446	573.2
297.836	597.8
298.227	584.9
298.617	581.2
299.008	593.2
299.398	576.8
299.789	573.5
300.179	595
300.57	592.9
300.961	579.2
301.352	582.6
301.742	593.5
302.133	585.3
302.524	583.9
302.915	581.8
303.307	573.8
303.698	593.8
304.089	589.9
304.48	587.8
304.872	590.1
305.263	588.7
305.655	579.2
306.046	588
306.438	589.8
306.829	583.3
307.221	600
307.613	585.9
308.005	595.5
308.397	593.2
308.789	602.9
309.181	605.9
309.573	595.4
309.965	596.8
310.357	582.5
310.749	587.8
311.142	578
311.534	579.7
311.926	588.1
312.319	580.2
312.711	580.2
313.104	596
313.497	582.7
313.889	616.4
314.282	595.7
314.675	610.9
315.068	586.1
315.461	590.9
315.854	607
316.247	588
316.64	581.2
317.033	586.4
317.405	592.7
317.798	584.1
318.192	587.1
318.585	574.4
318.979	590.6
319.372	580.6
319.766	581.8
320.16	589.5
320.553	600.6
320.947	601
321.341	583.2
321.735	583.2
322.129	570.2
322.523	607.9
322.917	574.5
323.311	592.3
323.705	587
324.099	587.8
324.494	595.2
324.888	596.5
325.282	583
325.677	584.2
326.071	593.7
326.466	596.2
326.861	590.1
327.255	598.5
327.65	598.2
328.045	596.4
328.44	583.9
328.835	583
329.23	575.4
329.625	605.1
330.02	573.2
330.415	602.5
330.81	587.3
331.206	585.2
331.601	575.2
331.996	595.9
332.37	595.5
332.766	572.5
333.161	600.3
333.557	576.9
333.953	589.2
334.348	951.7
334.744	580.8
335.14	580.2
335.536	580.4
335.932	590.5
336.328	579.1
336.724	594
337.12	578
337.516	582.1
337.913	580.9
338.309	596.5
338.705	588.4
339.102	588.4
339.498	576.4
339.895	599.4
340.291	581
340.688	588.2
341.085	573.3
341.481	579.9
341.878	578.1
342.275	593.1
342.672	572.2
343.069	577.5
343.466	572.5
343.842	593.5
344.239	576.5
344.636	587.5
345.033	576
345.431	576.8
345.828	583.3
346.225	574.5
346.623	593.7
347.02	579.4
347.418	593.4
347.816	597.1
348.213	578
348.611	586.3
349.009	571.6
349.407	594.9
349.805	576.7
350.203	569.2
350.601	589
350.999	575.9
351.397	579
351.795	577.1
352.193	590.7
352.57	587.6
352.969	593
353.367	575.7
353.766	567.8
354.164	576.8
354.563	589.9
354.961	582.4
355.36	575
355.759	580.4
356.158	570.6
356.557	580.2
356.956	570.1
357.355	569.8
357.754	584.5
358.153	588.6
358.552	594.3
358.951	580
359.35	589.7
359.75	579.4
360.149	579.6
360.527	570.8
360.926	568.7
361.326	579.4
361.726	577.3
362.125	572.5
362.525	584.5
362.925	573.9
363.325	578.7
363.724	576.5
364.124	574.5
364.524	573.1
364.924	575.4
365.324	588.8
365.725	561.4
366.125	578.4
366.525	578.8
366.904	569.5
367.304	560.5
367.705	591.3
368.105	585.7
368.506	579.8
368.906	581.5
369.307	576.7
369.708	579.4
370.108	568.8
370.509	583.8
370.91	570.7
371.311	576.6
371.712	583.2
372.113	574.9
372.514	563
372.894	574.1
373.295	570.6
373.696	586.7
374.097	587.6
374.499	604
374.9	583.6
375.301	567.7
375.703	582.1
376.105	565.6
376.506	580.4
376.908	583.6
377.309	576.5
377.711	580.5
378.113	574.1
378.493	581.9
378.895	568.7
379.297	585
379.699	563.5
380.102	576.5
380.504	572.3
380.906	565.3
381.308	599.9
381.71	574.2
382.113	579.6
382.515	575.5
382.918	578.7
383.299	572.6
383.701	576.2
384.104	578.7
384.507	556.9
384.909	572.8
385.312	562.2
385.715	561.5
386.118	569.2
386.521	565.9
386.924	584.2
387.327	572.4
387.709	558.6
388.112	563.9
388.515	566.6
388.918	573.9
389.322	574.9
389.725	568.6
390.129	592.1
390.532	584
390.936	575.2
391.339	569.5
391.743	574.9
392.125	572
392.529	585.6
392.933	585.4
393.337	578
393.74	574
394.144	571.2
394.548	570.1
394.953	568.8
395.357	581.9
395.761	572.4
396.144	574.7
396.548	572.7
396.952	576.2
397.357	575.7
397.761	570.2
398.166	572.2
398.57	569.2
398.975	563.1
399.379	580.9
399.763	623.7
400.168	576.1
400.572	577.5
400.977	574.6
401.382	591.8
401.787	585
402.192	593.9
402.597	588
403.002	567.5
403.386	586.4
403.791	587.7
404.197	569.6
404.602	575.8
405.007	572.9
405.413	575.9
405.818	569
406.224	566.2
406.608	573.1
407.014	570.7
407.42	592.2
407.825	570.3
408.231	585.1
408.637	576.8
409.043	587.1
409.449	571.8
409.834	570.1
410.24	569.9
410.646	588.1
411.052	581.2
411.458	580
411.865	579.1
412.271	587.1
412.677	573.8
413.062	580.7
413.469	563.9
413.875	596.5
414.282	587.3
414.689	577.2
415.095	581.7
415.502	573.2
415.888	578.3
416.294	567.3
416.701	614.9
417.108	571.2
417.515	580.6
417.923	575.8
418.33	592.2
418.715	585.6
419.123	573.1
419.53	571.9
419.937	578.3
420.345	588.7
420.752	574.7
421.16	591.4
421.546	579.1
421.953	583.9
422.361	569.9
422.769	576.6
423.177	568
423.585	596.4
423.992	591.1
424.379	586.8
424.787	584.5
425.195	597.4
425.603	568.6
426.011	588.4
426.419	586.5
426.806	578.3
427.214	580.2
427.623	585.3
428.031	594
428.44	583.3
428.848	587.4
429.235	592.6
429.644	582
430.053	577.9
430.461	596.2
430.87	605.8
431.279	587.1
431.666	573.9
432.075	582.1
432.484	580.9
432.893	582.6
433.302	600.8
433.711	627.9
434.099	589.2
434.508	578.6
434.918	581.6
435.327	595.9
435.737	588.5
436.125	588.3
436.534	592
436.944	599.4
437.353	593.7
437.763	608.2
438.173	590.2
438.561	606.5
438.971	588.7
439.381	600.3
439.791	603.8
440.201	580.5
440.589	601.3
440.999	601.4
441.409	603.4
441.819	596.4
442.23	613
442.619	606.8
443.029	604.9
443.439	601
443.85	614.8
444.26	619.8
444.649	614.3
445.06	606.7
445.471	607.3
445.881	607.8
446.292	617.4
446.682	630.4
447.092	596.8
447.503	654.6
447.914	609
448.325	614.1
448.715	617.5
449.126	608.6
449.537	618.6
449.948	613.2
450.338	614.6
450.75	619.3
451.161	619.7
451.572	619.8
451.984	606.6
452.374	600.4
452.786	608.3
453.197	620
453.609	622.8
453.999	597.7
454.411	602.9
454.823	623.7
455.235	617.4
455.647	611.1
456.037	612
456.449	606.1
456.862	616.4
457.274	612.8
457.665	611.1
458.077	619.6
458.489	620.1
458.902	616.1
459.293	618
459.705	613.6
460.118	610.3
460.53	609.5
460.921	614.3
461.334	612.1
461.747	614.5
462.16	622
462.551	625.7
462.964	618.8
463.377	604.6
463.79	614.2
464.182	621.6
464.595	604.4
465.008	613.9
465.421	613.5
465.813	614
466.226	618.6
466.64	606.9
467.053	654.6
467.445	621.5
467.859	610.6
468.272	615
468.686	626.4
469.078	609
469.492	603.7
469.906	614.3
470.298	622.7
470.712	614
471.126	638.3
471.54	597.9
471.933	602.8
472.347	608.5
472.761	603.9
473.175	603.5
473.568	610
473.982	598
474.397	607.1
474.79	610.4
475.204	614.8
475.619	604.9
476.033	606.2
476.426	601.5
476.841	599.9
477.256	627.1
477.649	598
478.064	599.8
478.479	606.1
478.872	599.4
479.287	593.7
479.702	600.2
480.118	612
480.511	598.8
480.927	597.5
481.342	595.5
481.736	604.6
482.151	593.9
482.566	615.2
482.96	599.2
483.376	606.7
483.792	600.3
484.186	601.5
484.602	603.4
485.017	606.4
485.412	601.8
485.827	612
486.243	603.9
486.638	621.3
487.054	607.2
487.47	620.3
487.865	598.9
488.281	599.5
488.697	596.8
489.092	599.1
489.508	593.9
489.925	609.1
490.32	589.6
490.736	598.9
491.153	602.9
491.548	601.7
491.964	605.5
492.381	586.6
492.776	601.5
493.193	601.3
493.61	602.1
494.006	602.3
494.422	604.9
494.84	595.8
495.235	607
495.652	593.6
496.069	594.5
496.465	586.8
496.883	598.4
497.3	614.1
497.696	590.6
498.113	604.6
498.509	588.2
498.927	586.6
499.344	584.2
499.741	586.7
500.158	606.3
500.576	596.1
500.973	594
501.39	584
501.787	580.4
502.205	593.4
502.623	584.6
503.02	583.6
503.438	588
503.856	588.7
504.253	589.1
504.671	592.2
505.068	581.3
505.486	588.7
505.905	606.5
506.302	587.7
506.72	602.6
507.118	580.8
507.536	590.5
507.955	587
508.352	591.7
508.771	595.3
509.169	596.2
509.587	580.7
510.006	583.7
510.404	578.4
510.823	577.8
511.221	582.9
511.64	582.9
512.038	598.5
512.457	586.1
512.877	587.2
513.275	577
513.694	579.3
514.092	586.8
514.512	588.6
514.91	580.9
515.33	585.4
515.749	588.4
516.148	586.8
516.568	589
516.966	583.6
517.386	578.5
517.785	582.8
518.205	574.4
518.603	572.3
519.024	575
519.444	583.4
519.843	594.6
520.263	586.1
520.662	582.5
521.082	578.8
521.481	581.7
521.902	572.4
522.301	582.5
522.722	577.1
523.121	573.9
523.542	577.2
523.963	572.7
524.362	577.6
524.783	579.6
525.183	580.2
525.604	584.7
526.003	574
526.425	572.9
526.824	579.4
527.246	589.4
527.646	578.6
528.067	579.5
528.467	578.7
528.888	577.5
529.289	576.2
529.71	577.2
530.11	565.5
530.532	576.9
530.932	565.4
531.354	564.2
531.755	613.2
532.176	580.8
532.577	574.1
532.999	575.2
533.4	570.4
533.822	585.1
534.223	571.9
534.645	569.6
535.046	574.5
535.468	577.4
535.869	585.8
536.292	569.3
536.693	570.5
537.115	574.3
537.516	565.5
537.939	569.9
538.34	597.6
538.742	581.7
539.165	571.9
539.566	574.2
539.989	564
540.391	567.2
540.814	570
541.216	568.7
541.639	575
542.041	576.3
542.464	568.7
542.866	567.2
543.268	562.6
543.691	568.4
544.093	570
544.517	593
544.919	565.5
545.343	595.4
545.745	564.5
546.147	569.7
546.571	570.9
546.974	562.7
547.398	571
547.8	584.7
548.224	564.5
548.627	567.1
549.03	576.1
549.454	567.6
549.857	559.5
550.281	562.4
550.684	564.4
551.087	578.9
551.512	568.2
551.915	574.5
552.34	572.5
552.743	572.3
553.146	569.4
553.571	570.8
553.975	586.3
554.399	562.5
554.803	617.5
555.207	569.8
555.632	558.2
556.036	568
556.461	555
556.865	565.9
557.268	556.4
557.694	563.8
558.098	570.4
558.502	568.2
558.927	565.6
559.332	565.9
559.736	569.2
560.162	569.9
560.566	563.4
560.992	571.4
561.396	567.3
561.801	565.9
562.227	566.9
562.631	562.7
563.036	564.5
563.462	568.6
563.867	569.9
564.272	551.4
564.698	572.4
565.103	558.4
565.508	587.3
565.935	574.6
566.34	563.5
566.745	579.5
567.172	564
567.577	587.2
567.982	580.3
568.409	572.4
568.815	558.6
569.22	569.4
569.626	567.2
570.053	549.9
570.459	571.9
570.865	572
571.292	566
571.698	565.1
572.104	549.5
572.531	559.3
572.937	571.9
573.343	560.6
573.75	554.7
574.177	562.9
574.583	575.1
574.99	563.7
575.396	568.7
575.824	554.8
576.231	567.7
576.637	555.5
577.065	589.8
577.472	559
577.879	561
578.286	570
578.714	559.3
579.121	558.1
579.528	564.6
579.935	571
580.364	563
580.771	549.6
581.178	552.1
581.585	565.9
582.014	566.2
582.421	557.1
582.829	560.9
583.236	571.3
583.644	560.8
584.073	562.5
584.481	561.8
584.889	554.4
585.296	566.8
585.726	560.5
586.134	555.3
586.542	556.7
586.95	578.2
587.358	547.3
587.787	565
588.196	553.1
588.604	558.3
589.012	563.8
589.421	559.6
589.851	552.6
590.259	564
590.668	556.5
591.076	601.4
591.485	552.2
591.894	566.6
592.324	568.6
592.733	570.9
593.142	552.4
593.551	558.6
593.96	592.6
594.369	547.1
594.8	550
595.209	556.9
595.618	544.8
596.028	554.9
596.437	548.7
596.847	559.6
597.256	558.7
597.687	558.6
598.097	559.3
598.507	557.6
598.917	561
599.327	563.7
599.736	565.6
600.146	567.6
600.556	565.2
600.988	570.9
601.398	561.7
601.808	570.4
602.219	550.5
602.629	560.9
603.039	565
603.45	584.8
603.86	559.8
604.271	575.3
604.703	559.2
605.114	558.7
605.525	561.9
605.935	558.1
606.346	577.4
606.757	564.9
607.168	559.9
607.579	559.4
607.99	575.5
608.402	559.5
608.813	563.1
609.224	559.7
609.636	549.9
610.047	552.4
610.48	563.2
610.892	570.5
611.303	566.7
611.715	560.4
612.127	552
612.539	554.5
612.95	558.7
613.362	544.9
613.774	552
614.186	548.8
614.599	556.3
615.011	565.7
615.423	548.9
615.835	555
616.248	550.8
616.66	563.7
617.073	552.3
617.485	554.3
617.898	568.6
618.311	559.6
618.723	558.5
619.136	582
619.549	570.9
619.962	579
620.375	547.1
620.788	565.2
621.201	556.5
621.614	559.7
622.028	557.4
622.441	559.6
622.854	573.6
623.268	551.4
623.681	561.4
624.095	557.7
624.509	572.8
624.922	556.3
625.336	545.7
625.728	559.9
626.142	567.1
626.556	568.9
626.97	563.6
627.384	553
627.799	557.5
628.213	564.6
628.627	560.4
629.041	557.7
629.456	553.8
629.87	555.7
630.285	567.7
630.699	566
631.093	554.7
631.507	563.8
631.922	558.8
632.337	570.5
632.752	548.6
633.167	559.5
633.582	547
633.997	552.9
634.412	557.1
634.806	559.4
635.221	547.2
635.637	566.7
636.052	545.2
636.468	556.8
636.883	573.7
637.299	557.7
637.715	549.8
638.109	555.1
638.525	547.1
638.941	565.1
639.357	554.7
639.773	570.6
640.189	555.9
640.584	550.9
641	560.6
641.416	545.9
641.832	556.1
642.249	559.7
642.665	557.8
643.06	560.1
643.477	564.5
643.894	545.2
644.31	556.5
644.727	559.9
645.123	558.5
645.54	555
645.957	556.4
646.374	559.9
646.77	554.6
647.187	584.1
647.604	562
648.021	545.4
648.439	552.6
648.835	558
649.252	558.2
649.67	558.2
650.088	558.8
650.484	561.6
650.902	561
651.32	567.1
651.738	551.5
652.134	556.4
652.552	573.1
652.971	557.2
653.389	556.2
653.786	565.1
654.204	557.8
654.622	550.8
655.019	561.8
655.438	561.9
655.857	555
656.275	556.2
656.673	550.6
657.091	619.7
657.51	555.6
657.908	566.5
658.327	575.5
658.746	542
659.144	557.6
659.563	566.8
659.982	560.9
660.38	543.6
660.8	555.8
661.219	564.5
661.617	559
662.037	552.8
662.457	564.9
662.855	546
663.275	582
663.695	559.9
664.094	551.9
664.514	553.3
664.934	548.3
665.333	556.9
665.753	555
666.152	548.4
666.572	550.9
666.993	564.8
667.392	551.7
667.812	554.1
668.212	549.4
668.632	565.2
669.053	553.8
669.453	560
669.874	557.8
670.273	558.5
670.694	547.2
671.116	565.9
671.515	556.8
671.937	555.5
672.337	546.5
672.758	551.2
673.158	562.3
673.58	541.8
673.98	556.9
674.402	565
674.824	554.2
675.224	548.6
675.646	546.6
676.047	557.3
676.469	553.8
676.869	563.7
677.292	556.5
677.693	551
678.115	559.1
678.516	563.7
678.939	557.5
679.34	551.7
679.762	561.9
680.164	556.7
680.586	549.5
680.988	559.5
681.411	579.1
681.812	553.7
682.236	547.5
682.637	549.3
683.061	544
683.462	559.9
683.864	553
684.288	560.6
684.69	545.2
685.114	563
685.516	567.1
685.94	549.6
686.342	560.1
686.766	552.3
687.168	549.2
687.571	569.3
687.995	554.5
688.398	544
688.822	553.1
689.225	575.3
689.628	573.1
690.052	550.8
690.456	554.7
690.88	553.7
691.284	546.9
691.687	556.4
692.112	545.7
692.515	548.3
692.919	555.3
693.344	555.3
693.747	553.9
694.173	542.4
694.577	562.5
694.98	558
695.406	550.3
695.81	555.9
696.214	562
696.64	557.8
697.044	560.6
697.448	562.5
697.874	557.4
698.279	551.7
698.684	541.9
699.11	548.8
699.514	553.6
699.919	553.3
700.324	544.9
700.75	555.8
701.156	559.1
701.561	560.9
701.987	554.7
702.393	564.8
702.798	568.5
703.203	554.9
703.63	550.3
704.036	547.4
704.442	556.2
704.847	541.3
705.274	553.2
705.68	559.5
706.086	564.9
706.492	548.9
706.92	546.8
707.326	565.7
707.732	549.6
708.139	548.3
708.545	542.2
708.973	549.7
709.38	556.8
709.786	544.8
710.193	568.3
710.6	558.3
711.028	544.4
711.435	554.7
711.842	556.7
712.249	549.7
712.656	553.6
713.064	560.4
713.492	546.9
713.9	549.1
714.307	556.3
714.715	553.1
715.123	556.5
715.53	555.9
715.938	563.3
716.367	553.5
716.775	555
717.184	543.2
717.592	555.6
718	560.8
718.408	588.1
718.816	595.1
719.225	554.2
719.633	557.8
720.042	546.8
720.472	547.8
720.881	571.2
721.29	556
721.699	544.1
722.108	552.6
722.517	553.7
722.926	551.9
723.335	558.6
723.744	550.3
724.154	550.5
724.563	555.1
724.973	558.6
725.382	549.1
725.792	552.3
726.202	547.8
726.612	558.8
727.022	552
727.432	547.5
779.813	547
780.223	592.7
780.634	545.2
781.044	545.3
781.454	555.1
781.865	565
782.276	540.8
782.686	560.9
783.097	552.2
783.508	544.6
783.919	551
784.33	562.2
784.741	560.8
785.152	549.6
785.563	540.2
785.974	544.2
786.386	562.6
786.776	546
787.188	552.3
787.599	540
788.011	553.1
788.423	554.3
788.835	547
789.247	547.2
789.659	546.1
790.071	552.2
790.483	593.4
790.874	545.7
791.286	553.8
791.699	549.7
792.111	550.4
792.524	554.4
792.937	551.7
793.349	543.8
793.741	550
794.154	546.8
794.567	572.1
794.98	549.9
795.393	539.8
795.785	564.5
796.198	546.8
796.612	555.1
797.026	547.3
797.439	538
797.831	551.8
798.245	543.7
798.659	543.9
799.073	547.4
799.487	545.7
799.88	548.7
800.294	549.5
800.708	554
801.123	551.4
801.516	567.5
801.93	540.4
802.345	533.8
802.76	548
803.153	561.4
803.568	562.9
803.983	559.4
804.377	556.1
804.792	541
805.207	540.5
805.601	550.8
806.016	579.3
806.432	546.7
806.826	579.8
807.242	566.1
807.658	554.6
808.052	551.8
808.468	552.5
808.884	543.9
809.279	553.2
809.695	564.5
810.111	569.8
810.506	552.3
810.922	562.9
811.339	547.1
811.734	553.3
812.151	542.3
812.546	545
812.963	541.3
813.38	550.6
813.776	549.4
814.193	570.5
814.589	541.4
815.006	541.5
815.402	545.3
815.82	543.9
816.237	543
816.633	550.5
817.051	540.7
817.448	552.9
817.866	537
818.262	572.8
818.68	544.1
819.077	545.1
819.495	553.3
819.892	586.3
820.311	539.8
820.708	545.9
821.127	544.5
821.524	561.1
821.943	553.8
822.34	566.7
822.759	548
823.157	551.1
823.576	566.7
823.974	559.6
824.393	559.9
824.791	543.9
825.189	537.4
825.609	547.3
826.007	548.9
826.427	535.3
826.826	546.7
827.246	553.6
827.644	530.4
828.043	559.7
828.463	542.6
828.862	559.1
829.261	554.4
829.682	536.5
830.081	558.3
830.502	542.5
830.901	550.7
831.301	544.5
831.722	543.3
832.121	552
832.521	542.5
832.943	551.3
833.342	544
833.742	543.1
834.164	544.9
834.564	543.5
834.965	552.3
835.386	548.4
835.787	540.7
836.188	546.6
836.588	547.8
837.01	553.7
837.411	539
837.812	550.2
838.213	550.9
838.636	541.7
839.037	612.1
839.438	554.1
839.84	555.2
840.263	554.3
840.664	553.6
841.066	549.6
841.468	549.9
841.891	544.4
842.293	555.8
842.695	555.6
843.098	559.9
843.5	546.1
843.902	550.6
844.326	550.2
844.729	548.2
845.131	559.5
845.534	550.4
845.937	561.3
846.34	563.8
846.764	538.2
847.167	551
847.571	544.6
847.974	550.6
848.377	548.5
848.781	590.2
