#lambda/nm	C1
208.295	482.3
208.67	443.5
209.045	406
209.419	415.1
209.794	592
210.169	568.7
210.544	686.6
210.919	591.8
211.295	573.1
211.67	584.8
212.045	584.2
212.421	580
212.796	618
213.172	574.9
213.547	577.4
213.923	575.2
214.299	575.3
214.675	592.4
215.051	584.9
215.427	584.8
215.803	603.1
216.179	588.3
216.555	580.1
216.932	587.8
217.308	581.9
217.684	586.9
218.061	588.9
218.438	587
218.814	581.3
219.191	591.6
219.568	577.2
219.945	577.5
220.322	585.7
220.699	582.9
221.076	592.1
221.453	588.4
221.83	577.1
222.208	575.2
222.585	576.8
222.962	582.2
223.34	588.6
223.717	584.4
224.095	580.5
224.473	586.8
224.851	574.1
225.229	573.1
225.607	596.8
225.985	569.7
226.363	580.8
226.741	582.1
227.119	579.5
227.497	595.3
227.876	567.6
228.254	591
228.633	589
229.011	586.1
229.39	588.7
229.769	587.4
230.148	590.4
230.527	600.5
230.905	587.4
231.284	586.1
231.664	579.7
232.043	592.4
232.422	586.5
232.801	576.8
233.181	591.4
233.56	585.9
233.94	583.7
234.319	568.7
234.699	574.7
235.079	618.5
235.458	617.9
235.838	598.5
236.218	571.1
236.598	573.5
236.978	576.4
237.358	580.1
237.738	573.6
238.119	586
238.499	571.1
238.88	580.8
239.26	593.8
239.641	571.3
240.021	579.1
240.402	580
240.783	583.2
241.163	575.2
241.544	594.1
241.925	584.9
242.306	599.7
242.687	578.3
243.069	585.6
243.45	586.8
243.831	574.8
244.212	579.3
244.594	614.8
244.975	590.7
245.357	587
245.739	580.7
246.12	587.1
246.502	596.1
246.884	583.4
247.266	580.9
247.648	583.3
248.03	608.2
248.412	587.2
248.794	587.8
249.176	573.4
249.559	596.7
249.941	577.7
250.323	575.4
250.706	572.2
251.089	583.6
251.471	591.2
251.854	587.8
252.237	581.5
252.62	596.5
253.002	583.2
253.385	583.1
253.769	595.3
254.152	586.3
254.535	591
254.918	576.7
255.301	581.7
255.685	582.5
256.068	575.5
256.452	608.9
256.835	587.2
257.219	591.2
257.603	593.7
257.986	577.1
258.37	587.9
258.754	574.4
259.138	589.2
259.522	596.6
259.906	580.3
260.29	588.7
260.675	581
261.059	583.7
261.443	574.6
261.828	593.8
262.212	586.8
262.597	570.4
262.981	581.9
263.366	588.9
263.751	585.7
264.136	581
264.521	580
264.906	574.4
265.291	591.5
265.676	582.1
266.061	594.3
266.446	603.1
266.831	584.7
267.217	598.9
267.602	582.9
267.987	588.4
268.373	578.1
268.759	586.9
269.144	590.5
269.53	583.8
269.916	583
270.302	577.9
270.688	584.7
271.074	581.7
271.46	588.9
271.846	611
272.232	580.2
272.618	579.1
273.004	585.7
273.391	591.7
273.777	595.4
274.164	585.8
274.55	599.8
274.937	587.4
275.324	583.4
275.71	596
276.097	591.3
276.484	578.4
276.871	590.3
277.258	591.2
277.645	570.1
278.032	581.7
278.419	589.4
278.807	593
279.194	582.5
279.581	582.6
279.969	583.4
280.356	593.2
280.744	588.2
281.131	606.9
281.519	599.5
281.907	580.8
282.295	580
282.682	591.9
283.07	587.1
283.458	598
283.846	590.1
284.235	595.5
284.623	594.4
285.011	577
285.399	583.9
285.788	582.3
286.176	576.8
286.565	596.6
286.953	578.9
287.342	584.5
287.731	577.4
288.119	576.3
288.508	581
288.897	586.4
289.286	575.2
289.675	584.4
290.064	597.1
290.453	584.1
290.821	585.2
291.21	602.3
291.599	576.7
291.989	584.5
292.378	595.5
292.768	607.4
293.157	593.5
293.547	596.3
293.936	580.5
294.326	573.8
294.716	587.6
295.106	584
295.496	591.7
295.886	590.9
296.276	584.5
296.666	579.5
297.056	575.6
297.446	576.2
297.836	605.5
298.227	580
298.617	584.6
299.008	595.9
299.398	586.4
299.789	576.9
300.179	592.1
300.57	596.9
300.961	582.4
301.352	576.7
301.742	595.9
302.133	588.5
302.524	582.4
302.915	590.3
303.307	575.8
303.698	592.6
304.089	591.7
304.48	589.6
304.872	596.5
305.263	587.1
305.655	584.6
306.046	588.7
306.438	589.8
306.829	584.5
307.221	599.4
307.613	588.2
308.005	596.1
308.397	599.9
308.789	610
309.181	608
309.573	606.1
309.965	593.5
310.357	580.1
310.749	588
311.142	576.6
311.534	584.7
311.926	594
312.319	587.1
312.711	575.9
313.104	599.7
313.497	583
313.889	618.1
314.282	600.6
314.675	606
315.068	586.5
315.461	590.9
315.854	610.4
316.247	590.3
316.64	590
317.033	589.8
317.405	592.9
317.798	584.3
318.192	587.6
318.585	581.2
318.979	589.7
319.372	583.4
319.766	581.5
320.16	593.1
320.553	605.1
320.947	599.1
321.341	583.1
321.735	583
322.129	573.5
322.523	607.3
322.917	580
323.311	598.8
323.705	589
324.099	590.2
324.494	593.1
324.888	587.3
325.282	582.6
325.677	584.8
326.071	590.7
326.466	599.9
326.861	583.6
327.255	595.4
327.65	596.9
328.045	599.7
328.44	582.4
328.835	578.9
329.23	576.8
329.625	609.5
330.02	579.7
330.415	603.8
330.81	587.8
331.206	588.4
331.601	581.9
331.996	593.6
332.37	594
332.766	576.6
333.161	600
333.557	584.7
333.953	578.7
334.348	947.8
334.744	587.7
335.14	583.5
335.536	578.9
335.932	596.2
336.328	589.3
336.724	594.9
337.12	584.8
337.516	586.8
337.913	587.5
338.309	592.3
338.705	590.3
339.102	593.7
339.498	581.1
339.895	601.3
340.291	580.7
340.688	594.4
341.085	576.3
341.481	587.2
341.878	581.3
342.275	597.6
342.672	578.3
343.069	582.7
343.466	573.8
343.842	595.2
344.239	578.3
344.636	587.3
345.033	577.5
345.431	574.4
345.828	584.3
346.225	580.5
346.623	588.7
347.02	585.4
347.418	593.5
347.816	597.6
348.213	574.2
348.611	592.1
349.009	577.3
349.407	590.4
349.805	577.7
350.203	573.3
350.601	599.2
350.999	577
351.397	575.6
351.795	584.2
352.193	592
352.57	591.7
352.969	592.8
353.367	575.9
353.766	572.8
354.164	582.9
354.563	590.9
354.961	581.1
355.36	580.8
355.759	584.8
356.158	570.5
356.557	575.6
356.956	572.7
357.355	574.5
357.754	586.4
358.153	590.6
358.552	603.7
358.951	578.4
359.35	586.5
359.75	578.2
360.149	576.8
360.527	570.6
360.926	570.9
361.326	582.6
361.726	580.1
362.125	574.3
362.525	587
362.925	579.9
363.325	582.8
363.724	580.4
364.124	575.3
364.524	572
364.924	574.5
365.324	590.6
365.725	567.3
366.125	581.9
366.525	573.4
366.904	568.6
367.304	567.2
367.705	596.6
368.105	585.7
368.506	576.3
368.906	579.7
369.307	572.1
369.708	583
370.108	572.4
370.509	588.4
370.91	572.8
371.311	579.3
371.712	586.8
372.113	579
372.514	565.3
372.894	576.1
373.295	576
373.696	585.6
374.097	588.8
374.499	610.6
374.9	581.1
375.301	575.1
375.703	578.2
376.105	569.6
376.506	580.1
376.908	579.4
377.309	574.5
377.711	579.9
378.113	577.8
378.493	580.5
378.895	572.6
379.297	580.1
379.699	571.3
380.102	582
380.504	578.1
380.906	568
381.308	601.6
381.71	581.4
382.113	590.9
382.515	574
382.918	582.5
383.299	574.9
383.701	589.2
384.104	578.1
384.507	558.5
384.909	579.3
385.312	568.8
385.715	565
386.118	577.9
386.521	566.3
386.924	587.9
387.327	569.1
387.709	559.3
388.112	563.2
388.515	571.4
388.918	579.9
389.322	579.6
389.725	569.6
390.129	601.3
390.532	584.8
390.936	576.8
391.339	570.1
391.743	578.5
392.125	571.6
392.529	585.2
392.933	588.8
393.337	580.6
393.74	577.3
394.144	577.4
394.548	567.5
394.953	573.2
395.357	583.4
395.761	578.1
396.144	576.6
396.548	584.1
396.952	579.4
397.357	580.1
397.761	576.2
398.166	576.9
398.57	578.1
398.975	571.9
399.379	584.8
399.763	623.1
400.168	582.3
400.572	570.8
400.977	570.2
401.382	596.7
401.787	588.4
402.192	594.2
402.597	592.1
403.002	571.5
403.386	592.3
403.791	596.6
404.197	569.4
404.602	573
405.007	576.5
405.413	575.7
405.818	567.8
406.224	563.9
406.608	573.3
407.014	568.9
407.42	597.1
407.825	575.5
408.231	584
408.637	574.2
409.043	587.2
409.449	571.2
409.834	567.1
410.24	575.6
410.646	588.3
411.052	588
411.458	584.6
411.865	585
412.271	587.2
412.677	578.6
413.062	582.1
413.469	565.4
413.875	603
414.282	588.8
414.689	581.6
415.095	583.8
415.502	573.4
415.888	573.4
416.294	563.7
416.701	614.8
417.108	566.3
417.515	581.9
417.923	573.1
418.33	599.3
418.715	578.8
419.123	580
419.53	571.1
419.937	581.6
420.345	593
420.752	578.7
421.16	589
421.546	574.6
421.953	584.4
422.361	569.2
422.769	578.1
423.177	569.7
423.585	596.6
423.992	594.8
424.379	589
424.787	582.9
425.195	592.7
425.603	577.3
426.011	588.5
426.419	593.4
426.806	580.5
427.214	582.2
427.623	587.8
428.031	596.9
428.44	583
428.848	593.7
429.235	601.5
429.644	589.7
430.053	595.5
430.461	612.4
430.87	623.3
431.279	614.6
431.666	603.5
432.075	617
432.484	634
432.893	640
433.302	661.9
433.711	698.4
434.099	673.7
434.508	690.1
434.918	697.6
435.327	726.8
435.737	740
436.125	763
436.534	777.5
436.944	804.9
437.353	819.4
437.763	858.8
438.173	860.6
438.561	899.6
438.971	892.3
439.381	928.7
439.791	950.6
440.201	957.5
440.589	992.1
440.999	1017
441.409	1024.6
441.819	1034.7
442.23	1071
442.619	1098.3
443.029	1124.2
443.439	1131.4
443.85	1166.2
444.26	1181.5
444.649	1184
445.06	1174.9
445.471	1178.4
445.881	1209.7
446.292	1240.2
446.682	1266.8
447.092	1254.1
447.503	1317.2
447.914	1276.3
448.325	1285.2
448.715	1295.1
449.126	1304.3
449.537	1314.2
449.948	1312.1
450.338	1322.2
450.75	1329
451.161	1335.2
451.572	1358.6
451.984	1358.3
452.374	1339.2
452.786	1366.9
453.197	1377.1
453.609	1399.9
453.999	1373.8
454.411	1384.1
454.823	1406.8
455.235	1411.8
455.647	1399.6
456.037	1409.3
456.449	1396.2
456.862	1409.6
457.274	1416.9
457.665	1410.7
458.077	1426.3
458.489	1437.7
458.902	1425.4
459.293	1420.6
459.705	1417.1
460.118	1416.8
460.53	1431.9
460.921	1417.3
461.334	1420.8
461.747	1406.3
462.16	1431.9
462.551	1423.4
462.964	1422.5
463.377	1404.5
463.79	1409.7
464.182	1418.3
464.595	1402
465.008	1408.7
465.421	1410.3
465.813	1389.8
466.226	1398.1
466.64	1394.8
467.053	1430.6
467.445	1394.2
467.859	1383.4
468.272	1385.1
468.686	1402.8
469.078	1398.1
469.492	1386.9
469.906	1391.2
470.298	1385.5
470.712	1369.7
471.126	1409.8
471.54	1361.1
471.933	1365.7
472.347	1352.3
472.761	1349
473.175	1341.5
473.568	1355.7
473.982	1353.3
474.397	1350.2
474.79	1351.9
475.204	1333.5
475.619	1339.8
476.033	1343.1
476.426	1345
476.841	1320.9
477.256	1343
477.649	1316.7
478.064	1311.9
478.479	1305.4
478.872	1296.7
479.287	1298.2
479.702	1295.9
480.118	1296.3
480.511	1292.6
480.927	1275.6
481.342	1287.6
481.736	1284.7
482.151	1265.6
482.566	1291
482.96	1276.8
483.376	1292.6
483.792	1269.4
484.186	1265.3
484.602	1259.8
485.017	1254.7
485.412	1253.7
485.827	1261
486.243	1248.4
486.638	1266.4
487.054	1245.1
487.47	1254.5
487.865	1227.3
488.281	1222.7
488.697	1221.6
489.092	1222.1
489.508	1207.4
489.925	1200.2
490.32	1195.6
490.736	1203.2
491.153	1189.9
491.548	1187.3
491.964	1194
492.381	1172.5
492.776	1170.5
493.193	1160.7
493.61	1162.3
494.006	1154.5
494.422	1167.1
494.84	1139.8
495.235	1145.6
495.652	1143
496.069	1141.7
496.465	1127.6
496.883	1115.9
497.3	1154.2
497.696	1110.4
498.113	1109.9
498.509	1092.7
498.927	1089.7
499.344	1084.4
499.741	1082.3
500.158	1096.7
500.576	1097.1
500.973	1072.6
501.39	1065.1
501.787	1060.3
502.205	1065.1
502.623	1050.1
503.02	1040.3
503.438	1038.2
503.856	1036.2
504.253	1036.4
504.671	1032.1
505.068	1025.2
505.486	1019.3
505.905	1035.6
506.302	1018.3
506.72	1026.3
507.118	1004.1
507.536	1001.8
507.955	1003.9
508.352	996.9
508.771	1008.2
509.169	998.1
509.587	979.1
510.006	987.9
510.404	973.9
510.823	969.5
511.221	969.9
511.64	958.3
512.038	969.3
512.457	958.1
512.877	960.4
513.275	930.5
513.694	936.8
514.092	928.1
514.512	938.4
514.91	928.2
515.33	929.2
515.749	924.7
516.148	922.1
516.568	923.7
516.966	920.3
517.386	910.8
517.785	906.1
518.205	895.2
518.603	891
519.024	884.7
519.444	892.6
519.843	893.2
520.263	881.4
520.662	878.8
521.082	868.7
521.481	874.5
521.902	869.8
522.301	870.9
522.722	870.2
523.121	861.4
523.542	857.2
523.963	861.1
524.362	852.4
524.783	847.1
525.183	837.9
525.604	835.7
526.003	822.1
526.425	826.2
526.824	837.2
527.246	832.2
527.646	831.1
528.067	822.5
528.467	830.3
528.888	819.4
529.289	818.5
529.71	809.2
530.11	809.5
530.532	803.6
530.932	792.3
531.354	788.7
531.755	819.6
532.176	801.3
532.577	783.2
532.999	780.7
533.4	781.8
533.822	788.5
534.223	777.1
534.645	778.7
535.046	771
535.468	775
535.869	784.7
536.292	764.6
536.693	767.9
537.115	767.9
537.516	759.3
537.939	761.8
538.34	780.7
538.742	772.5
539.165	764.4
539.566	753.8
539.989	752.9
540.391	752.3
540.814	757.8
541.216	758
541.639	751.2
542.041	748.5
542.464	740.8
542.866	740.1
543.268	736.8
543.691	743.6
544.093	747
544.517	756.4
544.919	723.7
545.343	754.5
545.745	721.9
546.147	728.3
546.571	720.7
546.974	716.7
547.398	721.8
547.8	730.9
548.224	723.4
548.627	708.1
549.03	722
549.454	714.2
549.857	704.8
550.281	701.6
550.684	706.9
551.087	721.4
551.512	711.2
551.915	711.4
552.34	701.2
552.743	698
553.146	698.5
553.571	697.2
553.975	715.2
554.399	689.3
554.803	743.6
555.207	693.1
555.632	674.1
556.036	688.1
556.461	671.5
556.865	685
557.268	674.1
557.694	685.3
558.098	684.8
558.502	685.4
558.927	670.4
559.332	671.5
559.736	674.4
560.162	681.4
560.566	671.6
560.992	674.3
561.396	674.1
561.801	663.5
562.227	666.4
562.631	670.2
563.036	666
563.462	670.3
563.867	664.3
564.272	652.3
564.698	661.7
565.103	640.4
565.508	674
565.935	661.9
566.34	650.6
566.745	666.8
567.172	650.6
567.577	671.5
567.982	662.1
568.409	650.1
568.815	644.1
569.22	643.6
569.626	658.5
570.053	636.2
570.459	646.4
570.865	643.7
571.292	644.4
571.698	645.3
572.104	627.3
572.531	630
572.937	652.5
573.343	636.8
573.75	631.9
574.177	632.5
574.583	640.9
574.99	636.3
575.396	635.2
575.824	627.8
576.231	639
576.637	626.2
577.065	655.9
577.472	624.7
577.879	626.6
578.286	643.6
578.714	620.6
579.121	625.9
579.528	629.3
579.935	632.8
580.364	622.5
580.771	610
581.178	618.3
581.585	617.3
582.014	629.6
582.421	617.8
582.829	614.1
583.236	627.5
583.644	611.7
584.073	616.1
584.481	614.5
584.889	611.8
585.296	619.6
585.726	619.1
586.134	614.9
586.542	608.3
586.95	626.5
587.358	599.6
587.787	614.2
588.196	600.9
588.604	605.2
589.012	607.2
589.421	602.2
589.851	598.8
590.259	609.2
590.668	596
591.076	636.6
591.485	602.2
591.894	604.2
592.324	616
592.733	616.4
593.142	587.2
593.551	603.8
593.96	609.3
594.369	589.9
594.8	593.1
595.209	599.4
595.618	581.7
596.028	591
596.437	583
596.847	591.9
597.256	605.5
597.687	598.9
598.097	590.4
598.507	586.2
598.917	595.9
599.327	596.6
599.736	588.2
600.146	597.3
600.556	590
600.988	601.6
601.398	586.3
601.808	602.4
602.219	574.8
602.629	591.1
603.039	589.5
603.45	605.2
603.86	586
604.271	598.6
604.703	586.3
605.114	584.4
605.525	583.4
605.935	587.9
606.346	609.3
606.757	584.7
607.168	583.3
607.579	572.6
607.99	586.5
608.402	581.7
608.813	587.3
609.224	576.6
609.636	566.9
610.047	574.5
610.48	578.9
610.892	583.1
611.303	586.8
611.715	579.9
612.127	572.9
612.539	578
612.95	581
613.362	570.1
613.774	560.5
614.186	568.9
614.599	571.8
615.011	586.5
615.423	572.5
615.835	569.9
616.248	565.2
616.66	585.7
617.073	571.8
617.485	577
617.898	581.9
618.311	579.2
618.723	573.9
619.136	604.5
619.549	590.3
619.962	599.3
620.375	575.6
620.788	579.8
621.201	573.9
621.614	583.9
622.028	579.9
622.441	579.9
622.854	590.6
623.268	570.3
623.681	579.8
624.095	578.3
624.509	582.1
624.922	581
625.336	561.1
625.728	580.3
626.142	584.9
626.556	594.8
626.97	581
627.384	577.6
627.799	573.2
628.213	582.7
628.627	570.2
629.041	572.6
629.456	571.2
629.87	572.2
630.285	579.4
630.699	578.5
631.093	572.9
631.507	575.4
631.922	577.6
632.337	582.5
632.752	564.6
633.167	567.6
633.582	574.1
633.997	566.1
634.412	567.9
634.806	573.5
635.221	563.1
635.637	581.3
636.052	560.2
636.468	569.2
636.883	586.9
637.299	572.1
637.715	562.1
638.109	565.8
638.525	562.1
638.941	586
639.357	581.6
639.773	573.3
640.189	561
640.584	567.5
641	564.9
641.416	554.7
641.832	564.2
642.249	567.2
642.665	563.1
643.06	576.3
643.477	578.2
643.894	556.2
644.31	564.4
644.727	568.8
645.123	569.1
645.54	560.8
645.957	564.1
646.374	572.6
646.77	568.2
647.187	597.6
647.604	568.6
648.021	555.6
648.439	555.9
648.835	569.3
649.252	569.7
649.67	560.2
650.088	566.6
650.484	565
650.902	567.9
651.32	574.4
651.738	559.6
652.134	567.5
652.552	579.9
652.971	571.9
653.389	569.9
653.786	578.1
654.204	564.7
654.622	564
655.019	562.8
655.438	569
655.857	564.4
656.275	564.6
656.673	561.2
657.091	631.6
657.51	560.6
657.908	574
658.327	578.5
658.746	556
659.144	563.4
659.563	573
659.982	565.6
660.38	556.8
660.8	565.5
661.219	573.8
661.617	570
662.037	569.3
662.457	582
662.855	555.4
663.275	594.7
663.695	562.2
664.094	563.6
664.514	566.8
664.934	553.6
665.333	570.2
665.753	561.2
666.152	556.1
666.572	556.5
666.993	575.7
667.392	562.4
667.812	556
668.212	559.5
668.632	574.8
669.053	560.5
669.453	570.8
669.874	566.2
670.273	561.2
670.694	556.4
671.116	577.1
671.515	570.7
671.937	560
672.337	555.1
672.758	562.8
673.158	566.7
673.58	555.2
673.98	563.1
674.402	572.7
674.824	563.5
675.224	553.1
675.646	553
676.047	556.1
676.469	563.5
676.869	569.8
677.292	564.9
677.693	559.1
678.115	558.1
678.516	561.2
678.939	567.3
679.34	554.7
679.762	577.1
680.164	565.9
680.586	554
680.988	568
681.411	583.3
681.812	557.5
682.236	559.8
682.637	549.6
683.061	549.7
683.462	564.4
683.864	558.1
684.288	565.4
684.69	552.4
685.114	566.4
685.516	568.3
685.94	554.1
686.342	565.9
686.766	554.4
687.168	554.5
687.571	575.6
687.995	556.9
688.398	549.9
688.822	559.1
689.225	575.6
689.628	573.7
690.052	557.1
690.456	563
690.88	556.9
691.284	549.9
691.687	562.9
692.112	554.3
692.515	547.8
692.919	558.5
693.344	562.5
693.747	556.7
694.173	554.2
694.577	567.2
694.98	560.8
695.406	554.2
695.81	559.3
696.214	564.2
696.64	562.6
697.044	561.8
697.448	564.1
697.874	557.4
698.279	557.4
698.684	547.1
699.11	548.4
699.514	552.5
699.919	558.3
700.324	550.4
700.75	561.3
701.156	555.4
701.561	565.9
701.987	562.4
702.393	559.1
702.798	562.1
703.203	553.3
703.63	548.1
704.036	551.9
704.442	558.7
704.847	551.2
705.274	553.5
705.68	555.9
706.086	560.4
706.492	543.7
706.92	553.6
707.326	560.7
707.732	547.6
708.139	548.3
708.545	543.7
708.973	549.2
709.38	555.5
709.786	547.2
710.193	564.5
710.6	553.7
711.028	549.1
711.435	551.4
711.842	557.3
712.249	550.6
712.656	557.8
713.064	562.7
713.492	547.3
713.9	546.6
714.307	561.2
714.715	560.2
715.123	561.6
715.53	554.4
715.938	566.8
716.367	548.5
716.775	551.2
717.184	550.3
717.592	555.3
718	565.1
718.408	588.1
718.816	596.6
719.225	561.8
719.633	554.8
720.042	555.1
720.472	552.8
720.881	570.3
721.29	562.7
721.699	549.3
722.108	555
722.517	557.1
722.926	551.4
723.335	563.3
723.744	557.5
724.154	554.7
724.563	558.6
724.973	554.1
725.382	554.4
725.792	555.8
726.202	549.3
726.612	563.1
727.022	552.8
727.432	553.4
779.813	550
780.223	599.9
780.634	555.2
781.044	551.6
781.454	550.5
781.865	573.1
782.276	549.7
782.686	567.1
783.097	560.1
783.508	556.8
783.919	560.5
784.33	570.4
784.741	566.6
785.152	545.8
785.563	540.3
785.974	545.3
786.386	567.6
786.776	548.9
787.188	551.2
787.599	547.2
788.011	566.3
788.423	557.3
788.835	552.4
789.247	545
789.659	550.8
790.071	547.5
790.483	596.8
790.874	548.2
791.286	560.3
791.699	546.4
792.111	553.6
792.524	555.9
792.937	559
793.349	546
793.741	547.9
794.154	555.3
794.567	571.7
794.98	550.3
795.393	540.5
795.785	570.6
796.198	544.9
796.612	550.9
797.026	550.7
797.439	540
797.831	549.5
798.245	544
798.659	550.7
799.073	550.7
799.487	549.8
799.88	555.3
800.294	549.9
800.708	560.3
801.123	552.5
801.516	569.4
801.93	542.1
802.345	542.6
802.76	555.6
803.153	562.1
803.568	566.3
803.983	566.9
804.377	560.4
804.792	543
805.207	540
805.601	554.3
806.016	588.7
806.432	549.1
806.826	580.7
807.242	566.6
807.658	561.6
808.052	551.1
808.468	553.6
808.884	549
809.279	556.9
809.695	563.5
810.111	571.3
810.506	558.8
810.922	572.9
811.339	553.7
811.734	563.6
812.151	548.4
812.546	550.9
812.963	546.2
813.38	551.9
813.776	559.6
814.193	574.8
814.589	546.8
815.006	549.1
815.402	542
815.82	552.1
816.237	552.4
816.633	559.3
817.051	548.8
817.448	558.5
817.866	547.4
818.262	573.2
818.68	551.1
819.077	547.2
819.495	553.6
819.892	592.1
820.311	543.3
820.708	551.6
821.127	549.2
821.524	563.2
821.943	559.4
822.34	568.7
822.759	558.9
823.157	557.3
823.576	568.4
823.974	562.9
824.393	564.5
824.791	550.1
825.189	547.9
825.609	552.5
826.007	546.7
826.427	539.3
826.826	543
827.246	552.3
827.644	543.9
828.043	561.4
828.463	548.9
828.862	561.9
829.261	560.7
829.682	537.7
830.081	554.7
830.502	550.5
830.901	555.7
831.301	541.8
831.722	542.9
832.121	547.3
832.521	549.9
832.943	548.5
833.342	551.9
833.742	539.6
834.164	551.8
834.564	540.7
834.965	552
835.386	543
835.787	550.6
836.188	553.4
836.588	553.3
837.01	552.8
837.411	549.7
837.812	552.6
838.213	551.2
838.636	544.5
839.037	618.1
839.438	556.1
839.84	555.1
840.263	556.9
840.664	554.3
841.066	551.8
841.468	556
841.891	542.2
