#lambda/nm	C1
208.295	482.1
208.67	446.6
209.045	409
209.419	413.5
209.794	589.9
210.169	571.8
210.544	688
210.919	589.4
211.295	574.9
211.67	586.8
212.045	579.7
212.421	585.1
212.796	619
213.172	578.8
213.547	576.8
213.923	578.6
214.299	577.2
214.675	591
215.051	588.6
215.427	589.8
215.803	598.7
216.179	593.6
216.555	577.9
216.932	593.8
217.308	586.4
217.684	581.4
218.061	589
218.438	586.5
218.814	577.4
219.191	590.4
219.568	576.6
219.945	579.4
220.322	588.9
220.699	588.2
221.076	594.2
221.453	588.9
221.83	578.6
222.208	584.5
222.585	580.7
222.962	585.5
223.34	589.6
223.717	584.5
224.095	584
224.473	586.6
224.851	576.7
225.229	575.5
225.607	592.2
225.985	575.8
226.363	586.3
226.741	586.6
227.119	581.4
227.497	593.5
227.876	568.4
228.254	586.9
228.633	590.2
229.011	584.8
229.39	584.4
229.769	586.7
230.148	591
230.527	597.9
230.905	592.9
231.284	588.7
231.664	579.8
232.043	593.2
232.422	588.1
232.801	579.7
233.181	588.2
233.56	576.8
233.94	582.9
234.319	576.1
234.699	584.8
235.079	623.3
235.458	618.3
235.838	602.7
236.218	581.6
236.598	573.5
236.978	579.8
237.358	584
237.738	579.4
238.119	594.7
238.499	577.2
238.88	586.3
239.26	598.4
239.641	576.2
240.021	581.4
240.402	584.7
240.783	583.4
241.163	583.4
241.544	588.9
241.925	589
242.306	595.5
242.687	581.5
243.069	586.7
243.45	586.4
243.831	574.7
244.212	578.5
244.594	623.7
244.975	585.8
245.357	586.2
245.739	578.7
246.12	586.1
246.502	598.1
246.884	584.8
247.266	579.7
247.648	584.6
248.03	602.1
248.412	588.9
248.794	587.5
249.176	574.7
249.559	593.1
249.941	583.3
250.323	573.4
250.706	575.3
251.089	586.9
251.471	588.3
251.854	581.6
252.237	582.9
252.62	590
253.002	583.6
253.385	585.3
253.769	600.4
254.152	583.6
254.535	586.1
254.918	576.4
255.301	582.2
255.685	580.5
256.068	576.4
256.452	609.1
256.835	586.6
257.219	586.5
257.603	596.8
257.986	575.6
258.37	590.3
258.754	577.1
259.138	587.3
259.522	595.1
259.906	580.6
260.29	588.5
260.675	583.1
261.059	587.7
261.443	573.2
261.828	589
262.212	593.5
262.597	579.6
262.981	581.2
263.366	594.3
263.751	588.1
264.136	581.9
264.521	582.4
264.906	582.2
265.291	597
265.676	580
266.061	595.5
266.446	600
266.831	589.1
267.217	606.7
267.602	587.4
267.987	593.9
268.373	584.2
268.759	592.4
269.144	588.8
269.53	586.1
269.916	579.9
270.302	580.6
270.688	590.5
271.074	586.8
271.46	595.6
271.846	616
272.232	585.3
272.618	577.1
273.004	581.8
273.391	590.5
273.777	598.5
274.164	587
274.55	595.8
274.937	593.5
275.324	582
275.71	588.6
276.097	592.7
276.484	582
276.871	586.4
277.258	589.7
277.645	575.3
278.032	585.5
278.419	585.9
278.807	584.8
279.194	582.1
279.581	574.2
279.969	584.8
280.356	588.5
280.744	588.8
281.131	602.2
281.519	595.7
281.907	579.4
282.295	583.9
282.682	594.1
283.07	581.3
283.458	589
283.846	592.5
284.235	599.6
284.623	597
285.011	585.6
285.399	586.4
285.788	583.7
286.176	574.7
286.565	594.4
286.953	580.5
287.342	579
287.731	576.6
288.119	576.6
288.508	582.9
288.897	584.5
289.286	572.1
289.675	584.2
290.064	589.1
290.453	581.3
290.821	585
291.21	602.3
291.599	582.7
291.989	588.6
292.378	592.1
292.768	606.1
293.157	593.5
293.547	594.2
293.936	580.5
294.326	579.3
294.716	591.4
295.106	583.5
295.496	592.8
295.886	590.2
296.276	578.7
296.666	583
297.056	579.8
297.446	573.3
297.836	598.4
298.227	576
298.617	584.9
299.008	597.1
299.398	582.8
299.789	586.5
300.179	582.2
300.57	595.9
300.961	579.1
301.352	577
301.742	590.9
302.133	584.9
302.524	585.3
302.915	585.4
303.307	577.2
303.698	592.6
304.089	586.2
304.48	584.1
304.872	596.6
305.263	586.4
305.655	584
306.046	593.3
306.438	588.2
306.829	584.5
307.221	601.4
307.613	593.4
308.005	596.8
308.397	596.7
308.789	608.8
309.181	610.1
309.573	604.2
309.965	601.4
310.357	584
310.749	592.2
311.142	583.8
311.534	581.8
311.926	589.9
312.319	595.5
312.711	583.6
313.104	595.4
313.497	588.2
313.889	624.9
314.282	597
314.675	611.3
315.068	583.4
315.461	596
315.854	617.9
316.247	590.1
316.64	586.9
317.033	586.8
317.405	589
317.798	591.6
318.192	589.2
318.585	579.4
318.979	592
319.372	579.5
319.766	584.3
320.16	592.6
320.553	599.7
320.947	602.5
321.341	582.8
321.735	587.5
322.129	574.4
322.523	612.7
322.917	575.7
323.311	601.7
323.705	591.7
324.099	595.1
324.494	601.5
324.888	601.1
325.282	585
325.677	589.3
326.071	594
326.466	595.1
326.861	589.8
327.255	596.2
327.65	596.1
328.045	600.7
328.44	593.8
328.835	588.3
329.23	579.5
329.625	612.7
330.02	583.9
330.415	603.6
330.81	589.4
331.206	585.6
331.601	585.6
331.996	588.5
332.37	598.8
332.766	583.1
333.161	607.7
333.557	577.8
333.953	587
334.348	866.9
334.744	587.1
335.14	582.6
335.536	578.7
335.932	599.4
336.328	588.2
336.724	594.2
337.12	581.8
337.516	588.4
337.913	586.2
338.309	596.9
338.705	590.4
339.102	599.8
339.498	582.9
339.895	600.9
340.291	579.4
340.688	599.7
341.085	580.4
341.481	581
341.878	584.1
342.275	601.5
342.672	575.8
343.069	581.4
343.466	574.7
343.842	598.9
344.239	577.3
344.636	581.4
345.033	575.7
345.431	579.8
345.828	585
346.225	582.4
346.623	590.9
347.02	589.5
347.418	588.2
347.816	595.3
348.213	579
348.611	589.6
349.009	578.4
349.407	594.5
349.805	577.3
350.203	579.5
350.601	593.4
350.999	576.6
351.397	577.8
351.795	586
352.193	586.3
352.57	590.2
352.969	592.2
353.367	582.7
353.766	577.2
354.164	583.8
354.563	594.2
354.961	582.5
355.36	579.9
355.759	581.3
356.158	577.7
356.557	575.2
356.956	575.8
357.355	567.4
357.754	586.6
358.153	588.9
358.552	606
358.951	578.7
359.35	591
359.75	575
360.149	568.9
360.527	571.7
360.926	577
361.326	583.3
361.726	582.1
362.125	576.7
362.525	590.2
362.925	579.2
363.325	580.1
363.724	587.2
364.124	575.8
364.524	575.9
364.924	583.1
365.324	591.9
365.725	570.6
366.125	583.8
366.525	585.4
366.904	575.6
367.304	563.4
367.705	592.7
368.105	595.4
368.506	575.5
368.906	574.7
369.307	581.1
369.708	583.7
370.108	563
370.509	591.8
370.91	574.7
371.311	584.7
371.712	581.7
372.113	578.9
372.514	568.3
372.894	576.5
373.295	576.8
373.696	583.7
374.097	587.1
374.499	605.9
374.9	581.6
375.301	573.6
375.703	586.2
376.105	569.7
376.506	581.1
376.908	584
377.309	579.4
377.711	581.1
378.113	576.5
378.493	573.3
378.895	573.4
379.297	583.7
379.699	561.7
380.102	582.5
380.504	576.3
380.906	574.8
381.308	602
381.71	578.6
382.113	584.2
382.515	578.6
382.918	580.3
383.299	580.7
383.701	586.4
384.104	582.8
384.507	563.1
384.909	577.5
385.312	566.8
385.715	566.7
386.118	578.4
386.521	569.4
386.924	582.5
387.327	569.8
387.709	567.1
388.112	562.5
388.515	570.4
388.918	574.3
389.322	583.3
389.725	573.8
390.129	592.6
390.532	585.7
390.936	571.3
391.339	569.3
391.743	577.2
392.125	569.8
392.529	582.9
392.933	590.9
393.337	576.5
393.74	572.3
394.144	580.2
394.548	568.9
394.953	572.7
395.357	578.8
395.761	576.2
396.144	578.3
396.548	575.5
396.952	576.4
397.357	575.2
397.761	572
398.166	572.7
398.57	576.6
398.975	564.4
399.379	578.4
399.763	621.4
400.168	577.7
400.572	573.2
400.977	572.4
401.382	589.5
401.787	591.1
402.192	600.7
402.597	594
403.002	563.5
403.386	592
403.791	596.8
404.197	574.1
404.602	577.6
405.007	573.3
405.413	573.6
405.818	570.8
406.224	567.5
406.608	575
407.014	569.1
407.42	592.2
407.825	571
408.231	586.2
408.637	580.8
409.043	586.5
409.449	574.8
409.834	570.8
410.24	575.5
410.646	588.5
411.052	584.3
411.458	582.2
411.865	588.7
412.271	587.4
412.677	574.4
413.062	584
413.469	568.2
413.875	603.9
414.282	592
414.689	580.6
415.095	588.8
415.502	579.8
415.888	582.3
416.294	562.6
416.701	613
417.108	572.9
417.515	593.9
417.923	577.4
418.33	591.7
418.715	586.1
419.123	578.8
419.53	573.9
419.937	577.1
420.345	594.8
420.752	572.1
421.16	586.6
421.546	577.5
421.953	581.3
422.361	570.1
422.769	583.7
423.177	569.4
423.585	605.1
423.992	601.3
424.379	594.2
424.787	590.6
425.195	595.9
425.603	580.4
426.011	598.4
426.419	592.7
426.806	576.4
427.214	582.2
427.623	592
428.031	597.5
428.44	583.9
428.848	590.7
429.235	602
429.644	584.3
430.053	583.1
430.461	598.1
430.87	611.8
431.279	593.2
431.666	577.7
432.075	587.8
432.484	592.6
432.893	588.3
433.302	600.6
433.711	624.2
434.099	591.3
434.508	590.1
434.918	579.6
435.327	603.1
435.737	593.2
436.125	599.7
436.534	600.6
436.944	609
437.353	607
437.763	626.6
438.173	598.6
438.561	622.6
438.971	597.4
439.381	619.5
439.791	617.6
440.201	600.2
440.589	618.1
440.999	626.7
441.409	620.3
441.819	616.7
442.23	633.4
442.619	630.3
443.029	628
443.439	630.9
443.85	643.8
444.26	647.6
444.649	642.9
445.06	641.9
445.471	634.6
445.881	636.3
446.292	654.4
446.682	656.5
447.092	624
447.503	689.2
447.914	651.4
448.325	643.4
448.715	646.5
449.126	640.7
449.537	648
449.948	650.5
450.338	649.2
450.75	658.6
451.161	656
451.572	655.5
451.984	644.7
452.374	638.7
452.786	650.7
453.197	655.4
453.609	658.7
453.999	644
454.411	651.2
454.823	663.7
455.235	656.5
455.647	650.9
456.037	665.3
456.449	643.4
456.862	657
457.274	654.8
457.665	647.4
458.077	662.6
458.489	671.4
458.902	659.8
459.293	658.5
459.705	654.8
460.118	645.5
460.53	659.7
460.921	658
461.334	660.4
461.747	661.5
462.16	660.8
462.551	671.2
462.964	657.2
463.377	645.6
463.79	647.3
464.182	667.9
464.595	647.6
465.008	656.9
465.421	662.4
465.813	655.8
466.226	659.7
466.64	650.4
467.053	694.4
467.445	662.4
467.859	661.1
468.272	658.1
468.686	668.8
469.078	648.1
469.492	643
469.906	658.6
470.298	649.1
470.712	648.1
471.126	677.3
471.54	640.7
471.933	646.2
472.347	644.7
472.761	647
473.175	641
473.568	642.3
473.982	633.6
474.397	651.2
474.79	650
475.204	655.6
475.619	647.2
476.033	654.7
476.426	649.3
476.841	641.9
477.256	670.2
477.649	639
478.064	632.6
478.479	641.6
478.872	641
479.287	634.3
479.702	638.5
480.118	643.7
480.511	644.9
480.927	636.4
481.342	638.2
481.736	645.1
482.151	630.2
482.566	650.3
482.96	641.2
483.376	649.8
483.792	632
484.186	641.5
484.602	632.9
485.017	644
485.412	639.3
485.827	645.1
486.243	632.5
486.638	665.3
487.054	640.4
487.47	651.2
487.865	631.8
488.281	631.9
488.697	625.9
489.092	626.5
489.508	627.3
489.925	641.5
490.32	622
490.736	635
491.153	630.3
491.548	631.9
491.964	631.2
492.381	615.1
492.776	637.8
493.193	632.2
493.61	636.7
494.006	632.2
494.422	642
494.84	621.3
495.235	636.3
495.652	629.7
496.069	622
496.465	618.4
496.883	630
497.3	648.7
497.696	624.8
498.113	630.2
498.509	618.6
498.927	617.3
499.344	617.4
499.741	615
500.158	636.2
500.576	633.9
500.973	622
501.39	610.7
501.787	622.5
502.205	619.2
502.623	615.2
503.02	610.3
503.438	606.9
503.856	615.3
504.253	623
504.671	620.1
505.068	613.2
505.486	614.5
505.905	629.9
506.302	621.6
506.72	628
507.118	610.2
507.536	609.7
507.955	613.1
508.352	610.5
508.771	616.9
509.169	617.6
509.587	605.7
510.006	608.5
510.404	597.5
510.823	613.3
511.221	609.6
511.64	605.1
512.038	621.5
512.457	610.8
512.877	609.2
513.275	604.2
513.694	603.5
514.092	605.7
514.512	605
514.91	600.3
515.33	606.3
515.749	603.9
516.148	611.4
516.568	606.6
516.966	604
517.386	599.6
517.785	597.2
518.205	596.2
518.603	595.9
519.024	590.2
519.444	605.1
519.843	611.5
520.263	600
520.662	602.2
521.082	591.6
521.481	597.4
521.902	598.5
522.301	603.7
522.722	604.4
523.121	596.8
523.542	593.8
523.963	591.9
524.362	595.2
524.783	604.2
525.183	598.2
525.604	600.6
526.003	589.1
526.425	583.8
526.824	601.1
527.246	600.6
527.646	604.3
528.067	588.7
528.467	592.3
528.888	592.2
529.289	583.8
529.71	596.9
530.11	591.2
530.532	586.6
530.932	584.6
531.354	582.6
531.755	622.1
532.176	593.3
532.577	586.2
532.999	592
533.4	587
533.822	596.1
534.223	588.6
534.645	584.3
535.046	577.9
535.468	585.4
535.869	602.2
536.292	582.5
536.693	584.6
537.115	588.4
537.516	574.3
537.939	577.8
538.34	607.6
538.742	599.2
539.165	586.2
539.566	582.8
539.989	572.3
540.391	576.4
540.814	587.3
541.216	585.7
541.639	579.7
542.041	591.5
542.464	581.3
542.866	577
543.268	573.7
543.691	586.7
544.093	588.5
544.517	598.4
544.919	569.2
545.343	603.8
545.745	574.5
546.147	585.3
546.571	573.2
546.974	577.5
547.398	584
547.8	598.9
548.224	582.8
548.627	576.5
549.03	582.9
549.454	581
549.857	569.3
550.281	573
550.684	570.5
551.087	585.2
551.512	580.3
551.915	586.4
552.34	580.1
552.743	574.5
553.146	583
553.571	574.3
553.975	598.6
554.399	575.3
554.803	624.9
555.207	576.1
555.632	570.3
556.036	578.9
556.461	569.2
556.865	582.2
557.268	559.6
557.694	574.6
558.098	572.4
558.502	580
558.927	576.8
559.332	571.9
559.736	575.1
560.162	583.4
560.566	572.8
560.992	583.8
561.396	576.1
561.801	566.2
562.227	569.9
562.631	570.2
563.036	574.4
563.462	580.2
563.867	575.5
564.272	562.1
564.698	578.7
565.103	562
565.508	590.1
565.935	572.4
566.34	570.2
566.745	583.5
567.172	570.3
567.577	587.1
567.982	587.5
568.409	571.6
568.815	572
569.22	577
569.626	576.3
570.053	560.3
570.459	570.3
570.865	577.8
571.292	575.3
571.698	573.9
572.104	559
572.531	567.6
572.937	581.4
573.343	573.9
573.75	568.7
574.177	571.8
574.583	576.6
574.99	568
575.396	577.7
575.824	574.2
576.231	572.7
576.637	566.4
577.065	590.9
577.472	562.5
577.879	565.9
578.286	583.7
578.714	564.6
579.121	563.5
579.528	572.2
579.935	575
580.364	566.8
580.771	550.8
581.178	565.3
581.585	573.2
582.014	569.9
582.421	565.5
582.829	562.6
583.236	571.1
583.644	552.2
584.073	563.9
584.481	560.7
584.889	557.2
585.296	569
585.726	566.4
586.134	560.9
586.542	564.7
586.95	582
587.358	558.6
587.787	566.8
588.196	558
588.604	565.2
589.012	564.3
589.421	558.6
589.851	560.2
590.259	566
590.668	560.7
591.076	598.7
591.485	563.1
591.894	563.1
592.324	579
592.733	574.6
593.142	555.3
593.551	566.4
593.96	606
594.369	557.6
594.8	554.4
595.209	556.9
595.618	550.5
596.028	560.8
596.437	557.6
596.847	562.2
597.256	565.9
597.687	569.9
598.097	566
598.507	554.2
598.917	567.3
599.327	573.3
599.736	566.9
600.146	573.3
600.556	563.2
600.988	581.1
601.398	566.4
601.808	570
602.219	554.1
602.629	568.6
603.039	568.8
603.45	587.2
603.86	562.7
604.271	579.1
604.703	569.9
605.114	566.3
605.525	574.4
605.935	567.5
606.346	588.3
606.757	573.4
607.168	562.3
607.579	559.7
607.99	573.7
608.402	564.4
608.813	568.6
609.224	558.3
609.636	559.6
610.047	553.4
610.48	567.1
610.892	568.1
611.303	575.7
611.715	562.3
612.127	556.1
612.539	555.4
612.95	567.2
613.362	557
613.774	552.5
614.186	558.2
614.599	558.9
615.011	568.2
615.423	557.4
615.835	558.7
616.248	548.7
616.66	565.6
617.073	556.2
617.485	554.1
617.898	571.5
618.311	563.9
618.723	557.1
619.136	594.2
619.549	572.5
619.962	584.8
620.375	555.5
620.788	563.6
621.201	557.9
621.614	572.3
622.028	560.7
622.441	563.2
622.854	576.6
623.268	554.8
623.681	564.5
624.095	560.5
624.509	567.1
624.922	565.5
625.336	554.8
625.728	563.3
626.142	566.9
626.556	577.4
626.97	566.2
627.384	553.8
627.799	560.9
628.213	575.8
628.627	566
629.041	554.7
629.456	555.7
629.87	561.5
630.285	569.7
630.699	571.8
631.093	556.5
631.507	564.6
631.922	566
632.337	569.9
632.752	560
633.167	559.7
633.582	561.3
633.997	555
634.412	556.7
634.806	551
635.221	552
635.637	565.9
636.052	556.6
636.468	557.9
636.883	578.9
637.299	560.1
637.715	549.1
638.109	553.4
638.525	550.5
638.941	570.1
639.357	563.7
639.773	575.4
640.189	565.4
640.584	556.1
641	568.5
641.416	548.4
641.832	555.4
642.249	554.3
642.665	557.4
643.06	567.9
643.477	564.5
643.894	545.8
644.31	556.1
644.727	558.2
645.123	557.1
645.54	554.2
645.957	561.9
646.374	565.8
646.77	560.1
647.187	586.5
647.604	559.4
648.021	548.7
648.439	553.2
648.835	562.8
649.252	564.3
649.67	557.4
650.088	560.5
650.484	561
650.902	567.4
651.32	567.2
651.738	557.1
652.134	566.2
652.552	574.1
652.971	566.6
653.389	558.4
653.786	568
654.204	559.2
654.622	551.6
655.019	565.7
655.438	562.1
655.857	554.3
656.275	563.3
656.673	554.1
657.091	628.2
657.51	550.7
657.908	566.4
658.327	572.7
658.746	546.4
659.144	559.6
659.563	570.9
659.982	562.2
660.38	548.6
660.8	556.1
661.219	568.7
661.617	559.6
662.037	558.2
662.457	569.9
662.855	548.2
663.275	589.9
663.695	550.3
664.094	550.3
664.514	564
664.934	551.5
665.333	562.4
665.753	553.8
666.152	546.7
666.572	549.3
666.993	571.7
667.392	552.1
667.812	553.5
668.212	557.4
668.632	568.9
669.053	558.1
669.453	559.9
669.874	558.9
670.273	562
670.694	557.7
671.116	567.3
671.515	561.1
671.937	553.9
672.337	557.9
672.758	556.2
673.158	563.6
673.58	555.7
673.98	559.7
674.402	570.8
674.824	554.5
675.224	547.7
675.646	551.2
676.047	553
676.469	561.1
676.869	563.9
677.292	557.3
677.693	551.3
678.115	552.4
678.516	562.6
678.939	560.6
679.34	555.4
679.762	569.4
680.164	561.1
680.586	547.9
680.988	557
681.411	578.7
681.812	555.2
682.236	548.5
682.637	547.2
683.061	548
683.462	554.3
683.864	555
684.288	558.2
684.69	546.4
685.114	564.4
685.516	566.7
685.94	550.5
686.342	565.6
686.766	553.9
687.168	552.6
687.571	573.2
687.995	558.9
688.398	544.8
688.822	553
689.225	567.8
689.628	575.5
690.052	553.2
690.456	563.9
690.88	561.1
691.284	551
691.687	564.6
692.112	556
692.515	551.4
692.919	557.7
693.344	558
693.747	556.7
694.173	550.3
694.577	566.3
694.98	564.2
695.406	550.9
695.81	554.8
696.214	563.9
696.64	556.7
697.044	561
697.448	567.1
697.874	559.8
698.279	558.3
698.684	550.7
699.11	551
699.514	550.6
699.919	552.4
700.324	546.3
700.75	564.1
701.156	558.9
701.561	563.7
701.987	560.6
702.393	566.6
702.798	567.9
703.203	557.1
703.63	550.6
704.036	555.6
704.442	556
704.847	542.4
705.274	554.5
705.68	556.9
706.086	565.8
706.492	548.7
706.92	553.5
707.326	565.7
707.732	552.2
708.139	549.4
708.545	547.1
708.973	553.9
709.38	560.5
709.786	546.7
710.193	569
710.6	555.2
711.028	548.8
711.435	556.1
711.842	558.7
712.249	556.9
712.656	558.6
713.064	562.7
713.492	553.4
713.9	551.4
714.307	562.9
714.715	556.1
715.123	559.3
715.53	557.2
715.938	562.9
716.367	556.6
716.775	559.9
717.184	552
717.592	556.3
718	566.2
718.408	589.4
718.816	595.2
719.225	556.7
719.633	560.8
720.042	544.7
720.472	556.1
720.881	571.3
721.29	554.9
721.699	547.3
722.108	558
722.517	557.8
722.926	552.2
723.335	563.2
723.744	557.5
724.154	556.4
724.563	555.4
724.973	556.7
725.382	554.7
725.792	558.9
726.202	549.3
726.612	563.3
727.022	552.6
727.432	549.4
779.813	554.8
780.223	594.2
780.634	552.8
781.044	546.1
781.454	557.2
781.865	568.2
782.276	543.8
782.686	563.8
783.097	551.2
783.508	549.8
783.919	555.1
784.33	565.2
784.741	559.2
785.152	550.1
785.563	543.6
785.974	548.6
786.386	565.2
786.776	549.7
787.188	551.1
787.599	544.8
788.011	559.9
788.423	554.5
788.835	550.6
789.247	541.4
789.659	548.2
790.071	551.6
790.483	591
790.874	549.4
791.286	562.7
791.699	554.5
792.111	550.9
792.524	554.2
792.937	551.1
793.349	544.7
793.741	544.6
794.154	556.9
794.567	572.6
794.98	551.7
795.393	544.8
795.785	567.6
796.198	548
796.612	554.6
797.026	546.5
797.439	538.1
797.831	556
798.245	545
798.659	551.6
799.073	547.8
799.487	549.2
799.88	553.9
800.294	551.5
800.708	559.7
801.123	555.6
801.516	570.4
801.93	540.6
802.345	537.7
802.76	556.7
803.153	566.5
803.568	571.3
803.983	562.1
804.377	550.4
804.792	543.9
805.207	538.3
805.601	549.8
806.016	581.6
806.432	548.3
806.826	577.7
807.242	564
807.658	557.1
808.052	548.1
808.468	549.3
808.884	541.2
809.279	552.5
809.695	562.9
810.111	571.3
810.506	556
810.922	571.1
811.339	552
811.734	557.6
812.151	553.1
812.546	542.6
812.963	547.4
813.38	555.8
813.776	554
814.193	574.7
814.589	544.3
815.006	551.3
815.402	545.6
815.82	548.9
816.237	555.7
816.633	558.4
817.051	546
817.448	556.9
817.866	542.2
818.262	575.7
818.68	550.3
819.077	550.6
819.495	556.8
819.892	590.9
820.311	548.5
820.708	547.3
821.127	544.5
821.524	559
821.943	553
822.34	572.3
822.759	548.6
823.157	556.6
823.576	566.6
823.974	557.1
824.393	560.8
824.791	550.6
825.189	543.8
825.609	546.7
826.007	547.7
826.427	536.9
826.826	552.6
827.246	557
827.644	542
828.043	561.3
828.463	550.6
828.862	553.6
829.261	559.2
829.682	540.1
830.081	559.7
830.502	542.9
830.901	554.4
831.301	546.3
831.722	540.2
832.121	556.1
832.521	542.4
832.943	555.4
833.342	550
833.742	545.6
834.164	549.7
834.564	542.4
834.965	549
835.386	550.5
835.787	555
836.188	553
836.588	560.7
837.01	546.6
837.411	544.5
837.812	554.6
838.213	554.9
838.636	551.4
839.037	618.3
839.438	555.3
839.84	552.2
840.263	556.4
840.664	553.8
841.066	555.8
841.468	555.6
841.891	549.4
842.293	561.4
842.695	554.9
843.098	555
843.5	553.6
843.902	557
844.326	557.1
844.729	555
845.131	570.1
845.534	559.1
845.937	570.3
846.34	566
846.764	554
847.167	556.1
847.571	542.3
847.974	556.7
848.377	545.6
