#lambda/nm	C1
208.295	483.8
208.67	444.5
209.045	407.9
209.419	415.7
209.794	590.3
210.169	570.9
210.544	689.4
210.919	585.3
211.295	576.3
211.67	589.9
212.045	582.9
212.421	581.3
212.796	613.1
213.172	574.8
213.547	578.5
213.923	579.2
214.299	578.4
214.675	590.1
215.051	584.8
215.427	593.7
215.803	594.3
216.179	586.5
216.555	574.9
216.932	593
217.308	585.4
217.684	579.7
218.061	592.6
218.438	585.5
218.814	578.9
219.191	587
219.568	569.7
219.945	581.7
220.322	590.6
220.699	586.6
221.076	592.1
221.453	588.1
221.83	576.2
222.208	576.9
222.585	572.2
222.962	579.8
223.34	591.1
223.717	583.8
224.095	585.1
224.473	584.4
224.851	574
225.229	573.1
225.607	602.8
225.985	568.5
226.363	584.6
226.741	584.2
227.119	589.1
227.497	593.8
227.876	573.9
228.254	592.2
228.633	587
229.011	580.6
229.39	589.5
229.769	585.3
230.148	592.5
230.527	600
230.905	586.5
231.284	586.6
231.664	580.5
232.043	597.7
232.422	593.3
232.801	576.5
233.181	587.2
233.56	580.1
233.94	579.5
234.319	569.4
234.699	578.4
235.079	626
235.458	623
235.838	594.1
236.218	577.3
236.598	573.6
236.978	583.6
237.358	579.9
237.738	579.2
238.119	588.3
238.499	572.9
238.88	583.3
239.26	595.1
239.641	572.8
240.021	577.5
240.402	585.3
240.783	577.1
241.163	579.1
241.544	586.6
241.925	587.7
242.306	596.2
242.687	579.5
243.069	591.2
243.45	591.5
243.831	577.5
244.212	581.7
244.594	617.2
244.975	594.7
245.357	585.3
245.739	574.3
246.12	583.1
246.502	593.8
246.884	577.9
247.266	584
247.648	578.8
248.03	605
248.412	582.1
248.794	587.6
249.176	571
249.559	597.7
249.941	577.1
250.323	576.7
250.706	574.4
251.089	582.8
251.471	581.7
251.854	581.9
252.237	577.5
252.62	590.9
253.002	585.3
253.385	580.7
253.769	593
254.152	584.9
254.535	592.8
254.918	571.8
255.301	581.6
255.685	578.9
256.068	577.4
256.452	603.6
256.835	592.5
257.219	587.7
257.603	593.6
257.986	571.9
258.37	583.2
258.754	573.2
259.138	589.3
259.522	596.2
259.906	579.1
260.29	591.9
260.675	581.3
261.059	587.1
261.443	580.1
261.828	589
262.212	586
262.597	576.2
262.981	586.4
263.366	588.5
263.751	587.1
264.136	576.4
264.521	582
264.906	574
265.291	597.4
265.676	574.7
266.061	588.1
266.446	601.3
266.831	584
267.217	600
267.602	589.3
267.987	588.8
268.373	579.8
268.759	593.4
269.144	591.6
269.53	584.7
269.916	578.6
270.302	575.2
270.688	592.8
271.074	581.3
271.46	593.1
271.846	609.7
272.232	580.1
272.618	573.9
273.004	582.4
273.391	590
273.777	598.3
274.164	580.5
274.55	600.9
274.937	584.6
275.324	585.6
275.71	589.6
276.097	588.8
276.484	583.1
276.871	586
277.258	589.6
277.645	574.4
278.032	584.7
278.419	588
278.807	586.9
279.194	580.1
279.581	580.8
279.969	596.7
280.356	586.9
280.744	593
281.131	607.2
281.519	603.2
281.907	588
282.295	583
282.682	594.4
283.07	586.9
283.458	589.9
283.846	600.2
284.235	599.5
284.623	596.5
285.011	583.3
285.399	587.4
285.788	586.2
286.176	579.7
286.565	597.8
286.953	575.6
287.342	588.8
287.731	578.8
288.119	579.1
288.508	585.8
288.897	587.9
289.286	575.3
289.675	585.3
290.064	594.9
290.453	583.4
290.821	586.9
291.21	606.8
291.599	586.2
291.989	585.4
292.378	593.1
292.768	604.8
293.157	587.5
293.547	591.4
293.936	577.7
294.326	579.7
294.716	589.5
295.106	585.4
295.496	588.4
295.886	596.9
296.276	586.7
296.666	577.9
297.056	580.5
297.446	578.7
297.836	601.9
298.227	579.9
298.617	587.4
299.008	593.9
299.398	580
299.789	580.8
300.179	589.1
300.57	602.5
300.961	581.7
301.352	579.6
301.742	593.3
302.133	590
302.524	585.6
302.915	587.5
303.307	579
303.698	591.2
304.089	587
304.48	579.6
304.872	590.3
305.263	583.9
305.655	579.4
306.046	589.7
306.438	594.4
306.829	583.6
307.221	595
307.613	591.8
308.005	589.9
308.397	598.6
308.789	607.1
309.181	610.9
309.573	600.1
309.965	598
310.357	583
310.749	591
311.142	578.5
311.534	582.9
311.926	588.5
312.319	585.9
312.711	576
313.104	603.8
313.497	580
313.889	614
314.282	598.3
314.675	608.7
315.068	589
315.461	591.1
315.854	613.6
316.247	587.6
316.64	584.3
317.033	585.8
317.405	592.4
317.798	587.5
318.192	586.8
318.585	576.7
318.979	590.1
319.372	579.3
319.766	581.3
320.16	600
320.553	595.5
320.947	606.1
321.341	587.1
321.735	586.2
322.129	575.7
322.523	609
322.917	582.9
323.311	598.6
323.705	588.3
324.099	593.7
324.494	599.4
324.888	596.5
325.282	585.2
325.677	592.1
326.071	593
326.466	592.6
326.861	589.5
327.255	600
327.65	594.8
328.045	599.5
328.44	591.8
328.835	583.9
329.23	584.6
329.625	609.4
330.02	580
330.415	604.8
330.81	588.1
331.206	589
331.601	587
331.996	593.4
332.37	594.8
332.766	574.2
333.161	610.4
333.557	578.8
333.953	590.4
334.348	995.4
334.744	582.7
335.14	584.8
335.536	582.1
335.932	593.7
336.328	585.2
336.724	589.3
337.12	586.5
337.516	584.5
337.913	586.7
338.309	599.5
338.705	592.2
339.102	593.2
339.498	584
339.895	596.9
340.291	579.9
340.688	594.1
341.085	580
341.481	592.4
341.878	586
342.275	605.1
342.672	573.1
343.069	576.9
343.466	572.1
343.842	592.8
344.239	577.9
344.636	583.1
345.033	570.7
345.431	575.3
345.828	583.6
346.225	580.3
346.623	588.9
347.02	584.3
347.418	589.6
347.816	598.2
348.213	572.5
348.611	590.7
349.009	584.8
349.407	593.2
349.805	569.2
350.203	573.8
350.601	586.2
350.999	581.6
351.397	575.2
351.795	584.6
352.193	590.2
352.57	590.4
352.969	592.8
353.367	576.9
353.766	575.7
354.164	585.1
354.563	583.7
354.961	584
355.36	577.1
355.759	581.6
356.158	572
356.557	577.6
356.956	572.6
357.355	570.2
357.754	585.3
358.153	591.8
358.552	602.3
358.951	576.3
359.35	588.7
359.75	577.1
360.149	576.7
360.527	566
360.926	572.4
361.326	579.9
361.726	579.5
362.125	567.4
362.525	582.5
362.925	580.4
363.325	576.4
363.724	581
364.124	579.1
364.524	575.1
364.924	578.4
365.324	589.9
365.725	568.4
366.125	588
366.525	578.2
366.904	576.9
367.304	559.7
367.705	597.5
368.105	587.2
368.506	581.1
368.906	581.6
369.307	573.9
369.708	583.5
370.108	570.5
370.509	589
370.91	579.7
371.311	580.6
371.712	584.8
372.113	579.3
372.514	571.5
372.894	582.1
373.295	571.7
373.696	590.3
374.097	588.2
374.499	608.2
374.9	578.6
375.301	573.2
375.703	584.3
376.105	571.5
376.506	583.8
376.908	579.2
377.309	579.5
377.711	578.6
378.113	580.5
378.493	579.3
378.895	574.8
379.297	589.4
379.699	566.8
380.102	582.3
380.504	572.3
380.906	572.5
381.308	599.7
381.71	577.1
382.113	586.6
382.515	578.4
382.918	582.4
383.299	579.5
383.701	585.5
384.104	578
384.507	563.7
384.909	574.2
385.312	566.7
385.715	568.9
386.118	580.7
386.521	568.4
386.924	581.8
387.327	570.8
387.709	558.5
388.112	561.1
388.515	572.8
388.918	573.3
389.322	582.4
389.725	572.1
390.129	598.8
390.532	586.3
390.936	573.7
391.339	570.3
391.743	577.9
392.125	567.3
392.529	588.5
392.933	586.7
393.337	577.1
393.74	581.9
394.144	579.4
394.548	575.6
394.953	572.2
395.357	581.2
395.761	569.3
396.144	577.9
396.548	577.9
396.952	572.5
397.357	579.6
397.761	568.2
398.166	573
398.57	570.4
398.975	565.9
399.379	579.9
399.763	620.3
400.168	574.6
400.572	573.4
400.977	579.7
401.382	595.2
401.787	587
402.192	591.7
402.597	590.9
403.002	567.3
403.386	588.1
403.791	594.2
404.197	568.8
404.602	579.3
405.007	575.8
405.413	571.9
405.818	578
406.224	571.4
406.608	566.2
407.014	570.2
407.42	590.8
407.825	570.8
408.231	583.5
408.637	580.7
409.043	594.1
409.449	573.4
409.834	572
410.24	574.6
410.646	587.2
411.052	589.1
411.458	582.5
411.865	582.9
412.271	587.8
412.677	579.2
413.062	582
413.469	568.9
413.875	598.1
414.282	584.2
414.689	585.7
415.095	585.7
415.502	573.8
415.888	581.2
416.294	565.5
416.701	614.4
417.108	573.9
417.515	592.4
417.923	572.5
418.33	596.2
418.715	585.7
419.123	574.3
419.53	578.9
419.937	580.3
420.345	591
420.752	575.5
421.16	590.1
421.546	574.6
421.953	588.6
422.361	572.9
422.769	581.3
423.177	573.5
423.585	604.5
423.992	599.7
424.379	592.7
424.787	593.3
425.195	599.8
425.603	578.4
426.011	588.8
426.419	592
426.806	581.4
427.214	585.7
427.623	588.7
428.031	597.5
428.44	586.9
428.848	596.5
429.235	598.3
429.644	591.4
430.053	593
430.461	606.4
430.87	620.9
431.279	610.7
431.666	602.2
432.075	626.4
432.484	632.9
432.893	632.6
433.302	670.6
433.711	701.3
434.099	674.2
434.508	687.7
434.918	701.9
435.327	728.9
435.737	740.6
436.125	761.2
436.534	780.7
436.944	804.6
437.353	826.9
437.763	857.4
438.173	855.3
438.561	899.9
438.971	900.1
439.381	925.4
439.791	950.7
440.201	951.1
440.589	993.5
440.999	1018.6
441.409	1037.5
441.819	1047.6
442.23	1088
442.619	1099.1
443.029	1122.5
443.439	1144
443.85	1163.4
444.26	1188.6
444.649	1197.3
445.06	1202.9
445.471	1200.8
445.881	1226.4
446.292	1265
446.682	1280.7
447.092	1268.5
447.503	1340.1
447.914	1307.1
448.325	1312.1
448.715	1331.4
449.126	1339.1
449.537	1343
449.948	1340.1
450.338	1364.5
450.75	1364.7
451.161	1365.2
451.572	1377
451.984	1389.3
452.374	1378.3
452.786	1407.3
453.197	1408.6
453.609	1412.4
453.999	1410.4
454.411	1417.1
454.823	1432.7
455.235	1426.3
455.647	1417.9
456.037	1424.1
456.449	1423.7
456.862	1425.6
457.274	1437.3
457.665	1442.8
458.077	1456.1
458.489	1458.5
458.902	1447.7
459.293	1439
459.705	1453.9
460.118	1446.1
460.53	1447.2
460.921	1438.7
461.334	1451.1
461.747	1458.8
462.16	1453.5
462.551	1458.6
462.964	1453.2
463.377	1434.5
463.79	1442.5
464.182	1452
464.595	1428.7
465.008	1425.4
465.421	1435.1
465.813	1431.1
466.226	1416.7
466.64	1417.2
467.053	1468
467.445	1415.2
467.859	1420
468.272	1415
468.686	1420.4
469.078	1413.7
469.492	1412
469.906	1409.9
470.298	1405.5
470.712	1416
471.126	1433.8
471.54	1384.3
471.933	1393.4
472.347	1385.7
472.761	1384.7
473.175	1376.7
473.568	1373.4
473.982	1377.5
474.397	1377.3
474.79	1365.2
475.204	1377.1
475.619	1362.2
476.033	1367.9
476.426	1364.2
476.841	1350.9
477.256	1365.8
477.649	1339.4
478.064	1332.2
478.479	1325.2
478.872	1315.9
479.287	1313.9
479.702	1316.1
480.118	1314.2
480.511	1317.4
480.927	1299.9
481.342	1310.8
481.736	1311.7
482.151	1287
482.566	1297.1
482.96	1284.3
483.376	1295.1
483.792	1278
484.186	1275.3
484.602	1266.2
485.017	1281.2
485.412	1262
485.827	1270
486.243	1270.3
486.638	1280.1
487.054	1259
487.47	1260
487.865	1236.9
488.281	1235.6
488.697	1238
489.092	1239
489.508	1224.9
489.925	1231.8
490.32	1211
490.736	1220.1
491.153	1202.1
491.548	1200.5
491.964	1211.8
492.381	1182.5
492.776	1185.7
493.193	1185.6
493.61	1184
494.006	1165.8
494.422	1177.5
494.84	1153.9
495.235	1169.1
495.652	1155.5
496.069	1153.1
496.465	1136.4
496.883	1139
497.3	1155.7
497.696	1133.1
498.113	1126.4
498.509	1107.9
498.927	1108.8
499.344	1103.4
499.741	1099.1
500.158	1106.4
500.576	1097.3
500.973	1087.9
501.39	1079.4
501.787	1081.3
502.205	1076.8
502.623	1067.6
503.02	1060.3
503.438	1054
503.856	1058.6
504.253	1046.3
504.671	1048.1
505.068	1039.5
505.486	1034.7
505.905	1053.3
506.302	1029.3
506.72	1031.7
507.118	1010.9
507.536	1010.7
507.955	1010.9
508.352	1013
508.771	1003.2
509.169	1000.7
509.587	991
510.006	989.6
510.404	978.2
510.823	983.9
511.221	971.4
511.64	970.2
512.038	981.2
512.457	971.4
512.877	957.7
513.275	945.9
513.694	943.1
514.092	950.1
514.512	938.2
514.91	934.3
515.33	929
515.749	929.8
516.148	931.2
516.568	928.4
516.966	924.6
517.386	913.1
517.785	920
518.205	903.3
518.603	908.6
519.024	896.4
519.444	905.3
519.843	898.5
520.263	895
520.662	891.4
521.082	881.2
521.481	897.8
521.902	881.5
522.301	878.4
522.722	880.4
523.121	876.2
523.542	862.9
523.963	861.1
524.362	852.1
524.783	859.9
525.183	852.2
525.604	850.9
526.003	835.1
526.425	836.8
526.824	839.4
527.246	838.6
527.646	837.3
528.067	835.1
528.467	830.1
528.888	828.1
529.289	822.6
529.71	811.1
530.11	810.8
530.532	800.7
530.932	800.6
531.354	796.1
531.755	820.9
532.176	804.6
532.577	790.7
532.999	791.6
533.4	788.7
533.822	801.8
534.223	783.4
534.645	779.4
535.046	773.1
535.468	777.1
535.869	784
536.292	773.3
536.693	765.4
537.115	776.1
537.516	763.3
537.939	766.3
538.34	783
538.742	774.5
539.165	765.7
539.566	766.7
539.989	754.6
540.391	755.1
540.814	756.5
541.216	752.1
541.639	754.2
542.041	760.6
542.464	737.6
542.866	735.6
543.268	741.2
543.691	750.5
544.093	745.9
544.517	762.1
544.919	725.7
545.343	761.5
545.745	721.7
546.147	730.7
546.571	723.6
546.974	719.6
547.398	728.9
547.8	737.5
548.224	718.3
548.627	713.6
549.03	715.9
549.454	710.7
549.857	705.3
550.281	711.9
550.684	707.3
551.087	723.4
551.512	710.9
551.915	710.8
552.34	705.8
552.743	699.6
553.146	700.6
553.571	704.9
553.975	714.7
554.399	689
554.803	745.3
555.207	689
555.632	680.6
556.036	691.2
556.461	675.1
556.865	681.6
557.268	676.3
557.694	686
558.098	687.2
558.502	685.3
558.927	673.8
559.332	676.6
559.736	676.1
560.162	681.6
560.566	671.3
560.992	676.3
561.396	676.2
561.801	672.5
562.227	677
562.631	668.6
563.036	669
563.462	671.3
563.867	670.4
564.272	651.9
564.698	665.9
565.103	655.6
565.508	677.2
565.935	651.8
566.34	656.1
566.745	665.6
567.172	650.2
567.577	671.3
567.982	667.3
568.409	660.7
568.815	643.8
569.22	654.7
569.626	654.2
570.053	631.8
570.459	651
570.865	650.5
571.292	648.1
571.698	645.9
572.104	628.1
572.531	643.4
572.937	647.3
573.343	639.2
573.75	632.4
574.177	635.4
574.583	639.3
574.99	632.1
575.396	646.6
575.824	631.4
576.231	634.9
576.637	624.1
577.065	654.4
577.472	632.8
577.879	631.7
578.286	643.1
578.714	623.7
579.121	625.2
579.528	634.6
579.935	637.8
580.364	626.4
580.771	610.7
581.178	618.7
581.585	626.4
582.014	630.5
582.421	622.7
582.829	617.7
583.236	625.1
583.644	613
584.073	617.2
584.481	616.5
584.889	611.7
585.296	627.3
585.726	609
586.134	605.9
586.542	611.7
586.95	622.8
587.358	600.5
587.787	616.3
588.196	600.4
588.604	607.3
589.012	615.3
589.421	602.6
589.851	602.2
590.259	605.6
590.668	606.7
591.076	645.3
591.485	598.8
591.894	601.1
592.324	613.4
592.733	613.3
593.142	588.1
593.551	600
593.96	639.1
594.369	588
594.8	590.9
595.209	600.2
595.618	582
596.028	589.7
596.437	591.3
596.847	592.2
597.256	601.5
597.687	597.5
598.097	597.1
598.507	586.1
598.917	594
599.327	598.4
599.736	594
600.146	603.1
600.556	590.3
600.988	598.6
601.398	585.7
601.808	599.4
602.219	578.3
602.629	594.3
603.039	591.1
603.45	615.6
603.86	587.4
604.271	597
604.703	587
605.114	584.5
605.525	583
605.935	589.2
606.346	603.5
606.757	584
607.168	583
607.579	580.1
607.99	592.9
608.402	582.4
608.813	584.2
609.224	572.6
609.636	571.1
610.047	569.9
610.48	577.3
610.892	593.6
611.303	587.2
611.715	580.2
612.127	572
612.539	581.3
612.95	583.3
613.362	573.2
613.774	570.3
614.186	570.7
614.599	576.8
615.011	588.6
615.423	570.8
615.835	578
616.248	572
616.66	583.9
617.073	568.5
617.485	577
617.898	584.6
618.311	585
618.723	577.8
619.136	604.9
619.549	595.9
619.962	604.3
620.375	573
620.788	581.1
621.201	574.7
621.614	592.3
622.028	579.2
622.441	580.9
622.854	587.7
623.268	572.2
623.681	580.1
624.095	579
624.509	593
624.922	585.9
625.336	569.1
625.728	579.8
626.142	586.6
626.556	593.8
626.97	581.8
627.384	566.7
627.799	570.7
628.213	587.3
628.627	574.3
629.041	568.1
629.456	572.9
629.87	575.9
630.285	577.3
630.699	586.1
631.093	571.4
631.507	571.4
631.922	577.1
632.337	587.6
632.752	562.5
633.167	567.7
633.582	570.7
633.997	564.2
634.412	570.3
634.806	569.7
635.221	563.8
635.637	583.2
636.052	561.7
636.468	563.9
636.883	586.2
637.299	568.5
637.715	552.8
638.109	567
638.525	561
638.941	581.9
639.357	577
639.773	578.5
640.189	567.9
640.584	574.1
641	573
641.416	555.5
641.832	563
642.249	565.3
642.665	567.2
643.06	568.4
643.477	576.3
643.894	558.1
644.31	567.5
644.727	566.9
645.123	570.2
645.54	561.1
645.957	566.9
646.374	575.6
646.77	569
647.187	597.3
647.604	565.6
648.021	557.9
648.439	560.1
648.835	565.8
649.252	565.7
649.67	563.1
650.088	564.4
650.484	568.1
650.902	569.6
651.32	572.6
651.738	567
652.134	566.1
652.552	578.8
652.971	572.5
653.389	564.3
653.786	576.4
654.204	568.8
654.622	563.2
655.019	564
655.438	569.5
655.857	564.7
656.275	566.7
656.673	555.1
657.091	629.1
657.51	559.2
657.908	566.1
658.327	577.1
658.746	549.8
659.144	564.1
659.563	581
659.982	566.9
660.38	556.6
660.8	563.7
661.219	577.1
661.617	568.1
662.037	560.4
662.457	580.8
662.855	552.6
663.275	598
663.695	562.3
664.094	566.1
664.514	565.5
664.934	559
665.333	570.1
665.753	561.4
666.152	556.4
666.572	557.8
666.993	573.7
667.392	562.8
667.812	566.5
668.212	561.3
668.632	569.4
669.053	560.9
669.453	572.2
669.874	570.8
670.273	565.3
670.694	556.2
671.116	570.9
671.515	566
671.937	559.7
672.337	560.5
672.758	557
673.158	565.9
673.58	550.2
673.98	566.5
674.402	576.8
674.824	555.3
675.224	551.3
675.646	553.4
676.047	551.2
676.469	562.3
676.869	572.9
677.292	558.6
677.693	555.3
678.115	553.6
678.516	567.5
678.939	566.6
679.34	560.6
679.762	570.3
680.164	565.1
680.586	550.8
680.988	560.4
681.411	588.5
681.812	555.5
682.236	558.8
682.637	547.9
683.061	553.1
683.462	562.7
683.864	558.6
684.288	563.7
684.69	554.5
685.114	569.6
685.516	566.9
685.94	552.4
686.342	559.5
686.766	551.7
687.168	552.8
687.571	579.4
687.995	552.6
688.398	552.9
688.822	565.2
689.225	576.8
689.628	578.9
690.052	556.7
690.456	566.2
690.88	556.2
691.284	551.3
691.687	565.1
692.112	549.8
692.515	549.4
692.919	555.5
693.344	561.1
693.747	554.8
694.173	551.2
694.577	562.7
694.98	558.7
695.406	554.2
695.81	558.3
696.214	561.9
696.64	563.2
697.044	558.2
697.448	563.6
697.874	555.2
698.279	556.5
698.684	556.3
699.11	551.2
699.514	556.3
699.919	555.7
700.324	551.3
700.75	560
701.156	562
701.561	564.4
701.987	562.2
702.393	565.8
702.798	570.4
703.203	554.1
703.63	550.3
704.036	555.8
704.442	562.6
704.847	549.3
705.274	556.9
705.68	556.8
706.086	558.2
706.492	549.1
706.92	552.7
707.326	568.2
707.732	556.3
708.139	550.5
708.545	543.4
708.973	549.1
709.38	554.3
709.786	547.9
710.193	575.6
710.6	555.4
711.028	548.8
711.435	557.8
711.842	559
712.249	555.8
712.656	557.7
713.064	561
713.492	547.9
713.9	552.8
714.307	558.1
714.715	560
715.123	554.8
715.53	562.1
715.938	559.7
716.367	559.1
716.775	560.3
717.184	554.1
717.592	555.7
718	564
718.408	591.3
718.816	596.2
719.225	555.2
719.633	555.2
720.042	552.6
720.472	552.7
720.881	576.8
721.29	557.1
721.699	549.7
722.108	559.9
722.517	556.6
722.926	552.9
723.335	566.2
723.744	550.5
724.154	553.7
724.563	556.5
724.973	559.5
725.382	556.1
725.792	557.7
726.202	548.5
726.612	569.8
727.022	558.7
727.432	551.8
779.813	554.9
780.223	594.6
780.634	549.2
781.044	548.8
781.454	551.9
781.865	568.7
782.276	547.3
782.686	566.9
783.097	555.4
783.508	555.8
783.919	560.9
784.33	564.7
784.741	564.3
785.152	554.6
785.563	541.3
785.974	548.4
786.386	561.8
786.776	554.3
787.188	559.6
787.599	545.3
788.011	565.1
788.423	560.9
788.835	548.9
789.247	548.7
789.659	551.8
790.071	551.6
790.483	592.2
790.874	548.7
791.286	562.8
791.699	551.8
792.111	555.2
792.524	559
792.937	561.6
793.349	544.7
793.741	548.2
794.154	543.4
794.567	572.4
794.98	557.5
795.393	544.2
795.785	576
796.198	546.9
796.612	553.1
797.026	552.4
797.439	540.7
797.831	553.2
798.245	546.6
798.659	550.1
799.073	549.2
799.487	549.9
799.88	554.4
800.294	554.8
800.708	554.8
801.123	557.6
801.516	565.5
801.93	543.8
802.345	544.5
802.76	555.1
803.153	570.2
803.568	566.9
803.983	566.7
804.377	557
804.792	540.2
805.207	543.7
805.601	557.9
806.016	582
806.432	546.7
806.826	579.6
807.242	569.9
807.658	564.6
808.052	552.1
808.468	552.3
808.884	547
809.279	561.8
809.695	567.7
810.111	578.4
810.506	559.2
810.922	566.8
811.339	545.5
811.734	560.8
812.151	544.5
812.546	547.2
812.963	552.3
813.38	562
813.776	556.4
814.193	579
814.589	554.8
815.006	551.8
815.402	547.3
815.82	550.2
816.237	549.4
816.633	558
817.051	543.1
817.448	552.1
817.866	546.7
818.262	570
818.68	540.8
819.077	547.3
819.495	550
819.892	587.8
820.311	543.4
820.708	549.6
821.127	548.9
821.524	560.4
821.943	553.9
822.34	575
822.759	552.8
823.157	553.7
823.576	561.8
823.974	556
824.393	564.2
824.791	547
825.189	548
825.609	551.9
826.007	551.1
826.427	540
826.826	549.7
827.246	550.6
827.644	538
828.043	554.7
828.463	546.5
828.862	558.3
829.261	556.9
829.682	541.7
830.081	561.8
830.502	550.9
830.901	555.5
831.301	548.8
831.722	538.6
832.121	546.5
832.521	547.2
832.943	548.3
833.342	549.7
833.742	544.6
834.164	542.8
834.564	539.9
834.965	548.3
835.386	543.5
835.787	550.7
836.188	545.1
836.588	550.6
837.01	551.5
837.411	541.4
837.812	553.7
838.213	555.9
838.636	544.7
839.037	607.6
839.438	549.4
839.84	556.2
840.263	553.8
840.664	555.8
841.066	548.6
841.468	547.6
841.891	543.9
842.293	560.6
842.695	552
843.098	559.8
843.5	550.4
