#lambda/nm	C1
208.295	477.9
208.67	442.6
209.045	401.6
209.419	412.5
209.794	585.1
210.169	560.3
210.544	674
210.919	583.6
211.295	570
211.67	578.7
212.045	573.1
212.421	578.8
212.796	612.8
213.172	572.3
213.547	573.8
213.923	571.9
214.299	581.5
214.675	586.8
215.051	576.3
215.427	575.2
215.803	593.5
216.179	581
216.555	570
216.932	578.5
217.308	574.3
217.684	571.8
218.061	582.2
218.438	577.4
218.814	566.4
219.191	583.2
219.568	570.3
219.945	569.8
220.322	579.8
220.699	580.6
221.076	581.4
221.453	575.6
221.83	567.7
222.208	566.2
222.585	576
222.962	571.8
223.34	581.4
223.717	574.8
224.095	572.5
224.473	582.2
224.851	573.3
225.229	565
225.607	589.4
225.985	565.7
226.363	579.2
226.741	581.8
227.119	574
227.497	594.7
227.876	566.6
228.254	585
228.633	578.7
229.011	579.8
229.39	585.1
229.769	581.2
230.148	581.7
230.527	595.3
230.905	579.4
231.284	579.1
231.664	573.8
232.043	589.5
232.422	580.1
232.801	575.2
233.181	586.4
233.56	572.2
233.94	581.3
234.319	567.5
234.699	571
235.079	609.6
235.458	609.1
235.838	593.9
236.218	570.2
236.598	570.5
236.978	571.4
237.358	572.1
237.738	573.5
238.119	587.8
238.499	568.2
238.88	576
239.26	591.7
239.641	568.1
240.021	573.8
240.402	577.6
240.783	577.7
241.163	574.2
241.544	580.6
241.925	576.3
242.306	591.7
242.687	575.4
243.069	584
243.45	586.3
243.831	575.1
244.212	572.1
244.594	605.6
244.975	588.3
245.357	583.8
245.739	578
246.12	584.2
246.502	589.5
246.884	572.5
247.266	573.6
247.648	580
248.03	597.9
248.412	584.6
248.794	581.7
249.176	567.8
249.559	581.1
249.941	571.9
250.323	573
250.706	570.7
251.089	572
251.471	577.9
251.854	577.8
252.237	575.5
252.62	585.1
253.002	580.2
253.385	574.9
253.769	593.3
254.152	572.2
254.535	586.1
254.918	567.8
255.301	576.1
255.685	576.2
256.068	568.7
256.452	600.8
256.835	584.8
257.219	582.6
257.603	587.5
257.986	571.5
258.37	581.6
258.754	569.2
259.138	586.5
259.522	588.6
259.906	571.3
260.29	578.4
260.675	581.2
261.059	576.1
261.443	566.4
261.828	586.5
262.212	585.4
262.597	567.5
262.981	573.2
263.366	587
263.751	575.3
264.136	570.1
264.521	575.3
264.906	572.8
265.291	586.7
265.676	575.3
266.061	586
266.446	593.3
266.831	579.3
267.217	594.9
267.602	583.3
267.987	580.4
268.373	573.5
268.759	584
269.144	582.1
269.53	573.6
269.916	571.3
270.302	574.8
270.688	575.8
271.074	580.4
271.46	588.1
271.846	604.4
272.232	578.5
272.618	571.4
273.004	571.9
273.391	586.5
273.777	586.8
274.164	577
274.55	594.9
274.937	586.7
275.324	577.5
275.71	582
276.097	583.5
276.484	573
276.871	579.9
277.258	581.1
277.645	571.7
278.032	575.7
278.419	573.2
278.807	581.2
279.194	574.6
279.581	572.5
279.969	580.6
280.356	579
280.744	580.9
281.131	601.9
281.519	581.8
281.907	572.9
282.295	579
282.682	585.8
283.07	577.6
283.458	583.2
283.846	584.9
284.235	594.1
284.623	590.4
285.011	575.4
285.399	576.5
285.788	579.1
286.176	574.8
286.565	592.1
286.953	580.4
287.342	576.3
287.731	571.4
288.119	569.9
288.508	574.1
288.897	574.6
289.286	567.9
289.675	579.5
290.064	586.8
290.453	582.4
290.821	580.5
291.21	596.8
291.599	571.6
291.989	576.3
292.378	585.6
292.768	591.8
293.157	586.2
293.547	585.5
293.936	578.3
294.326	578.5
294.716	581.2
295.106	574.5
295.496	580.1
295.886	587.7
296.276	576.2
296.666	569.9
297.056	569.3
297.446	568
297.836	599.4
298.227	574.7
298.617	576
299.008	589
299.398	573
299.789	573.1
300.179	581.5
300.57	594.9
300.961	572.2
301.352	576.2
301.742	588.6
302.133	581
302.524	577.1
302.915	581.4
303.307	573.4
303.698	585.4
304.089	584.4
304.48	579.7
304.872	581.3
305.263	575.1
305.655	572.2
306.046	579.9
306.438	588.5
306.829	573.9
307.221	591.3
307.613	581
308.005	584
308.397	588
308.789	599.1
309.181	600.7
309.573	595.9
309.965	589.3
310.357	574.2
310.749	578.4
311.142	577.1
311.534	574.3
311.926	578.6
312.319	578.1
312.711	568.4
313.104	587.1
313.497	573.7
313.889	611.1
314.282	587.5
314.675	600.6
315.068	582.7
315.461	580.4
315.854	610.4
316.247	580.4
316.64	570.5
317.033	579.9
317.405	584.2
317.798	578.6
318.192	580.3
318.585	572.1
318.979	580.7
319.372	570.2
319.766	575
320.16	594
320.553	596.7
320.947	595.6
321.341	565.6
321.735	577.7
322.129	568.9
322.523	601.8
322.917	569.5
323.311	584
323.705	584.1
324.099	581.3
324.494	589.7
324.888	595.6
325.282	579.3
325.677	587.4
326.071	588.8
326.466	595.7
326.861	586.2
327.255	589.8
327.65	594
328.045	595.5
328.44	581.1
328.835	577.3
329.23	576
329.625	600.2
330.02	580.1
330.415	603.9
330.81	578.3
331.206	584.4
331.601	573.5
331.996	595.6
332.37	589.2
332.766	575.3
333.161	597.6
333.557	574.5
333.953	582.3
334.348	868.1
334.744	582.8
335.14	568.6
335.536	575
335.932	590.8
336.328	575.4
336.724	587.2
337.12	578.4
337.516	585.1
337.913	582.3
338.309	601.7
338.705	580.8
339.102	587.7
339.498	573.8
339.895	585.9
340.291	576.3
340.688	586.2
341.085	571.4
341.481	576.3
341.878	577.2
342.275	594.9
342.672	567.2
343.069	572.1
343.466	564.2
343.842	587
344.239	577.4
344.636	576.9
345.033	575.9
345.431	566.9
345.828	575.9
346.225	577
346.623	588.4
347.02	585.4
347.418	583.1
347.816	593.5
348.213	569.8
348.611	589.4
349.009	575.5
349.407	586.8
349.805	569.3
350.203	564.4
350.601	585.8
350.999	575.1
351.397	570.3
351.795	573.2
352.193	586
352.57	583.4
352.969	589.3
353.367	571.9
353.766	569.6
354.164	574.1
354.563	586.2
354.961	578.6
355.36	571.5
355.759	577.2
356.158	568.5
356.557	570.1
356.956	568.2
357.355	563.3
357.754	575.3
358.153	587
358.552	594.9
358.951	575.1
359.35	586.9
359.75	579.5
360.149	564.1
360.527	559.9
360.926	568.4
361.326	571.2
361.726	573.8
362.125	570.7
362.525	579.9
362.925	565.3
363.325	577.7
363.724	577.1
364.124	566.7
364.524	569.9
364.924	571.2
365.324	581.2
365.725	555.9
366.125	573.7
366.525	569.9
366.904	570
367.304	551.5
367.705	594.2
368.105	582.6
368.506	570.2
368.906	573.7
369.307	569.7
369.708	581.6
370.108	564.1
370.509	579.8
370.91	562.7
371.311	574.9
371.712	576.9
372.113	571.8
372.514	564.3
372.894	567.8
373.295	568
373.696	579.1
374.097	581
374.499	599.4
374.9	573
375.301	565.1
375.703	580.5
376.105	570
376.506	574.6
376.908	576.8
377.309	569.3
377.711	572.9
378.113	565.4
378.493	573.7
378.895	569.1
379.297	579.3
379.699	562
380.102	574.2
380.504	574
380.906	571.3
381.308	597.7
381.71	572.5
382.113	579.5
382.515	572
382.918	576.5
383.299	572.5
383.701	578
384.104	577.4
384.507	555.6
384.909	571.8
385.312	558.8
385.715	562.5
386.118	567.3
386.521	562.7
386.924	578.3
387.327	566.6
387.709	561.6
388.112	553.7
388.515	567.8
388.918	571.7
389.322	576.2
389.725	567.6
390.129	586.9
390.532	572.4
390.936	564.3
391.339	559.8
391.743	569.3
392.125	558.6
392.529	576.1
392.933	578
393.337	572.1
393.74	563.4
394.144	570
394.548	567.2
394.953	565.4
395.357	574.1
395.761	567.5
396.144	570.9
396.548	567.6
396.952	569.2
397.357	573
397.761	567.1
398.166	570.4
398.57	567
398.975	565.4
399.379	574.6
399.763	609.7
400.168	573
400.572	572.7
400.977	568
401.382	580.9
401.787	575.2
402.192	584.9
402.597	580.4
403.002	555.6
403.386	583.6
403.791	585.7
404.197	570
404.602	576.1
405.007	572.2
405.413	566.5
405.818	565.7
406.224	563.3
406.608	568.5
407.014	565.1
407.42	583.3
407.825	567.8
408.231	576.8
408.637	565.2
409.043	581.1
409.449	565.5
409.834	564.1
410.24	569.1
410.646	583.2
411.052	573.8
411.458	570.3
411.865	580.4
412.271	575.7
412.677	568.7
413.062	579.6
413.469	557.7
413.875	596.3
414.282	580
414.689	568.9
415.095	579.6
415.502	563.6
415.888	574
416.294	551.9
416.701	608.3
417.108	568.8
417.515	574.4
417.923	565.2
418.33	585.5
418.715	580.2
419.123	568.7
419.53	568.6
419.937	569.6
420.345	584.6
420.752	571.5
421.16	587.5
421.546	572.9
421.953	582.3
422.361	566.1
422.769	567.6
423.177	565
423.585	597.8
423.992	589.8
424.379	587.1
424.787	586.9
425.195	593.9
425.603	572.7
426.011	587.9
426.419	585.7
426.806	575.9
427.214	579.1
427.623	584.7
428.031	591.8
428.44	580.8
428.848	590.8
429.235	601.1
429.644	583.1
430.053	581
430.461	604.3
430.87	616
431.279	608.4
431.666	595.7
432.075	611.1
432.484	615.9
432.893	622.6
433.302	657
433.711	688.4
434.099	666.9
434.508	676.6
434.918	683.5
435.327	709.7
435.737	720.9
436.125	741.8
436.534	765.7
436.944	789.8
437.353	803.7
437.763	834.4
438.173	837.2
438.561	879.5
438.971	866.8
439.381	905.4
439.791	925.8
440.201	925.7
440.589	965.6
440.999	992.3
441.409	1009.8
441.819	1020.6
442.23	1053.5
442.619	1073.3
443.029	1081
443.439	1106.9
443.85	1128.7
444.26	1152
444.649	1159.8
445.06	1168.4
445.471	1177.1
445.881	1195.3
446.292	1238
446.682	1242.3
447.092	1213.4
447.503	1283.7
447.914	1258.2
448.325	1264.2
448.715	1271.9
449.126	1286.9
449.537	1299.2
449.948	1300.4
450.338	1313.6
450.75	1326
451.161	1335.3
451.572	1334.1
451.984	1341.6
452.374	1331.2
452.786	1347.1
453.197	1360.7
453.609	1357.9
453.999	1340.8
454.411	1359.8
454.823	1389.6
455.235	1380.1
455.647	1385.4
456.037	1394.6
456.449	1377.9
456.862	1395.5
457.274	1392.7
457.665	1388.7
458.077	1405.1
458.489	1425
458.902	1401.8
459.293	1406.8
459.705	1409.6
460.118	1408.4
460.53	1404.5
460.921	1403.2
461.334	1395.1
461.747	1397.8
462.16	1411.6
462.551	1418
462.964	1408.6
463.377	1378.5
463.79	1388.2
464.182	1400.6
464.595	1382.1
465.008	1397.4
465.421	1396.8
465.813	1387
466.226	1400.7
466.64	1377.9
467.053	1421.8
467.445	1382.6
467.859	1371.2
468.272	1365.9
468.686	1366.5
469.078	1363
469.492	1336.5
469.906	1361.4
470.298	1352.4
470.712	1342.5
471.126	1386
471.54	1343.8
471.933	1352.8
472.347	1346.4
472.761	1338.4
473.175	1339.4
473.568	1329.1
473.982	1336.2
474.397	1327
474.79	1332.6
475.204	1328.5
475.619	1323.1
476.033	1324.5
476.426	1312.8
476.841	1303.8
477.256	1341
477.649	1297.6
478.064	1299.4
478.479	1295.1
478.872	1291.3
479.287	1273.3
479.702	1276.6
480.118	1275.5
480.511	1277.7
480.927	1259.2
481.342	1272.4
481.736	1271.3
482.151	1248.2
482.566	1265.1
482.96	1250.5
483.376	1269.6
483.792	1246.4
484.186	1252.7
484.602	1247.9
485.017	1247.4
485.412	1235.7
485.827	1234.9
486.243	1236.6
486.638	1262.1
487.054	1225.7
487.47	1226.3
487.865	1219.8
488.281	1201.3
488.697	1207.4
489.092	1208.7
489.508	1184.7
489.925	1197.8
490.32	1177.4
490.736	1182.6
491.153	1175.9
491.548	1183.1
491.964	1178.6
492.381	1154.3
492.776	1162.2
493.193	1165.5
493.61	1157.9
494.006	1139.2
494.422	1144.1
494.84	1124.1
495.235	1137
495.652	1125.5
496.069	1124.1
496.465	1113.5
496.883	1118.6
497.3	1130.7
497.696	1097.6
498.113	1101.1
498.509	1081.1
498.927	1080.7
499.344	1084.4
499.741	1071.7
500.158	1081.9
500.576	1084.8
500.973	1067.6
501.39	1056.5
501.787	1041.3
502.205	1039.4
502.623	1038
503.02	1028
503.438	1030
503.856	1039
504.253	1023.4
504.671	1018.5
505.068	1011.3
505.486	1013.5
505.905	1017.4
506.302	1002.1
506.72	1005.9
507.118	985.7
507.536	997.1
507.955	978
508.352	981.9
508.771	982.9
509.169	976.5
509.587	969.9
510.006	965.9
510.404	963.9
510.823	954.2
511.221	955.1
511.64	946.6
512.038	962.1
512.457	946.5
512.877	933.3
513.275	931.6
513.694	933.2
514.092	926.1
514.512	932
514.91	924.5
515.33	915.5
515.749	913.9
516.148	911.8
516.568	902.6
516.966	907.2
517.386	898.7
517.785	904
518.205	888.8
518.603	890.7
519.024	891.6
519.444	880.3
519.843	890.8
520.263	879
520.662	884.2
521.082	869.6
521.481	869.5
521.902	861.1
522.301	859.2
522.722	861.1
523.121	855.8
523.542	844.1
523.963	850.2
524.362	848.8
524.783	849.1
525.183	838.5
525.604	839.6
526.003	826.8
526.425	824.3
526.824	832.1
527.246	826.4
527.646	828.9
528.067	811.6
528.467	813.9
528.888	809.8
529.289	806.7
529.71	803.4
530.11	799.2
530.532	792.8
530.932	787.5
531.354	780.9
531.755	820.8
532.176	796.5
532.577	782.8
532.999	778.9
533.4	776.4
533.822	781.7
534.223	762.4
534.645	773
535.046	770.7
535.468	767.2
535.869	776.4
536.292	757.3
536.693	761
537.115	761.1
537.516	746.3
537.939	750.5
538.34	767.9
538.742	767.8
539.165	749.1
539.566	745.7
539.989	743.6
540.391	740.3
540.814	743
541.216	744.4
541.639	739.9
542.041	742.8
542.464	734.2
542.866	726.7
543.268	725.1
543.691	735.7
544.093	737.4
544.517	744.1
544.919	720.7
545.343	753.8
545.745	713.8
546.147	723.1
546.571	720.5
546.974	707
547.398	718
547.8	724.6
548.224	714.4
548.627	708.2
549.03	717
549.454	704.6
549.857	692.9
550.281	698.1
550.684	699.9
551.087	712
551.512	706.4
551.915	702
552.34	692.9
552.743	690.2
553.146	694.7
553.571	687.2
553.975	703.5
554.399	677.6
554.803	721
555.207	685
555.632	675.6
556.036	681.3
556.461	666.9
556.865	670.6
557.268	665.4
557.694	665.7
558.098	678.2
558.502	683.9
558.927	668.3
559.332	671.6
559.736	669
560.162	678.6
560.566	664.5
560.992	673.1
561.396	665.6
561.801	660
562.227	661.1
562.631	657.4
563.036	653.5
563.462	665.5
563.867	656.2
564.272	643
564.698	658.1
565.103	639
565.508	658.3
565.935	646.8
566.34	645.8
566.745	659
567.172	644.7
567.577	667.8
567.982	654.6
568.409	651.1
568.815	637.5
569.22	643
569.626	645.7
570.053	634.3
570.459	640.5
570.865	642.7
571.292	644
571.698	637.2
572.104	618
572.531	634.2
572.937	641.2
573.343	634.1
573.75	629.1
574.177	628.3
574.583	631.9
574.99	627.2
575.396	634.9
575.824	625.6
576.231	630.6
576.637	629.6
577.065	650.5
577.472	615.3
577.879	617.4
578.286	631.4
578.714	610.2
579.121	614.9
579.528	624.9
579.935	625.6
580.364	619
580.771	603.9
581.178	612.1
581.585	618.2
582.014	623.8
582.421	607.2
582.829	608.7
583.236	618.3
583.644	607.2
584.073	606.4
584.481	608.6
584.889	605
585.296	614.7
585.726	607.4
586.134	600.8
586.542	602.8
586.95	620.2
587.358	601.6
587.787	611.8
588.196	592.6
588.604	599.4
589.012	604.1
589.421	595
589.851	592.3
590.259	599.8
590.668	595.4
591.076	627.3
591.485	591.2
591.894	598.5
592.324	614.2
592.733	605.4
593.142	589.4
593.551	595.9
593.96	604.6
594.369	584.5
594.8	585.2
595.209	580.4
595.618	580.5
596.028	584.7
596.437	586.3
596.847	582.4
597.256	591.6
597.687	592.5
598.097	584.2
598.507	580.5
598.917	586.9
599.327	589.6
599.736	587.1
600.146	595.7
600.556	585
600.988	588.1
601.398	581.6
601.808	590.4
602.219	568.4
602.629	581.8
603.039	583.5
603.45	601.3
603.86	580.3
604.271	592.1
604.703	579.5
605.114	577.7
605.525	579.5
605.935	582.9
606.346	599.7
606.757	582.7
607.168	577.2
607.579	567
607.99	589.5
608.402	574.6
608.813	579
609.224	571
609.636	562.9
610.047	566.8
610.48	579.6
610.892	583.5
611.303	581.6
611.715	571.4
612.127	562.6
612.539	570.6
612.95	568.8
613.362	559.3
613.774	565.8
614.186	571.3
614.599	569.1
615.011	582.8
615.423	566.6
615.835	571.7
616.248	564.4
616.66	579.7
617.073	566.4
617.485	573
617.898	578.2
618.311	581.4
618.723	572.3
619.136	596.2
619.549	582.8
619.962	593.6
620.375	567.3
620.788	574.7
621.201	568.2
621.614	572.3
622.028	568.2
622.441	572.5
622.854	583.5
623.268	565.5
623.681	575.4
624.095	568.9
624.509	583.9
624.922	575.3
625.336	562.3
625.728	571
626.142	574.4
626.556	588.7
626.97	577.7
627.384	568.4
627.799	563.5
628.213	580.4
628.627	571.8
629.041	564.1
629.456	564.4
629.87	567.2
630.285	575.2
630.699	575.6
631.093	562.1
631.507	572.1
631.922	572.6
632.337	578.6
632.752	556.3
633.167	569.2
633.582	564.2
633.997	560.3
634.412	563.8
634.806	565.6
635.221	553.9
635.637	573
636.052	550.1
636.468	568.7
636.883	578.9
637.299	562.5
637.715	553.4
638.109	560.9
638.525	550.6
638.941	576.5
639.357	562.7
639.773	576.5
640.189	552.9
640.584	560.2
641	568.3
641.416	554.6
641.832	557.8
642.249	565.5
642.665	560.5
643.06	563.2
643.477	570.6
643.894	548.6
644.31	564.8
644.727	563.1
645.123	562.9
645.54	552.2
645.957	562.5
646.374	566.8
646.77	561.9
647.187	587.7
647.604	560.5
648.021	545.5
648.439	555.4
648.835	561.3
649.252	569.2
649.67	559.8
650.088	560.1
650.484	564.5
650.902	565.1
651.32	562.2
651.738	554.6
652.134	560.2
652.552	573.9
652.971	561.6
653.389	563.2
653.786	569.4
654.204	558.2
654.622	551.7
655.019	559.3
655.438	557
655.857	557.8
656.275	561.2
656.673	555.4
657.091	620.8
657.51	555.2
657.908	564.4
658.327	571.5
658.746	548.5
659.144	554.7
659.563	566.8
659.982	565.8
660.38	549.9
660.8	561.7
661.219	566.6
661.617	560
662.037	556
662.457	567.7
662.855	546.7
663.275	585.2
663.695	559.7
664.094	553.2
664.514	556.3
664.934	550.4
665.333	561.2
665.753	552
666.152	545.6
666.572	554.3
666.993	563.1
667.392	555.1
667.812	555.7
668.212	552.2
668.632	562.1
669.053	557.7
669.453	561.3
669.874	559.8
670.273	554.3
670.694	550.7
671.116	568.3
671.515	560.9
671.937	553.2
672.337	548.4
672.758	549.9
673.158	562.5
673.58	547.7
673.98	557.4
674.402	564.9
674.824	551.4
675.224	553.7
675.646	551
676.047	552.8
676.469	555
676.869	562.4
677.292	555.7
677.693	546.4
678.115	554.8
678.516	558.2
678.939	555.9
679.34	556.7
679.762	560.8
680.164	556.6
680.586	541.8
680.988	558.5
681.411	577.6
681.812	555.1
682.236	544.8
682.637	545.5
683.061	542.7
683.462	553.2
683.864	551.1
684.288	556.1
684.69	546.6
685.114	563.6
685.516	563.9
685.94	543.3
686.342	556.5
686.766	549
687.168	551.9
687.571	567.8
687.995	554.4
688.398	543.8
688.822	551.3
689.225	571.2
689.628	570.4
690.052	552.2
690.456	553.2
690.88	553.9
691.284	545.1
691.687	553.2
692.112	551.1
692.515	544.5
692.919	553.8
693.344	561
693.747	548
694.173	545.5
694.577	556.7
694.98	553.6
695.406	545
695.81	553.1
696.214	558.3
696.64	551.3
697.044	555.6
697.448	558.5
697.874	549.7
698.279	549.5
698.684	540.9
699.11	542.7
699.514	546.1
699.919	545.7
700.324	541.4
700.75	546.3
701.156	549
701.561	563.5
701.987	556.3
702.393	560.9
702.798	553.3
703.203	553.4
703.63	544.9
704.036	547.2
704.442	552.2
704.847	541.9
705.274	549.3
705.68	552.2
706.086	568
706.492	542.4
706.92	547
707.326	557.3
707.732	547.9
708.139	546.9
708.545	544.7
708.973	545.6
709.38	549.8
709.786	539.5
710.193	566.9
710.6	552.4
711.028	543.4
711.435	549.1
711.842	545.3
712.249	548.7
712.656	550.6
713.064	555.5
713.492	538.3
713.9	548.9
714.307	549.7
714.715	547.2
715.123	554.3
715.53	554.6
715.938	558.7
716.367	555.4
716.775	548.3
717.184	543.5
717.592	550.8
718	558.4
718.408	578.4
718.816	586.8
719.225	560
719.633	550
720.042	544.8
720.472	552.1
720.881	570.5
721.29	553.7
721.699	543.5
722.108	554.6
722.517	555.2
722.926	544.4
723.335	563.2
723.744	548.7
724.154	552.9
724.563	555.3
724.973	555.9
725.382	552.1
725.792	544.9
726.202	547.6
726.612	559.4
727.022	550.5
727.432	544.9
779.813	545.4
780.223	595.4
780.634	546.3
781.044	544.5
781.454	547.8
781.865	559.9
782.276	545.2
782.686	562.2
783.097	547.2
783.508	550.6
783.919	549.3
784.33	563.1
784.741	559.9
785.152	539.9
785.563	541.7
785.974	541.4
786.386	557
786.776	548
787.188	550.8
787.599	539.2
788.011	556.2
788.423	545.9
788.835	549.2
789.247	537.6
789.659	546.7
790.071	544.6
790.483	586.3
790.874	544.1
791.286	553
791.699	545.1
792.111	549.3
792.524	543.3
792.937	545.3
793.349	535.5
793.741	536.5
794.154	543.1
794.567	565.7
794.98	550
795.393	535.6
795.785	557.4
796.198	544.8
796.612	544.5
797.026	545.7
797.439	535.9
797.831	544.1
798.245	539.5
798.659	546
799.073	540.3
799.487	541.4
799.88	543.9
800.294	541.7
800.708	549.3
801.123	548
801.516	567
801.93	535.3
802.345	538
802.76	544.6
803.153	558.6
803.568	558.4
803.983	552.4
804.377	553.4
804.792	536.1
805.207	529.8
805.601	544.5
806.016	572.3
806.432	539.9
806.826	570.4
807.242	557.1
807.658	546.4
808.052	547.8
808.468	537.2
808.884	538.3
809.279	552.7
809.695	556.1
810.111	567.2
810.506	545.8
810.922	560.9
811.339	546.1
811.734	549.3
812.151	544
812.546	542.1
812.963	544.7
813.38	546.7
813.776	550.8
814.193	566.4
814.589	541.3
815.006	544.7
815.402	541
815.82	542.3
816.237	546.5
816.633	547.2
817.051	536.3
817.448	548.1
817.866	535
818.262	561.9
818.68	540
819.077	540.5
819.495	548
819.892	584.4
820.311	537.3
820.708	539.8
821.127	538.5
821.524	555
821.943	546.5
822.34	564.9
822.759	551.6
823.157	544.8
823.576	557.6
823.974	554.4
824.393	556.9
824.791	544.4
825.189	537.1
825.609	545.4
826.007	542.3
826.427	531.7
826.826	542.8
827.246	550.3
827.644	532.7
828.043	557.1
828.463	542
828.862	551.3
829.261	553.9
829.682	539.3
830.081	553.6
830.502	537.8
830.901	545.8
831.301	544.2
831.722	530.3
832.121	544.3
832.521	540.1
832.943	548.8
833.342	540.4
833.742	532.6
834.164	536.2
834.564	536.2
834.965	542.1
835.386	543.7
835.787	538.5
836.188	547.3
836.588	540.2
837.01	544.9
837.411	534.1
837.812	552.4
838.213	545.9
838.636	536.5
839.037	603.9
839.438	545.3
839.84	539.5
840.263	550.1
840.664	548.4
841.066	543.2
841.468	546
841.891	538.4
842.293	550.6
842.695	549.8
843.098	552.3
