#lambda/nm	C1
208.295	477.8
208.67	443.4
209.045	404.8
209.419	412.6
209.794	594.8
210.169	572.3
210.544	684.4
210.919	590.4
211.295	577.4
211.67	592.5
212.045	584.3
212.421	581.6
212.796	620.3
213.172	582
213.547	582.3
213.923	581.5
214.299	580.7
214.675	594.8
215.051	588.6
215.427	587.5
215.803	602
216.179	591.3
216.555	580.6
216.932	596
217.308	587.1
217.684	583.1
218.061	595.1
218.438	588.4
218.814	582.7
219.191	595.6
219.568	585.6
219.945	587.9
220.322	590.4
220.699	587.6
221.076	592.2
221.453	586.7
221.83	584.6
222.208	585
222.585	583.3
222.962	589.5
223.34	589.3
223.717	581.2
224.095	578.3
224.473	586.5
224.851	581.2
225.229	582.1
225.607	605.1
225.985	574
226.363	592.8
226.741	585.6
227.119	585.5
227.497	600.8
227.876	572.8
228.254	593.7
228.633	596.3
229.011	591.4
229.39	592.4
229.769	591
230.148	591.9
230.527	606.1
230.905	583.2
231.284	590.2
231.664	578.9
232.043	597.9
232.422	592.9
232.801	585.2
233.181	591.8
233.56	583.3
233.94	590.3
234.319	574
234.699	583.8
235.079	626.8
235.458	619.2
235.838	600.7
236.218	580.8
236.598	583.3
236.978	583.6
237.358	579.9
237.738	583.9
238.119	594.8
238.499	580.6
238.88	587.3
239.26	603.5
239.641	579.3
240.021	582.7
240.402	590.4
240.783	580
241.163	583.6
241.544	592.1
241.925	588.8
242.306	604.3
242.687	581.5
243.069	589.2
243.45	590.5
243.831	581.3
244.212	586.9
244.594	623.2
244.975	596.7
245.357	586.7
245.739	581
246.12	584.1
246.502	603.7
246.884	580
247.266	584.7
247.648	589.1
248.03	605
248.412	586.8
248.794	589.7
249.176	579.5
249.559	600.4
249.941	581.7
250.323	579.3
250.706	579.1
251.089	586.4
251.471	588
251.854	590.5
252.237	588.5
252.62	597.4
253.002	584
253.385	587.3
253.769	603.8
254.152	594.8
254.535	597.9
254.918	584.6
255.301	585.6
255.685	584.6
256.068	579.5
256.452	613.4
256.835	592.8
257.219	597.5
257.603	600
257.986	583.1
258.37	596
258.754	579.2
259.138	598.4
259.522	598.2
259.906	581.7
260.29	590.4
260.675	585.5
261.059	587.7
261.443	578.4
261.828	593.1
262.212	594.4
262.597	577.7
262.981	585
263.366	596.5
263.751	590.3
264.136	585
264.521	586.1
264.906	583
265.291	596.4
265.676	584.7
266.061	592.7
266.446	604.5
266.831	587.6
267.217	608.3
267.602	590.2
267.987	592.5
268.373	586.1
268.759	595.6
269.144	595.2
269.53	590.4
269.916	586.5
270.302	584.2
270.688	593.8
271.074	594.3
271.46	603.3
271.846	621.6
272.232	589.9
272.618	579.5
273.004	588.1
273.391	593.6
273.777	593.4
274.164	590.1
274.55	610.8
274.937	591.9
275.324	582.1
275.71	596.2
276.097	598.9
276.484	586.7
276.871	592.8
277.258	585.5
277.645	576.9
278.032	591.9
278.419	587.7
278.807	592.1
279.194	576.7
279.581	584.9
279.969	593.5
280.356	590.5
280.744	592.6
281.131	613.7
281.519	599.7
281.907	581
282.295	589.2
282.682	600.1
283.07	592.1
283.458	599.1
283.846	596.4
284.235	604.2
284.623	597.4
285.011	580.8
285.399	592.6
285.788	591.9
286.176	576
286.565	603.7
286.953	584.6
287.342	587.3
287.731	582.9
288.119	583.2
288.508	588.9
288.897	590.8
289.286	578.4
289.675	591.5
290.064	594.8
290.453	585.4
290.821	586.6
291.21	610.2
291.599	585.5
291.989	587.8
292.378	599.8
292.768	610
293.157	594.5
293.547	594
293.936	592.3
294.326	579.9
294.716	600.6
295.106	590.4
295.496	597.4
295.886	593.9
296.276	589.4
296.666	587.9
297.056	584.4
297.446	579.7
297.836	606.6
298.227	585.2
298.617	593.6
299.008	600.6
299.398	586.8
299.789	585.4
300.179	592
300.57	601.6
300.961	590.1
301.352	582.2
301.742	595.4
302.133	590.6
302.524	590.6
302.915	591
303.307	582.9
303.698	593.6
304.089	596
304.48	590.5
304.872	593.2
305.263	589.7
305.655	578.1
306.046	588.5
306.438	592
306.829	583.4
307.221	602.5
307.613	594.6
308.005	598
308.397	600.9
308.789	608.1
309.181	612.3
309.573	612
309.965	598.8
310.357	586
310.749	597.9
311.142	583.4
311.534	580
311.926	595.2
312.319	587.6
312.711	581.6
313.104	603.4
313.497	584.2
313.889	626.8
314.282	603.3
314.675	609
315.068	595.9
315.461	593.4
315.854	622.3
316.247	598.8
316.64	589
317.033	597.1
317.405	598.3
317.798	586
318.192	593
318.585	577.5
318.979	595.8
319.372	578.9
319.766	590.2
320.16	600.5
320.553	606.4
320.947	608.5
321.341	586.8
321.735	593.5
322.129	579.4
322.523	609.6
322.917	581.2
323.311	597.2
323.705	591.7
324.099	596.3
324.494	603.9
324.888	600.7
325.282	589.7
325.677	598.3
326.071	597.8
326.466	595.3
326.861	596
327.255	602.6
327.65	603.5
328.045	609.3
328.44	584.8
328.835	592.4
329.23	587.9
329.625	610.9
330.02	584.7
330.415	611.4
330.81	592.1
331.206	593.4
331.601	587.3
331.996	596.7
332.37	598
332.766	584.1
333.161	616.6
333.557	590.9
333.953	587.3
334.348	963.3
334.744	597.7
335.14	585
335.536	591.9
335.932	604.6
336.328	593.7
336.724	598
337.12	590.7
337.516	588.6
337.913	585.1
338.309	601.1
338.705	593.2
339.102	597.6
339.498	582.8
339.895	604.2
340.291	587.3
340.688	599.7
341.085	585.4
341.481	583.8
341.878	585.5
342.275	610.3
342.672	578.9
343.069	580
343.466	580.5
343.842	599.3
344.239	584.1
344.636	588.6
345.033	581.4
345.431	585.7
345.828	588.7
346.225	576.2
346.623	603.6
347.02	589.1
347.418	597
347.816	600.8
348.213	576.4
348.611	593.4
349.009	581.6
349.407	601.2
349.805	582.1
350.203	573.1
350.601	602
350.999	586.4
351.397	584.5
351.795	589.2
352.193	591.6
352.57	591.1
352.969	601.7
353.367	580.9
353.766	576
354.164	584.9
354.563	597.5
354.961	590.5
355.36	586.3
355.759	585.9
356.158	584.8
356.557	589.1
356.956	581.3
357.355	570.5
357.754	589.9
358.153	587.9
358.552	618.1
358.951	584.9
359.35	592.7
359.75	589.2
360.149	581.3
360.527	570.2
360.926	577
361.326	587.9
361.726	582.9
362.125	571.8
362.525	591
362.925	586
363.325	584.1
363.724	585.1
364.124	579.1
364.524	574.6
364.924	580.9
365.324	598.3
365.725	564.9
366.125	581.7
366.525	590.3
366.904	576.4
367.304	568.7
367.705	604.4
368.105	594
368.506	581
368.906	581.3
369.307	586.1
369.708	586.5
370.108	567.1
370.509	600.7
370.91	578
371.311	585.4
371.712	582.8
372.113	578
372.514	574
372.894	583.1
373.295	574.4
373.696	594.5
374.097	596.6
374.499	613.2
374.9	585.6
375.301	582.6
375.703	591.8
376.105	574.6
376.506	589.2
376.908	591.6
377.309	586.6
377.711	589.3
378.113	579.6
378.493	589.7
378.895	580.4
379.297	584.9
379.699	576.6
380.102	587.7
380.504	582.2
380.906	574.4
381.308	606.3
381.71	581
382.113	592.2
382.515	576.7
382.918	584.1
383.299	578.4
383.701	588.1
384.104	585.9
384.507	562.6
384.909	577.2
385.312	568.6
385.715	570.6
386.118	581.7
386.521	572
386.924	593.9
387.327	578.7
387.709	574.2
388.112	562.9
388.515	579.3
388.918	583.1
389.322	586.7
389.725	579.9
390.129	605.9
390.532	584.4
390.936	580.6
391.339	579.1
391.743	583.6
392.125	578.7
392.529	591.9
392.933	592.6
393.337	578.6
393.74	580.2
394.144	583.8
394.548	578.1
394.953	574.1
395.357	583.9
395.761	570.2
396.144	586.3
396.548	573.1
396.952	578.6
397.357	584.1
397.761	574.2
398.166	574.8
398.57	573.7
398.975	571.9
399.379	580.9
399.763	624.3
400.168	583.2
400.572	575.8
400.977	574.2
401.382	597.4
401.787	592.7
402.192	601
402.597	595
403.002	568.6
403.386	591.1
403.791	593.4
404.197	571.9
404.602	576
405.007	582.8
405.413	572.9
405.818	567.2
406.224	579.8
406.608	577.4
407.014	574.3
407.42	598.8
407.825	575.7
408.231	588.8
408.637	583.7
409.043	597.1
409.449	580
409.834	577.7
410.24	582.2
410.646	585.9
411.052	590.6
411.458	582.9
411.865	593.3
412.271	588.1
412.677	582.4
413.062	592.2
413.469	573.8
413.875	603.4
414.282	591.1
414.689	585.1
415.095	590.8
415.502	575
415.888	581.4
416.294	572.3
416.701	621.5
417.108	573.5
417.515	586.7
417.923	575.3
418.33	602.4
418.715	594.2
419.123	574
419.53	584.6
419.937	587.8
420.345	593.3
420.752	575.3
421.16	599
421.546	579
421.953	590.3
422.361	577.8
422.769	582.8
423.177	577.7
423.585	604.4
423.992	600.3
424.379	591.3
424.787	596.8
425.195	607.3
425.603	580.4
426.011	600.7
426.419	594.8
426.806	586.2
427.214	588.1
427.623	593.2
428.031	604.7
428.44	591.5
428.848	601.3
429.235	606.8
429.644	594
430.053	593.3
430.461	609.4
430.87	618.7
431.279	610.4
431.666	591.4
432.075	614
432.484	620.1
432.893	622.3
433.302	646.1
433.711	671.4
434.099	649
434.508	654.5
434.918	660.5
435.327	686.8
435.737	697.1
436.125	706.4
436.534	720.7
436.944	735.8
437.353	754.2
437.763	787.5
438.173	778.6
438.561	811.1
438.971	798.3
439.381	829.5
439.791	844.7
440.201	841.7
440.589	892.8
440.999	907
441.409	915.6
441.819	923.2
442.23	963.4
442.619	973.3
443.029	967.7
443.439	973.2
443.85	1006.9
444.26	1024.3
444.649	1033.7
445.06	1043.1
445.471	1036.7
445.881	1056
446.292	1077.2
446.682	1096.4
447.092	1084.7
447.503	1150
447.914	1112.3
448.325	1117.5
448.715	1123.4
449.126	1118.4
449.537	1139.9
449.948	1150.1
450.338	1162.4
450.75	1169
451.161	1180.6
451.572	1189.6
451.984	1174.3
452.374	1168
452.786	1197.7
453.197	1203
453.609	1199.8
453.999	1189.2
454.411	1193.8
454.823	1217
455.235	1201.4
455.647	1206.3
456.037	1224.6
456.449	1206.6
456.862	1213.5
457.274	1220.4
457.665	1214.8
458.077	1221.5
458.489	1233.9
458.902	1217.5
459.293	1212.2
459.705	1220.1
460.118	1219
460.53	1225.8
460.921	1230.8
461.334	1232.3
461.747	1225.2
462.16	1236.8
462.551	1247.5
462.964	1232.4
463.377	1212.9
463.79	1221.6
464.182	1224.7
464.595	1213.6
465.008	1221.9
465.421	1218.9
465.813	1218.7
466.226	1224.9
466.64	1201.8
467.053	1263.8
467.445	1234.4
467.859	1218.6
468.272	1219.8
468.686	1234.5
469.078	1210.8
469.492	1196.5
469.906	1202.3
470.298	1207
470.712	1199.9
471.126	1233.8
471.54	1186.3
471.933	1191.9
472.347	1193.4
472.761	1177.4
473.175	1172.3
473.568	1184.5
473.982	1179.7
474.397	1174.7
474.79	1183.5
475.204	1192
475.619	1168
476.033	1168.8
476.426	1174.1
476.841	1159.5
477.256	1178.3
477.649	1152.8
478.064	1154.6
478.479	1161.2
478.872	1157.7
479.287	1142.8
479.702	1147.2
480.118	1149.1
480.511	1141.7
480.927	1141.4
481.342	1135.6
481.736	1142.4
482.151	1119.8
482.566	1127.1
482.96	1127.2
483.376	1132
483.792	1115.4
484.186	1119.8
484.602	1112
485.017	1105.3
485.412	1102.8
485.827	1110.3
486.243	1104.1
486.638	1120.4
487.054	1105.4
487.47	1108.5
487.865	1089.4
488.281	1076.7
488.697	1066.3
489.092	1082.6
489.508	1059.9
489.925	1078.3
490.32	1066.6
490.736	1063.4
491.153	1073.5
491.548	1071.8
491.964	1067.4
492.381	1041.3
492.776	1046.4
493.193	1040.1
493.61	1048.3
494.006	1044.4
494.422	1043.7
494.84	1021.3
495.235	1038.8
495.652	1027
496.069	1020.8
496.465	1004.6
496.883	1007.9
497.3	1032.8
497.696	995.8
498.113	1007.2
498.509	987.7
498.927	994.7
499.344	990.4
499.741	978.3
500.158	999.5
500.576	992.1
500.973	978
501.39	970.2
501.787	957.4
502.205	967.3
502.623	960.1
503.02	951.1
503.438	952.1
503.856	949.2
504.253	952.2
504.671	954.3
505.068	940.4
505.486	939.1
505.905	960.4
506.302	932.6
506.72	936.4
507.118	910.3
507.536	925
507.955	915.6
508.352	921.1
508.771	918.4
509.169	917.5
509.587	900.7
510.006	901.8
510.404	887.3
510.823	892.2
511.221	895.9
511.64	891.4
512.038	902.1
512.457	881.7
512.877	880.4
513.275	871.1
513.694	873.9
514.092	864.8
514.512	867.5
514.91	865.7
515.33	864.4
515.749	861.5
516.148	856.4
516.568	859.4
516.966	844.4
517.386	844.3
517.785	835.7
518.205	839.5
518.603	829.2
519.024	823.6
519.444	828
519.843	843.9
520.263	832.1
520.662	830.6
521.082	823.6
521.481	822.3
521.902	817.3
522.301	820
522.722	810.1
523.121	809.2
523.542	800.5
523.963	798.5
524.362	809.1
524.783	804.8
525.183	801.5
525.604	804.2
526.003	783.7
526.425	785.1
526.824	791.4
527.246	797.4
527.646	780.8
528.067	781.4
528.467	780.7
528.888	785.5
529.289	767.7
529.71	767.8
530.11	767.9
530.532	761.3
530.932	751.4
531.354	747
531.755	793.4
532.176	764.1
532.577	755.3
532.999	750.2
533.4	748.1
533.822	750.3
534.223	742
534.645	741.8
535.046	737.9
535.468	743.7
535.869	747.7
536.292	725.9
536.693	734.4
537.115	733
537.516	723.6
537.939	728.3
538.34	746.2
538.742	746
539.165	729.3
539.566	724.2
539.989	712.9
540.391	719.5
540.814	730.1
541.216	716.4
541.639	724.3
542.041	725.1
542.464	714.6
542.866	708.3
543.268	706.8
543.691	716.9
544.093	713.8
544.517	728.5
544.919	703.9
545.343	731.7
545.745	698.7
546.147	702.7
546.571	701.9
546.974	691.8
547.398	696.5
547.8	708.7
548.224	695
548.627	684.4
549.03	702.1
549.454	681
549.857	677.3
550.281	681.9
550.684	681.2
551.087	685.8
551.512	690.1
551.915	690.7
552.34	686
552.743	671.7
553.146	683.6
553.571	681.4
553.975	690.3
554.399	669.5
554.803	718.3
555.207	669.1
555.632	658.5
556.036	668.6
556.461	659.5
556.865	668
557.268	662.3
557.694	658.5
558.098	666
558.502	671.4
558.927	653.6
559.332	656
559.736	657.6
560.162	662.8
560.566	655.7
560.992	666.7
561.396	658.5
561.801	647.7
562.227	652
562.631	651.4
563.036	644.1
563.462	654.3
563.867	656.1
564.272	643.4
564.698	647.1
565.103	631.5
565.508	664.6
565.935	649.8
566.34	650
566.745	656.6
567.172	641.7
567.577	660.4
567.982	649.5
568.409	647.3
568.815	632.5
569.22	640.4
569.626	644.4
570.053	617.9
570.459	642.1
570.865	640.4
571.292	643.9
571.698	638.4
572.104	619.4
572.531	627.8
572.937	637.2
573.343	628.2
573.75	621.3
574.177	636.4
574.583	637.9
574.99	625.2
575.396	630.4
575.824	626.4
576.231	630.7
576.637	621.5
577.065	647.6
577.472	612
577.879	618
578.286	635.3
578.714	615.1
579.121	615.8
579.528	619.6
579.935	632.7
580.364	614.4
580.771	609.2
581.178	613.5
581.585	618.1
582.014	625.3
582.421	609.4
582.829	613.5
583.236	621
583.644	605.7
584.073	617
584.481	611.7
584.889	603.8
585.296	609.7
585.726	607.5
586.134	606.1
586.542	599.7
586.95	621.6
587.358	599.3
587.787	610.4
588.196	597.2
588.604	605.8
589.012	609.1
589.421	597.3
589.851	594.3
590.259	603.8
590.668	594.3
591.076	637.2
591.485	595.8
591.894	596
592.324	613.5
592.733	614.4
593.142	585.8
593.551	597.1
593.96	595.8
594.369	585.9
594.8	588.3
595.209	594.9
595.618	582.1
596.028	588.4
596.437	585.6
596.847	592.1
597.256	596.8
597.687	596.7
598.097	589.7
598.507	584.6
598.917	589.6
599.327	598.9
599.736	592.8
600.146	601.7
600.556	590.4
600.988	604.6
601.398	584
601.808	598.5
602.219	579.6
602.629	587.3
603.039	587.9
603.45	611.6
603.86	589.2
604.271	596.2
604.703	585.7
605.114	583.9
605.525	584
605.935	592.6
606.346	600.8
606.757	589.4
607.168	580.8
607.579	572.4
607.99	590.9
608.402	584.9
608.813	585.8
609.224	578.5
609.636	576.6
610.047	576.5
610.48	582.9
610.892	586.5
611.303	584.5
611.715	579.8
612.127	576.7
612.539	576.5
612.95	584
613.362	568.6
613.774	566.8
614.186	576.7
614.599	576.9
615.011	585.3
615.423	568.7
615.835	567.5
616.248	566.2
616.66	588.5
617.073	572.7
617.485	577
617.898	588.3
618.311	582.4
618.723	579.8
619.136	607
619.549	597.5
619.962	601.2
620.375	576.1
620.788	585.6
621.201	577.6
621.614	586.2
622.028	580.2
622.441	580.9
622.854	588.8
623.268	573.2
623.681	580.6
624.095	581.6
624.509	582.1
624.922	583.5
625.336	570.8
625.728	581.8
626.142	592.8
626.556	596
626.97	585.1
627.384	576.6
627.799	576.9
628.213	586.1
628.627	571.6
629.041	573.2
629.456	571.4
629.87	578.6
630.285	586.6
630.699	584.8
631.093	570.4
631.507	574.3
631.922	581
632.337	588.9
632.752	568.4
633.167	574.2
633.582	575.5
633.997	570.7
634.412	569.5
634.806	577.4
635.221	560.2
635.637	577.8
636.052	564.5
636.468	576.5
636.883	590.5
637.299	573.8
637.715	557.8
638.109	569.9
638.525	560.2
638.941	585.4
639.357	576.4
639.773	587
640.189	566.7
640.584	570.4
641	576.1
641.416	560.6
641.832	566.5
642.249	569.1
642.665	573.2
643.06	573.8
643.477	581.4
643.894	561.7
644.31	568.8
644.727	574.4
645.123	571.4
645.54	564.3
645.957	576
646.374	577.6
646.77	572.9
647.187	596.7
647.604	569.2
648.021	557.2
648.439	565.4
648.835	575.3
649.252	572.6
649.67	569.3
650.088	570.6
650.484	573.7
650.902	572.2
651.32	577.5
651.738	566.7
652.134	569.1
652.552	585.7
652.971	575.7
653.389	568.7
653.786	579.6
654.204	568.5
654.622	563.5
655.019	570.8
655.438	574.7
655.857	576
656.275	566.7
656.673	565.3
657.091	635.8
657.51	566.3
657.908	576.8
658.327	583
658.746	555.7
659.144	567.9
659.563	579.9
659.982	572
660.38	558.9
660.8	569
661.219	577.6
661.617	572.7
662.037	574.2
662.457	585
662.855	558.3
663.275	599.4
663.695	568.2
664.094	566.3
664.514	574
664.934	564.4
665.333	573.4
665.753	563.5
666.152	555.7
666.572	559.7
666.993	585
667.392	562.8
667.812	564.7
668.212	564.6
668.632	577.3
669.053	570.8
669.453	575.3
669.874	569.8
670.273	568.2
670.694	559.2
671.116	578.6
671.515	574.8
671.937	563.1
672.337	565.2
672.758	565.3
673.158	576.8
673.58	560.9
673.98	567.5
674.402	575.1
674.824	561.7
675.224	561.8
675.646	559.4
676.047	559.2
676.469	565.1
676.869	567.1
677.292	563.8
677.693	556.8
678.115	559.4
678.516	572.1
678.939	566.8
679.34	564.5
679.762	576.4
680.164	573.7
680.586	555.3
680.988	569.4
681.411	588.7
681.812	558.7
682.236	557.2
682.637	558.2
683.061	550.4
683.462	567.2
683.864	560.9
684.288	573.9
684.69	555.8
685.114	574.1
685.516	570
685.94	558.2
686.342	569.2
686.766	557.6
687.168	560.8
687.571	577.5
687.995	560.9
688.398	551.6
688.822	560.1
689.225	578.8
689.628	579.1
690.052	557.1
690.456	564.2
690.88	562.4
691.284	556
691.687	568.7
692.112	561.6
692.515	550.7
692.919	566
693.344	562.9
693.747	555.5
694.173	553.5
694.577	571
694.98	562.3
695.406	562.8
695.81	564.3
696.214	568.2
696.64	572
697.044	563.4
697.448	570.9
697.874	558.7
698.279	561.6
698.684	546.6
699.11	556.6
699.514	559.9
699.919	558
700.324	553.6
700.75	562
701.156	566.7
701.561	563.4
701.987	569.3
702.393	571.1
702.798	574.6
703.203	565.1
703.63	564.7
704.036	554.4
704.442	566.3
704.847	553.2
705.274	557.1
705.68	562.5
706.086	564.5
706.492	553.4
706.92	554.9
707.326	570.2
707.732	555
708.139	555
708.545	549.9
708.973	553.5
709.38	562.3
709.786	550.4
710.193	572.3
710.6	569.4
711.028	559.7
711.435	557
711.842	557
712.249	554.2
712.656	556.5
713.064	570.7
713.492	552.4
713.9	563.7
714.307	564.3
714.715	559.9
715.123	564.2
715.53	568.1
715.938	570
716.367	566.3
716.775	561.3
717.184	554.8
717.592	561.7
718	572.8
718.408	594.2
718.816	604.4
719.225	563.1
719.633	560
720.042	555
720.472	563.2
720.881	575.7
721.29	567.1
721.699	551.7
722.108	565.6
722.517	556.9
722.926	555.8
723.335	566.7
723.744	563.1
724.154	561.6
724.563	563
724.973	565.3
725.382	567.8
725.792	556.4
726.202	555
726.612	577.7
727.022	559.7
727.432	557.6
779.813	558.5
780.223	598
780.634	557.2
781.044	555
781.454	560
781.865	563.9
782.276	552.5
782.686	570.6
783.097	563.3
783.508	563.1
783.919	566.1
784.33	574.4
784.741	573.8
785.152	554.8
785.563	545.6
785.974	549.9
786.386	567.1
786.776	558
787.188	557.1
787.599	559.7
788.011	564.9
788.423	561.3
788.835	551.6
789.247	549.8
789.659	557.2
790.071	558.6
790.483	596
790.874	555.9
791.286	571.7
791.699	553.8
792.111	559.8
792.524	561.9
792.937	561.1
793.349	546.9
793.741	550.4
794.154	555.6
794.567	581.5
794.98	555.2
795.393	548.3
795.785	570.5
796.198	557.8
796.612	558.5
797.026	555.1
797.439	540.8
797.831	558.2
798.245	547.2
798.659	558.9
799.073	553.4
799.487	552.2
799.88	557.6
800.294	554
800.708	563.4
801.123	562.1
801.516	575
801.93	553.4
802.345	548.4
802.76	560.2
803.153	567.7
803.568	571.5
803.983	570.1
804.377	560.3
804.792	547.7
805.207	545.7
805.601	556.6
806.016	588.1
806.432	553.8
806.826	582
807.242	571.1
807.658	561.4
808.052	555.4
808.468	551.6
808.884	554.3
809.279	555.6
809.695	565.6
810.111	580.9
810.506	565.4
810.922	576.8
811.339	558.6
811.734	569.1
812.151	555.3
812.546	558
812.963	554.2
813.38	565
813.776	561
814.193	579
814.589	554.5
815.006	559.7
815.402	559.3
815.82	550
816.237	565
816.633	562.4
817.051	547.4
817.448	561.1
817.866	553.2
818.262	579.2
818.68	556.9
819.077	550.7
819.495	557.7
819.892	593.8
820.311	548.4
820.708	551.1
821.127	553.8
821.524	569.2
821.943	562.8
822.34	579.4
822.759	558
823.157	556.3
823.576	566.3
823.974	562.9
824.393	566.9
824.791	549.3
825.189	549.1
825.609	551
826.007	562.2
826.427	547.3
826.826	549.4
827.246	567.1
827.644	546.3
828.043	566.6
828.463	544.9
828.862	563.6
829.261	555.2
829.682	552.7
830.081	557.2
830.502	550.6
830.901	561.4
831.301	547.5
831.722	539.9
832.121	554.7
832.521	552.1
832.943	554.1
833.342	552.4
833.742	549.8
834.164	553
834.564	547.2
834.965	553.8
835.386	547.9
835.787	556.2
836.188	549.9
836.588	548.1
837.01	558
837.411	547.1
837.812	564
838.213	560.3
838.636	550.6
839.037	617.5
839.438	556.3
839.84	556.2
840.263	561.4
840.664	559.2
841.066	552.2
841.468	559.5
841.891	547.9
842.293	562.4
842.695	559.1
843.098	563.2
843.5	555.9
843.902	563.2
844.326	555.2
