#lambda/nm	C1
208.295	479.4
208.67	445.6
209.045	410.4
209.419	411
209.794	596
210.169	578.1
210.544	695.2
210.919	587.3
211.295	581
211.67	584.6
212.045	585
212.421	587.3
212.796	619.6
213.172	583.6
213.547	585.1
213.923	580.2
214.299	581.9
214.675	597
215.051	594.3
215.427	593.9
215.803	610
216.179	591.4
216.555	582.7
216.932	593
217.308	589.1
217.684	582.7
218.061	593.4
218.438	594.5
218.814	588
219.191	597.2
219.568	577.9
219.945	583.4
220.322	594.7
220.699	595
221.076	595.1
221.453	587.9
221.83	584.1
222.208	583
222.585	585.4
222.962	594.7
223.34	594.5
223.717	588.5
224.095	591.4
224.473	592.8
224.851	582.2
225.229	577.8
225.607	604.9
225.985	579.7
226.363	595.8
226.741	590.5
227.119	584.5
227.497	602.7
227.876	581.2
228.254	596.6
228.633	597.9
229.011	589
229.39	593.7
229.769	590.5
230.148	596.3
230.527	606.3
230.905	588.2
231.284	588.6
231.664	585.9
232.043	601.8
232.422	595.2
232.801	582.5
233.181	600.3
233.56	590.5
233.94	590.9
234.319	581.1
234.699	587.7
235.079	627.2
235.458	627.9
235.838	601.7
236.218	581.2
236.598	579.4
236.978	583.3
237.358	588.3
237.738	581
238.119	592.9
238.499	577.8
238.88	588.3
239.26	607.8
239.641	580.2
240.021	581.7
240.402	587
240.783	584
241.163	584.6
241.544	592.9
241.925	588
242.306	599.2
242.687	586.2
243.069	593.2
243.45	597.9
243.831	582.8
244.212	584.9
244.594	627.1
244.975	597.4
245.357	590.7
245.739	582.4
246.12	587.2
246.502	602.1
246.884	590.4
247.266	582.6
247.648	587
248.03	609.3
248.412	590.5
248.794	595.3
249.176	589.8
249.559	598.4
249.941	578.3
250.323	579.2
250.706	582.7
251.089	586.9
251.471	597.5
251.854	589
252.237	590
252.62	599.1
253.002	589.2
253.385	592.7
253.769	604.2
254.152	595.7
254.535	595.3
254.918	584.7
255.301	588.6
255.685	590
256.068	579.6
256.452	611.6
256.835	601.3
257.219	594.3
257.603	602
257.986	581.7
258.37	599.7
258.754	577.4
259.138	598.2
259.522	603.2
259.906	587.2
260.29	594.6
260.675	587.6
261.059	589.3
261.443	578.6
261.828	595.2
262.212	595.1
262.597	584.3
262.981	583.7
263.366	596.9
263.751	589.5
264.136	590.3
264.521	586.1
264.906	582.3
265.291	598.1
265.676	588.1
266.061	596.1
266.446	612.1
266.831	592.2
267.217	608.5
267.602	597.4
267.987	593.1
268.373	584.9
268.759	595
269.144	598.6
269.53	592.4
269.916	587.1
270.302	592.4
270.688	592.8
271.074	593
271.46	600.7
271.846	612.9
272.232	587.2
272.618	579.2
273.004	583.5
273.391	592.7
273.777	600.4
274.164	587.4
274.55	602.3
274.937	586.1
275.324	584.5
275.71	597
276.097	601.1
276.484	577.6
276.871	593.6
277.258	595.3
277.645	579.7
278.032	585.9
278.419	587
278.807	594
279.194	582.7
279.581	585.1
279.969	591.6
280.356	595.3
280.744	585
281.131	618.5
281.519	599.9
281.907	588.1
282.295	584
282.682	602.8
283.07	587.8
283.458	595.4
283.846	601.1
284.235	601.5
284.623	599.7
285.011	584.3
285.399	589.9
285.788	591.8
286.176	583.5
286.565	603.6
286.953	592.8
287.342	587.8
287.731	590.2
288.119	581.6
288.508	588.9
288.897	587.6
289.286	576.6
289.675	592.1
290.064	604.2
290.453	586.1
290.821	593.1
291.21	604.5
291.599	587.6
291.989	588.7
292.378	588
292.768	616.8
293.157	592.8
293.547	589.7
293.936	594.6
294.326	582.9
294.716	588.7
295.106	587
295.496	598.7
295.886	603
296.276	593.7
296.666	579.9
297.056	587.1
297.446	582.3
297.836	610.4
298.227	586.4
298.617	591.3
299.008	604.8
299.398	590.9
299.789	587.1
300.179	595.3
300.57	601.6
300.961	577
301.352	586.3
301.742	599.7
302.133	591.6
302.524	591.2
302.915	596.7
303.307	582.9
303.698	598.3
304.089	595.9
304.48	586.8
304.872	598.8
305.263	587.7
305.655	587.7
306.046	587
306.438	592.1
306.829	583.8
307.221	602.2
307.613	592.3
308.005	597
308.397	601.7
308.789	616.2
309.181	614.5
309.573	606.5
309.965	602
310.357	588.7
310.749	594.6
311.142	579.9
311.534	593.1
311.926	601.4
312.319	595.3
312.711	588.8
313.104	604.8
313.497	592.3
313.889	631.8
314.282	611.1
314.675	615.2
315.068	591
315.461	595.1
315.854	620.3
316.247	598.2
316.64	596.1
317.033	589.3
317.405	600.4
317.798	596
318.192	601.4
318.585	586.7
318.979	602.8
319.372	583.1
319.766	592.4
320.16	601.6
320.553	609.4
320.947	614.3
321.341	592
321.735	589.8
322.129	577.8
322.523	620.2
322.917	579
323.311	600.4
323.705	595.7
324.099	600
324.494	607
324.888	595.3
325.282	590.4
325.677	594.8
326.071	602.7
326.466	600.5
326.861	592.8
327.255	605.6
327.65	605
328.045	608.3
328.44	595.9
328.835	596.5
329.23	586.4
329.625	616
330.02	587.9
330.415	612.2
330.81	593.4
331.206	604.6
331.601	590.9
331.996	597.4
332.37	603.6
332.766	582.1
333.161	617.1
333.557	590
333.953	594.8
334.348	976.6
334.744	591.1
335.14	584.1
335.536	584.5
335.932	605.4
336.328	590.7
336.724	596.3
337.12	589.7
337.516	594.5
337.913	590
338.309	606.4
338.705	590.7
339.102	598.5
339.498	589.5
339.895	602.9
340.291	587
340.688	601.4
341.085	586.6
341.481	587
341.878	588.8
342.275	614.5
342.672	585.3
343.069	585.4
343.466	574
343.842	604.5
344.239	584.1
344.636	591.9
345.033	575
345.431	585.8
345.828	594.8
346.225	589.4
346.623	599.4
347.02	593.3
347.418	593
347.816	605.2
348.213	581.7
348.611	593
349.009	583.5
349.407	606
349.805	580.5
350.203	577.1
350.601	601.6
350.999	588.5
351.397	579.7
351.795	589.2
352.193	606.2
352.57	597.7
352.969	603.1
353.367	577.4
353.766	580
354.164	588.4
354.563	595.6
354.961	588.6
355.36	585.2
355.759	586.5
356.158	585.7
356.557	586.7
356.956	574.1
357.355	575
357.754	593.9
358.153	595
358.552	612.2
358.951	587.7
359.35	602.3
359.75	583.2
360.149	576.3
360.527	570.7
360.926	577.5
361.326	591.9
361.726	590.6
362.125	585
362.525	594.5
362.925	583.4
363.325	590.7
363.724	585.9
364.124	580.3
364.524	578.3
364.924	584.7
365.324	600.5
365.725	568.9
366.125	585.8
366.525	589.5
366.904	575.1
367.304	572.9
367.705	598.4
368.105	599.5
368.506	577.1
368.906	586.7
369.307	580.6
369.708	584.7
370.108	566.5
370.509	588.5
370.91	580.3
371.311	577.6
371.712	585.9
372.113	577.3
372.514	566.4
372.894	582.1
373.295	576.4
373.696	590.3
374.097	590.1
374.499	615
374.9	588.1
375.301	568.9
375.703	588
376.105	574.9
376.506	590.7
376.908	588.4
377.309	584.3
377.711	578.9
378.113	582.8
378.493	582
378.895	582.6
379.297	590
379.699	570.9
380.102	587.6
380.504	590.4
380.906	578
381.308	611
381.71	581
382.113	590.8
382.515	583
382.918	592.9
383.299	579
383.701	594
384.104	584.5
384.507	570.1
384.909	578.8
385.312	574.2
385.715	577.3
386.118	580.8
386.521	570.8
386.924	589.7
387.327	576.7
387.709	565.8
388.112	568.1
388.515	584.6
388.918	588.6
389.322	588.2
389.725	577.8
390.129	601.5
390.532	593.5
390.936	579.5
391.339	576.5
391.743	593.3
392.125	580.2
392.529	593.7
392.933	596.2
393.337	585.4
393.74	577.9
394.144	581.2
394.548	577
394.953	580.1
395.357	586.5
395.761	582.7
396.144	583.9
396.548	578.5
396.952	579
397.357	580.7
397.761	582.2
398.166	579.2
398.57	578.5
398.975	569.4
399.379	592.1
399.763	633
400.168	581.1
400.572	582.4
400.977	576.9
401.382	599
401.787	586.2
402.192	602.2
402.597	600.2
403.002	573.9
403.386	589.9
403.791	601.3
404.197	578.8
404.602	582.8
405.007	587.9
405.413	584
405.818	574.7
406.224	575.1
406.608	579.9
407.014	574.8
407.42	601.3
407.825	580.5
408.231	594.8
408.637	587
409.043	601
409.449	578.6
409.834	578.4
410.24	580.4
410.646	597
411.052	594.1
411.458	591.7
411.865	588.8
412.271	589.3
412.677	582.7
413.062	591
413.469	574.5
413.875	609.2
414.282	592.8
414.689	587.1
415.095	588.5
415.502	575.2
415.888	587.7
416.294	575.8
416.701	628.1
417.108	579.2
417.515	591.4
417.923	580.7
418.33	598.7
418.715	593.2
419.123	580.5
419.53	582.9
419.937	585.4
420.345	598.6
420.752	581.1
421.16	601.4
421.546	586.7
421.953	596.7
422.361	576.6
422.769	584
423.177	584.6
423.585	603.7
423.992	604
424.379	597
424.787	595
425.195	612.2
425.603	591.5
426.011	601.3
426.419	603
426.806	590.8
427.214	593.7
427.623	598.8
428.031	599.8
428.44	592.8
428.848	604.6
429.235	615.1
429.644	590.2
430.053	594.9
430.461	614.8
430.87	628.5
431.279	609.3
431.666	605.5
432.075	617.2
432.484	628.6
432.893	631.8
433.302	662.4
433.711	690.9
434.099	666.3
434.508	675.3
434.918	685.5
435.327	716.5
435.737	730.7
436.125	739.4
436.534	759.7
436.944	791.9
437.353	799.2
437.763	831.7
438.173	822.4
438.561	863.2
438.971	857.9
439.381	895.3
439.791	916.4
440.201	918.8
440.589	962.4
440.999	979.5
441.409	993.7
441.819	990.9
442.23	1030.8
442.619	1049.4
443.029	1056.3
443.439	1070.9
443.85	1102.1
444.26	1125.2
444.649	1132.7
445.06	1148.6
445.471	1159.2
445.881	1171.3
446.292	1192.4
446.682	1209.5
447.092	1185.4
447.503	1259.5
447.914	1226.2
448.325	1226.6
448.715	1247.1
449.126	1252.9
449.537	1256.6
449.948	1262
450.338	1282.4
450.75	1300.6
451.161	1290.5
451.572	1313.2
451.984	1309.3
452.374	1298.9
452.786	1316.4
453.197	1319.4
453.609	1328.1
453.999	1322.4
454.411	1339.2
454.823	1353.7
455.235	1353.1
455.647	1354.5
456.037	1356.5
456.449	1339.7
456.862	1359.1
457.274	1350.1
457.665	1363.4
458.077	1372.3
458.489	1374.5
458.902	1365
459.293	1365.5
459.705	1381.6
460.118	1367.4
460.53	1373.6
460.921	1371.6
461.334	1368.9
461.747	1363.5
462.16	1373.5
462.551	1376.3
462.964	1367.1
463.377	1351.6
463.79	1351.5
464.182	1361.7
464.595	1338.8
465.008	1349.7
465.421	1360.2
465.813	1346.9
466.226	1356.6
466.64	1356.7
467.053	1398.7
467.445	1365.2
467.859	1355.8
468.272	1354.3
468.686	1349.8
469.078	1342.9
469.492	1328.8
469.906	1342.5
470.298	1340.4
470.712	1333.2
471.126	1364.3
471.54	1319.8
471.933	1330.5
472.347	1312.7
472.761	1323.2
473.175	1308.1
473.568	1311.5
473.982	1302.3
474.397	1310.4
474.79	1311.3
475.204	1313.7
475.619	1301.8
476.033	1305.1
476.426	1290
476.841	1289.7
477.256	1312.9
477.649	1288
478.064	1278.2
478.479	1281.3
478.872	1280.6
479.287	1263.8
479.702	1269.4
480.118	1266.6
480.511	1260.4
480.927	1242.5
481.342	1255.2
481.736	1255.5
482.151	1244.5
482.566	1257.8
482.96	1248.2
483.376	1249.2
483.792	1228.6
484.186	1234
484.602	1232.2
485.017	1231.7
485.412	1228.4
485.827	1231.3
486.243	1220.1
486.638	1237.4
487.054	1214.7
487.47	1218.6
487.865	1201.3
488.281	1189.3
488.697	1186.5
489.092	1183.2
489.508	1178.8
489.925	1189.8
490.32	1172.6
490.736	1186.8
491.153	1171.1
491.548	1171.2
491.964	1172.2
492.381	1144.8
492.776	1156.9
493.193	1151.3
493.61	1145
494.006	1135.8
494.422	1131.7
494.84	1120.1
495.235	1132.8
495.652	1110.6
496.069	1100.2
496.465	1099.3
496.883	1105.5
497.3	1124.9
497.696	1092.1
498.113	1111
498.509	1071.5
498.927	1068.8
499.344	1078.8
499.741	1060.9
500.158	1084.7
500.576	1077.2
500.973	1068
501.39	1051.5
501.787	1048
502.205	1050.6
502.623	1048.7
503.02	1031.1
503.438	1035.2
503.856	1039.3
504.253	1043.9
504.671	1033.4
505.068	1017.5
505.486	1018.2
505.905	1032
506.302	1012.5
506.72	1028.6
507.118	1002.2
507.536	995.2
507.955	990
508.352	985.8
508.771	989.2
509.169	993.2
509.587	971.7
510.006	973.2
510.404	958.9
510.823	959.2
511.221	961.2
511.64	956.5
512.038	976
512.457	947.6
512.877	949.1
513.275	938.5
513.694	933.2
514.092	935.5
514.512	937.6
514.91	920.4
515.33	926.6
515.749	912.9
516.148	914.6
516.568	915.8
516.966	905.5
517.386	909.9
517.785	907.4
518.205	904.4
518.603	895.3
519.024	890.2
519.444	892.7
519.843	896.5
520.263	887.7
520.662	888.9
521.082	875.8
521.481	874.6
521.902	863.7
522.301	866.2
522.722	878.4
523.121	859.5
523.542	854.1
523.963	857.1
524.362	850.8
524.783	849.2
525.183	847.4
525.604	846
526.003	834.4
526.425	827.3
526.824	841.5
527.246	833.8
527.646	833.4
528.067	817.5
528.467	823.4
528.888	825.1
529.289	815.5
529.71	811.5
530.11	806.5
530.532	799.6
530.932	793.6
531.354	781
531.755	823.1
532.176	797.2
532.577	791.4
532.999	788.7
533.4	786.9
533.822	801.8
534.223	777.6
534.645	777.8
535.046	768.5
535.468	783.2
535.869	778.4
536.292	772.1
536.693	764.8
537.115	769.1
537.516	758.9
537.939	762.4
538.34	780.1
538.742	768.4
539.165	760.7
539.566	763.1
539.989	755
540.391	755.8
540.814	759.9
541.216	750.2
541.639	755.7
542.041	756
542.464	752.6
542.866	733.5
543.268	735.3
543.691	747.3
544.093	752.8
544.517	766.3
544.919	728.9
545.343	758.2
545.745	730.2
546.147	735.4
546.571	729.2
546.974	718.2
547.398	733.7
547.8	737.5
548.224	726
548.627	718.4
549.03	725.4
549.454	714.2
549.857	707
550.281	708.4
550.684	707.5
551.087	723.3
551.512	715.5
551.915	719.4
552.34	707.8
552.743	703.8
553.146	713.7
553.571	702.8
553.975	721
554.399	690.8
554.803	742.2
555.207	686.4
555.632	689.8
556.036	703.2
556.461	687.5
556.865	696.6
557.268	680.7
557.694	687.1
558.098	686.5
558.502	686.6
558.927	678.2
559.332	674.2
559.736	674.7
560.162	682.9
560.566	675
560.992	678.4
561.396	674.4
561.801	672
562.227	674.7
562.631	665.4
563.036	667.4
563.462	677.3
563.867	666.8
564.272	655.3
564.698	668.2
565.103	650.8
565.508	677.7
565.935	665.2
566.34	651.6
566.745	666.9
567.172	660.1
567.577	680.5
567.982	672.5
568.409	663.2
568.815	650.1
569.22	650.7
569.626	662.2
570.053	638.3
570.459	654.4
570.865	655.8
571.292	653.2
571.698	658.9
572.104	635.5
572.531	637.8
572.937	655.5
573.343	647
573.75	641.2
574.177	644.5
574.583	644.1
574.99	640.2
575.396	637.5
575.824	637.7
576.231	635.8
576.637	631.3
577.065	658.6
577.472	629.1
577.879	633.1
578.286	645.3
578.714	620.1
579.121	633
579.528	633
579.935	634.2
580.364	626.1
580.771	618.7
581.178	621.3
581.585	628.9
582.014	634.2
582.421	622.1
582.829	621.9
583.236	631.2
583.644	617.3
584.073	620.3
584.481	626.1
584.889	614.6
585.296	629.6
585.726	618.5
586.134	610.4
586.542	616.8
586.95	639.9
587.358	611
587.787	621
588.196	599.9
588.604	612.9
589.012	611.5
589.421	604.1
589.851	599.9
590.259	618.7
590.668	604.8
591.076	645.7
591.485	607.2
591.894	608.8
592.324	623.3
592.733	623.3
593.142	594.4
593.551	601.6
593.96	634.1
594.369	595.5
594.8	602.3
595.209	597.9
595.618	594.5
596.028	595.8
596.437	600.6
596.847	606.6
597.256	605
597.687	607.6
598.097	599.4
598.507	589.6
598.917	602.6
599.327	608.2
599.736	603.4
600.146	606.5
600.556	599.6
600.988	612.1
601.398	600.1
601.808	606.4
602.219	588.4
602.629	594.5
603.039	599.1
603.45	622.6
603.86	596.9
604.271	611.6
604.703	595.3
605.114	589.6
605.525	590
605.935	598.6
606.346	612.8
606.757	595.3
607.168	597.1
607.579	589.8
607.99	601.9
608.402	586.5
608.813	593.5
609.224	580.6
609.636	577.8
610.047	578
610.48	586.2
610.892	601.7
611.303	597.1
611.715	585.7
612.127	581.1
612.539	581.9
612.95	587.4
613.362	575.2
613.774	582.3
614.186	588.7
614.599	584.7
615.011	593.1
615.423	576.5
615.835	583.8
616.248	574
616.66	590.4
617.073	580.2
617.485	581.7
617.898	593.1
618.311	593.5
618.723	580
619.136	608.7
619.549	600
619.962	604.8
620.375	587.4
620.788	588.1
621.201	575.5
621.614	587.9
622.028	581.3
622.441	585.7
622.854	603.5
623.268	575.3
623.681	582.2
624.095	584.4
624.509	589.1
624.922	590.5
625.336	572.5
625.728	587.2
626.142	590.8
626.556	600.5
626.97	589.1
627.384	577.2
627.799	588.2
628.213	591.6
628.627	581.7
629.041	577.8
629.456	584.1
629.87	581.1
630.285	590.5
630.699	591.3
631.093	576.3
631.507	582.6
631.922	578.5
632.337	594.1
632.752	571.3
633.167	582
633.582	576
633.997	577.3
634.412	570.4
634.806	582.6
635.221	566.2
635.637	594.1
636.052	568.3
636.468	586.1
636.883	597
637.299	576.8
637.715	565
638.109	578.4
638.525	569.6
638.941	584.7
639.357	581.2
639.773	585.7
640.189	571
640.584	577.3
641	575.5
641.416	567.2
641.832	570.4
642.249	568.3
642.665	576.1
643.06	580.3
643.477	584.3
643.894	565.3
644.31	575.4
644.727	566.4
645.123	573
645.54	571.1
645.957	576.5
646.374	573.6
646.77	578.8
647.187	603.2
647.604	579.6
648.021	565.1
648.439	565.6
648.835	575.4
649.252	576.5
649.67	568.5
650.088	575.8
650.484	575.5
650.902	580.4
651.32	583.1
651.738	571.7
652.134	571.9
652.552	589.9
652.971	580.2
653.389	572.9
653.786	580.4
654.204	565.7
654.622	563.3
655.019	566.7
655.438	575.6
655.857	566.4
656.275	573.5
656.673	559.5
657.091	637.4
657.51	566.4
657.908	580
658.327	582.1
658.746	561.8
659.144	568.4
659.563	585.1
659.982	576.4
660.38	559.1
660.8	569.5
661.219	579.1
661.617	582.2
662.037	572.3
662.457	579.4
662.855	568.3
663.275	599.9
663.695	570
664.094	572.4
664.514	568.5
664.934	566
665.333	574.8
665.753	563.2
666.152	559.7
666.572	562.2
666.993	580.6
667.392	567.9
667.812	564.8
668.212	565.4
668.632	578.3
669.053	560.8
669.453	573.6
669.874	567.1
670.273	569.9
670.694	565.4
671.116	576.1
671.515	573.1
671.937	572.7
672.337	561.7
672.758	567.4
673.158	573.8
673.58	561.2
673.98	570.8
674.402	585
674.824	570.2
675.224	564.9
675.646	554.9
676.047	562.7
676.469	565.2
676.869	573.8
677.292	576.1
677.693	565.3
678.115	561.4
678.516	572.5
678.939	566.4
679.34	560.7
679.762	569
680.164	571.9
680.586	561.4
680.988	566.8
681.411	592.7
681.812	563.9
682.236	563.1
682.637	558.6
683.061	558.4
683.462	572.3
683.864	564.8
684.288	573.3
684.69	558.4
685.114	576.8
685.516	572.9
685.94	560.5
686.342	571.1
686.766	558.1
687.168	559.2
687.571	581.3
687.995	574.2
688.398	555.1
688.822	564.7
689.225	578.4
689.628	578.7
690.052	564.6
690.456	572
690.88	565.7
691.284	561.6
691.687	573.3
692.112	559.3
692.515	565
692.919	564.8
693.344	570.5
693.747	560.3
694.173	560.6
694.577	576.2
694.98	567.9
695.406	566.2
695.81	565.4
696.214	571.6
696.64	569.5
697.044	567.3
697.448	574.8
697.874	563.6
698.279	563.9
698.684	553.3
699.11	557.7
699.514	566.8
699.919	563.1
700.324	562
700.75	562.9
701.156	565.2
701.561	575.2
701.987	569
702.393	574.3
702.798	576
703.203	563.1
703.63	558.5
704.036	562.1
704.442	564.9
704.847	560.8
705.274	561.7
705.68	568.2
706.086	574.1
706.492	552.7
706.92	559.6
707.326	569.8
707.732	558.7
708.139	558.3
708.545	552.1
708.973	559.4
709.38	566.2
709.786	557.5
710.193	578.8
710.6	565.1
711.028	558.1
711.435	564.5
711.842	565.5
712.249	561.3
712.656	561.4
713.064	570.8
713.492	560.9
713.9	561.1
714.307	563.7
714.715	561.5
715.123	560
715.53	565.6
715.938	572.6
716.367	562.1
716.775	561.6
717.184	552.6
717.592	553.5
718	569.1
718.408	598.1
718.816	603.8
719.225	569.9
719.633	558.5
720.042	550.8
720.472	559.2
720.881	577.4
721.29	569.1
721.699	558.4
722.108	566
722.517	562.6
722.926	556.8
723.335	569.6
723.744	561.3
724.154	564.7
724.563	564.6
724.973	566.5
725.382	563.1
725.792	559.4
726.202	558.9
726.612	573.5
727.022	563.1
727.432	560.2
779.813	558.2
780.223	606.6
780.634	559
781.044	558.7
781.454	559
781.865	574.8
782.276	554.1
782.686	571.4
783.097	560.4
783.508	556.8
783.919	561.9
784.33	570.4
784.741	574.9
785.152	550.7
785.563	553.3
785.974	556.7
786.386	569.9
786.776	561.7
787.188	561
787.599	553.3
788.011	568.4
788.423	565.6
788.835	560.9
789.247	554.8
789.659	553.8
790.071	554.7
790.483	604.5
790.874	560.4
791.286	565.5
791.699	556.7
792.111	560.4
792.524	565.8
792.937	558
793.349	556.2
793.741	556.1
794.154	557.4
794.567	579.8
794.98	557.6
795.393	553
795.785	574.9
796.198	557.7
796.612	558.7
797.026	557.2
797.439	545
797.831	563.1
798.245	551.9
798.659	556.5
799.073	554.3
799.487	548.5
799.88	560.5
800.294	559.4
800.708	561.9
801.123	561.3
801.516	576.9
801.93	552.6
802.345	548.7
802.76	557.2
803.153	568.7
803.568	562.6
803.983	566
804.377	563.4
804.792	554.6
805.207	545.2
805.601	560.2
806.016	592.6
806.432	551.2
806.826	585.7
807.242	572
807.658	561.1
808.052	556.3
808.468	556.1
808.884	550.6
809.279	559.4
809.695	578.2
810.111	579.8
810.506	563.3
810.922	573
811.339	554.9
811.734	570.3
812.151	556.6
812.546	551.3
812.963	553.1
813.38	563.3
813.776	561.1
814.193	578.8
814.589	552.7
815.006	561.1
815.402	555.7
815.82	550.7
816.237	559.8
816.633	557.9
817.051	552.2
817.448	559
817.866	548.5
818.262	576.2
818.68	552.9
819.077	561.4
819.495	557
819.892	596.6
820.311	554.8
820.708	552.1
821.127	555.7
821.524	571.5
821.943	565.3
822.34	572.3
822.759	562.8
823.157	565.2
823.576	571.8
823.974	565.8
824.393	564.8
824.791	558.1
825.189	553.1
825.609	556.7
826.007	560.2
826.427	546.8
826.826	559.6
827.246	565.1
827.644	547.8
828.043	573.1
828.463	558.9
828.862	569.8
829.261	560.5
829.682	549.8
830.081	566.3
830.502	548.7
830.901	558.6
831.301	552.5
831.722	546.5
832.121	559.8
832.521	550.7
832.943	562.4
833.342	553.9
833.742	552.4
834.164	550
834.564	545.7
834.965	562.6
835.386	556.5
835.787	554.2
836.188	556.5
836.588	557.4
837.01	558.1
837.411	552.3
837.812	563.2
838.213	558.1
838.636	553.1
839.037	623.9
839.438	560.3
839.84	560.5
840.263	565.3
840.664	563.1
841.066	559.6
841.468	561.8
841.891	556.8
842.293	569.5
842.695	564.5
843.098	561.1
