#lambda/nm	C1
208.295	483.8
208.67	449.3
209.045	411.7
209.419	413.4
209.794	597.7
210.169	574.6
210.544	692.8
210.919	600.2
211.295	580.6
211.67	592.8
212.045	580.1
212.421	585
212.796	625
213.172	582.9
213.547	582.1
213.923	588.1
214.299	583.7
214.675	599.3
215.051	594.3
215.427	589.7
215.803	609.1
216.179	590.6
216.555	571.4
216.932	589
217.308	589.7
217.684	585.8
218.061	592.7
218.438	589.9
218.814	578.3
219.191	591.8
219.568	579.7
219.945	588.9
220.322	594.6
220.699	589.9
221.076	594.6
221.453	588.6
221.83	580.6
222.208	582.4
222.585	584.6
222.962	589.4
223.34	592
223.717	589.6
224.095	578.1
224.473	588.1
224.851	577.8
225.229	578.2
225.607	600.7
225.985	575.1
226.363	590.6
226.741	585.6
227.119	588.4
227.497	599.1
227.876	576.7
228.254	594.7
228.633	596
229.011	590.7
229.39	591.8
229.769	590.4
230.148	596.3
230.527	601.3
230.905	592.7
231.284	590.1
231.664	588.9
232.043	599.8
232.422	595.9
232.801	585.5
233.181	592.5
233.56	582.3
233.94	591.5
234.319	580.8
234.699	582.9
235.079	633
235.458	625.1
235.838	600.4
236.218	575.6
236.598	573
236.978	587.9
237.358	585.4
237.738	584
238.119	595.6
238.499	574
238.88	591.1
239.26	600.4
239.641	582.6
240.021	587.7
240.402	587.9
240.783	583.8
241.163	582.7
241.544	588.4
241.925	587.4
242.306	601.7
242.687	586.1
243.069	592.3
243.45	596
243.831	582.3
244.212	588.3
244.594	622.6
244.975	598.9
245.357	592.9
245.739	582.6
246.12	589.4
246.502	595.8
246.884	584.6
247.266	581.3
247.648	588.9
248.03	606
248.412	589
248.794	597.5
249.176	584.6
249.559	591.3
249.941	577.3
250.323	584.5
250.706	578.3
251.089	589
251.471	585.5
251.854	587.9
252.237	586.4
252.62	598.3
253.002	591.2
253.385	586.5
253.769	600.8
254.152	585.9
254.535	594.7
254.918	576.9
255.301	586.1
255.685	586
256.068	586.6
256.452	606.9
256.835	591.6
257.219	596.5
257.603	598.5
257.986	578.5
258.37	593.6
258.754	581.7
259.138	599.6
259.522	597.3
259.906	583.4
260.29	594.2
260.675	582.9
261.059	585.4
261.443	575.6
261.828	592.9
262.212	592.9
262.597	575.2
262.981	580.9
263.366	595.9
263.751	588.5
264.136	583.3
264.521	583.9
264.906	585.6
265.291	591.2
265.676	583.1
266.061	591.6
266.446	604.3
266.831	587.9
267.217	608.1
267.602	596.9
267.987	591.1
268.373	583.5
268.759	595.5
269.144	593.3
269.53	588.4
269.916	585.7
270.302	584.6
270.688	591.3
271.074	592
271.46	601
271.846	617.2
272.232	587
272.618	585.8
273.004	592.4
273.391	590.8
273.777	598.8
274.164	590.6
274.55	605.7
274.937	590.9
275.324	588.9
275.71	592.9
276.097	594
276.484	582.7
276.871	591.4
277.258	595.3
277.645	581.6
278.032	588.7
278.419	582.4
278.807	595.6
279.194	588.6
279.581	579.3
279.969	591.6
280.356	599.1
280.744	592.5
281.131	613.3
281.519	599.3
281.907	585
282.295	584.1
282.682	598.1
283.07	591.5
283.458	597.8
283.846	604.5
284.235	598.8
284.623	603.8
285.011	578.6
285.399	587.1
285.788	588.7
286.176	579.9
286.565	602
286.953	579.1
287.342	585.1
287.731	580.2
288.119	577.1
288.508	583.9
288.897	583.4
289.286	574.4
289.675	588.6
290.064	597.2
290.453	584.7
290.821	585.6
291.21	604.9
291.599	580.9
291.989	589
292.378	595.7
292.768	603.5
293.157	592.2
293.547	592.2
293.936	586.6
294.326	582.3
294.716	590.1
295.106	582.4
295.496	600.8
295.886	595.7
296.276	586.3
296.666	588.6
297.056	583.4
297.446	579.9
297.836	608.9
298.227	587.9
298.617	589.3
299.008	604.5
299.398	588.6
299.789	587.6
300.179	591.9
300.57	606
300.961	578.2
301.352	587.8
301.742	601.5
302.133	593.8
302.524	589
302.915	593.1
303.307	579
303.698	598.9
304.089	601.8
304.48	587
304.872	594.7
305.263	594
305.655	584.1
306.046	592.6
306.438	594.1
306.829	579.8
307.221	609.5
307.613	595.1
308.005	598.7
308.397	606.4
308.789	614.5
309.181	615.6
309.573	610.1
309.965	603.6
310.357	589.4
310.749	591.9
311.142	583.4
311.534	585.4
311.926	602.9
312.319	590.2
312.711	579.9
313.104	595.9
313.497	583.9
313.889	622.9
314.282	609.2
314.675	616.7
315.068	594.8
315.461	599.5
315.854	620.8
316.247	596.9
316.64	588.2
317.033	591
317.405	603.3
317.798	591.8
318.192	602.6
318.585	590.3
318.979	596.8
319.372	582.1
319.766	588.6
320.16	597.5
320.553	604.6
320.947	609
321.341	586.4
321.735	592.3
322.129	581.1
322.523	615.8
322.917	585.5
323.311	599.2
323.705	592.5
324.099	599.1
324.494	603.7
324.888	596.7
325.282	594.5
325.677	596.7
326.071	594.7
326.466	599
326.861	596.7
327.255	598.7
327.65	598.1
328.045	603.7
328.44	589.6
328.835	595
329.23	589.3
329.625	615.5
330.02	587.2
330.415	609
330.81	596.7
331.206	596.8
331.601	588.5
331.996	601.7
332.37	595.7
332.766	579.3
333.161	610.8
333.557	587.5
333.953	594.5
334.348	964.2
334.744	587.7
335.14	587.8
335.536	582.9
335.932	594.5
336.328	588.6
336.724	594.9
337.12	598.8
337.516	591.5
337.913	590.2
338.309	601.2
338.705	590.4
339.102	604.1
339.498	586.8
339.895	606.4
340.291	584.6
340.688	599.3
341.085	586.4
341.481	588.8
341.878	588.2
342.275	602.9
342.672	579.3
343.069	581.4
343.466	578.2
343.842	598.1
344.239	581.9
344.636	590.4
345.033	576.1
345.431	586.3
345.828	593.4
346.225	584.1
346.623	595.9
347.02	586.1
347.418	595.2
347.816	605.5
348.213	576.8
348.611	589.9
349.009	583.4
349.407	599.2
349.805	580.7
350.203	577.5
350.601	600.2
350.999	584.2
351.397	578.8
351.795	582.7
352.193	596.8
352.57	594.6
352.969	597.9
353.367	576
353.766	581.1
354.164	591.8
354.563	600.9
354.961	582.8
355.36	584.3
355.759	589.3
356.158	581.7
356.557	585.7
356.956	578
357.355	574.9
357.754	589.5
358.153	589.5
358.552	607.8
358.951	584.3
359.35	592.9
359.75	581.2
360.149	574.3
360.527	572
360.926	582.4
361.326	587
361.726	587.5
362.125	577
362.525	589.2
362.925	580.4
363.325	585.4
363.724	585
364.124	584.5
364.524	576.3
364.924	586.2
365.324	590.9
365.725	569.6
366.125	590.6
366.525	584.5
366.904	575.8
367.304	565
367.705	602.6
368.105	598
368.506	585.4
368.906	585.1
369.307	586.9
369.708	590.3
370.108	576.9
370.509	593.4
370.91	575.5
371.311	584.3
371.712	586.5
372.113	576.8
372.514	573.4
372.894	582.8
373.295	581.6
373.696	590.5
374.097	591.2
374.499	616.1
374.9	590.1
375.301	580.9
375.703	585.6
376.105	573
376.506	583.8
376.908	585.9
377.309	582.2
377.711	585.1
378.113	577.7
378.493	582.1
378.895	581.8
379.297	585.7
379.699	575.1
380.102	585.6
380.504	584.2
380.906	575.2
381.308	600.3
381.71	578.3
382.113	588.1
382.515	580.3
382.918	578.6
383.299	576
383.701	585.5
384.104	579.5
384.507	564.5
384.909	581.2
385.312	566.9
385.715	571.7
386.118	573.7
386.521	566.5
386.924	585.9
387.327	575.9
387.709	572.6
388.112	566.8
388.515	577.2
388.918	585
389.322	584.2
389.725	578.7
390.129	599.5
390.532	587.9
390.936	579.7
391.339	579.6
391.743	583.5
392.125	571.5
392.529	596.1
392.933	594.8
393.337	585.8
393.74	578.1
394.144	579.5
394.548	574.6
394.953	579.3
395.357	591.2
395.761	580.2
396.144	574.6
396.548	581
396.952	586.3
397.357	578.8
397.761	580.5
398.166	581
398.57	576.7
398.975	576.9
399.379	584
399.763	634
400.168	583.3
400.572	579.5
400.977	579.6
401.382	595.8
401.787	593.9
402.192	603.3
402.597	598.2
403.002	568.7
403.386	596.7
403.791	600.4
404.197	578
404.602	577.4
405.007	586.7
405.413	577
405.818	574
406.224	576.6
406.608	581.1
407.014	575.6
407.42	599.6
407.825	580.6
408.231	594.3
408.637	585.1
409.043	594.4
409.449	576.3
409.834	577.5
410.24	584.4
410.646	588.6
411.052	594
411.458	590.8
411.865	591.6
412.271	595.5
412.677	586.5
413.062	588.5
413.469	578.3
413.875	605.4
414.282	593.9
414.689	585.9
415.095	589.5
415.502	570.3
415.888	587.4
416.294	570.7
416.701	623.3
417.108	575.4
417.515	592
417.923	584.5
418.33	604.5
418.715	587.2
419.123	581.1
419.53	576.5
419.937	590.9
420.345	596.4
420.752	578.8
421.16	594.6
421.546	583.4
421.953	590.7
422.361	578.5
422.769	585.2
423.177	577.9
423.585	609.6
423.992	607.8
424.379	596.6
424.787	600.8
425.195	604.8
425.603	586.9
426.011	602.5
426.419	594.2
426.806	593.6
427.214	588.1
427.623	599.1
428.031	604.9
428.44	592.8
428.848	597.3
429.235	608
429.644	591.3
430.053	592.8
430.461	611.8
430.87	630.7
431.279	609.9
431.666	604.2
432.075	622.2
432.484	632.9
432.893	629.5
433.302	661.7
433.711	697.9
434.099	674
434.508	677.5
434.918	686.9
435.327	717.1
435.737	730.6
436.125	746.9
436.534	765.9
436.944	790.9
437.353	810.5
437.763	850.8
438.173	836.6
438.561	876.4
438.971	870.4
439.381	905.7
439.791	934.5
440.201	931.7
440.589	977.9
440.999	1005.1
441.409	1024.4
441.819	1020.2
442.23	1073.9
442.619	1080
443.029	1086
443.439	1105.1
443.85	1130.2
444.26	1149.9
444.649	1165.7
445.06	1170.7
445.471	1191.8
445.881	1210.6
446.292	1240.1
446.682	1256.8
447.092	1228.8
447.503	1296.9
447.914	1267.7
448.325	1281.5
448.715	1287.3
449.126	1296
449.537	1297.9
449.948	1311.7
450.338	1333.1
450.75	1339.6
451.161	1347.4
451.572	1358.1
451.984	1355.8
452.374	1362
452.786	1363.8
453.197	1383.6
453.609	1386.8
453.999	1360.4
454.411	1389.6
454.823	1391.2
455.235	1396.5
455.647	1397.3
456.037	1402.9
456.449	1388.8
456.862	1395.9
457.274	1401.8
457.665	1408.4
458.077	1415.2
458.489	1419.7
458.902	1401
459.293	1400.4
459.705	1402.8
460.118	1394.9
460.53	1395.1
460.921	1416.1
461.334	1425.6
461.747	1405.2
462.16	1432.5
462.551	1423.8
462.964	1414.6
463.377	1391.3
463.79	1401.4
464.182	1404.7
464.595	1398.7
465.008	1401.6
465.421	1391.2
465.813	1391
466.226	1397.1
466.64	1399
467.053	1442.6
467.445	1412.3
467.859	1400.4
468.272	1400.3
468.686	1411.1
469.078	1394
469.492	1373.4
469.906	1394.8
470.298	1378.9
470.712	1378.1
471.126	1404.3
471.54	1355
471.933	1382
472.347	1358.7
472.761	1362.5
473.175	1362.2
473.568	1362
473.982	1354.7
474.397	1357.6
474.79	1353.4
475.204	1342.4
475.619	1328.2
476.033	1343.9
476.426	1331.6
476.841	1317.5
477.256	1336.4
477.649	1310.8
478.064	1297
478.479	1298.6
478.872	1301.2
479.287	1295.1
479.702	1299.1
480.118	1302.6
480.511	1292.5
480.927	1283.6
481.342	1279.6
481.736	1285.4
482.151	1269.2
482.566	1290.5
482.96	1275.5
483.376	1287.4
483.792	1264.2
484.186	1271.7
484.602	1256.4
485.017	1265
485.412	1246.9
485.827	1250.1
486.243	1242.8
486.638	1264.5
487.054	1260.8
487.47	1254.5
487.865	1233.3
488.281	1229.3
488.697	1221.9
489.092	1217.8
489.508	1201.7
489.925	1229.1
490.32	1198.6
490.736	1200.7
491.153	1207.2
491.548	1199.9
491.964	1196.1
492.381	1178.9
492.776	1188.1
493.193	1180
493.61	1179.9
494.006	1174.8
494.422	1176.5
494.84	1155.2
495.235	1162.1
495.652	1159.7
496.069	1151.3
496.465	1139.6
496.883	1132.1
497.3	1147.8
497.696	1117.1
498.113	1123
498.509	1108.1
498.927	1099.3
499.344	1098.4
499.741	1097.7
500.158	1107.9
500.576	1101.2
500.973	1085.4
501.39	1075.5
501.787	1059.7
502.205	1065.6
502.623	1053.8
503.02	1053
503.438	1049.3
503.856	1056.4
504.253	1060.2
504.671	1042.3
505.068	1042.8
505.486	1039.2
505.905	1048.6
506.302	1035.9
506.72	1032.1
507.118	1008.8
507.536	1020.1
507.955	1011.8
508.352	1012.1
508.771	1012.7
509.169	1003.4
509.587	987.4
510.006	988.5
510.404	974
510.823	974.7
511.221	978.2
511.64	970.2
512.038	983.4
512.457	963.6
512.877	956.3
513.275	953.7
513.694	948
514.092	949.1
514.512	959.4
514.91	941.1
515.33	941.5
515.749	934.6
516.148	935.8
516.568	937.1
516.966	928.9
517.386	916.3
517.785	915.8
518.205	908.6
518.603	909.6
519.024	904.3
519.444	910.9
519.843	911.6
520.263	905.9
520.662	903.3
521.082	885
521.481	892.8
521.902	886
522.301	878.5
522.722	881.2
523.121	876.7
523.542	866
523.963	864.2
524.362	865.7
524.783	862.4
525.183	857.4
525.604	849.7
526.003	845.2
526.425	844.5
526.824	848
527.246	854.6
527.646	840.2
528.067	832.3
528.467	831.1
528.888	834.1
529.289	822.4
529.71	822
530.11	813.1
530.532	811.6
530.932	800.5
531.354	803.3
531.755	838.1
532.176	811.5
532.577	792.7
532.999	794.5
533.4	789.4
533.822	798.6
534.223	791.2
534.645	784.2
535.046	781.3
535.468	781.1
535.869	793.9
536.292	767
536.693	779.5
537.115	772.8
537.516	771.4
537.939	764.3
538.34	790.3
538.742	783.7
539.165	775.3
539.566	759.7
539.989	762.8
540.391	757.3
540.814	764.6
541.216	766.1
541.639	758.4
542.041	769.5
542.464	752.3
542.866	748.7
543.268	751.5
543.691	751
544.093	758.3
544.517	761.6
544.919	735
545.343	755.2
545.745	732.1
546.147	739.4
546.571	735
546.974	727
547.398	728
547.8	744.3
548.224	726
548.627	714.1
549.03	734.4
549.454	714.1
549.857	706.9
550.281	715.7
550.684	722.6
551.087	729.9
551.512	716.3
551.915	716.2
552.34	712.1
552.743	705.8
553.146	709.2
553.571	706.7
553.975	723
554.399	698.7
554.803	742
555.207	694.7
555.632	687.2
556.036	695.5
556.461	691.6
556.865	695.6
557.268	680
557.694	690.2
558.098	692.3
558.502	687.8
558.927	679.9
559.332	683.4
559.736	681.9
560.162	686
560.566	681.3
560.992	682.1
561.396	684.5
561.801	670.2
562.227	669.2
562.631	675.7
563.036	667.4
563.462	685.3
563.867	673.9
564.272	655.4
564.698	680.5
565.103	654.3
565.508	681.5
565.935	662.3
566.34	658.1
566.745	669.5
567.172	660.8
567.577	682.9
567.982	669.2
568.409	661.4
568.815	648
569.22	658.8
569.626	663
570.053	646.5
570.459	657
570.865	656.4
571.292	655.4
571.698	645
572.104	632.8
572.531	637.1
572.937	653.3
573.343	644.7
573.75	638.8
574.177	637.3
574.583	644.6
574.99	637.6
575.396	643.8
575.824	636
576.231	645.2
576.637	629.7
577.065	664.7
577.472	636.3
577.879	630.9
578.286	649.4
578.714	624.1
579.121	632.3
579.528	636.1
579.935	636
580.364	618.1
580.771	616
581.178	625
581.585	630.9
582.014	638.5
582.421	625.9
582.829	625.9
583.236	634.1
583.644	620.6
584.073	619.5
584.481	620.6
584.889	621
585.296	626.7
585.726	622.9
586.134	612.1
586.542	612.6
586.95	642.1
587.358	603
587.787	617.1
588.196	607.6
588.604	615.4
589.012	619.5
589.421	607
589.851	611
590.259	617.2
590.668	611.9
591.076	647.4
591.485	605.4
591.894	610.6
592.324	620.7
592.733	621.7
593.142	598.5
593.551	606.9
593.96	612.2
594.369	599.6
594.8	606
595.209	605.3
595.618	590
596.028	595.2
596.437	599.6
596.847	601.3
597.256	608.2
597.687	610.8
598.097	597.8
598.507	591.2
598.917	602.9
599.327	611.2
599.736	602.6
600.146	612.9
600.556	600.7
600.988	610.1
601.398	587.7
601.808	599.1
602.219	591.4
602.629	594.2
603.039	592.8
603.45	613.8
603.86	594.8
604.271	603.3
604.703	594
605.114	593.5
605.525	592.9
605.935	593.8
606.346	610.5
606.757	594.4
607.168	592.9
607.579	582.4
607.99	601.5
608.402	589.1
608.813	591.8
609.224	586
609.636	578.6
610.047	583.7
610.48	588.4
610.892	595.6
611.303	597.8
611.715	584.7
612.127	582.2
612.539	585.4
612.95	582.3
613.362	577.3
613.774	574.5
614.186	577.7
614.599	582.6
615.011	587.4
615.423	578.1
615.835	588.1
616.248	576.2
616.66	592.2
617.073	575
617.485	584.1
617.898	591.2
618.311	587.2
618.723	581.5
619.136	618.5
619.549	597.7
619.962	608.6
620.375	585.3
620.788	592.1
621.201	577
621.614	591
622.028	580.4
622.441	585.6
622.854	592.7
623.268	577.3
623.681	582.8
624.095	579.2
624.509	594.2
624.922	589.3
625.336	570.8
625.728	583.6
626.142	589.7
626.556	594.8
626.97	587.1
627.384	578.4
627.799	583.3
628.213	587.9
628.627	576.2
629.041	571.4
629.456	579.5
629.87	579.6
630.285	580.8
630.699	591.9
631.093	579
631.507	587.7
631.922	577.4
632.337	586.7
632.752	566.3
633.167	576.9
633.582	574.3
633.997	571.1
634.412	569.2
634.806	579.2
635.221	571.1
635.637	588.3
636.052	565.7
636.468	578.9
636.883	592
637.299	572.9
637.715	562.8
638.109	574.2
638.525	556.6
638.941	585.6
639.357	577.2
639.773	589.9
640.189	571.4
640.584	568.6
641	575
641.416	564.9
641.832	572.8
642.249	572
642.665	574.9
643.06	582.3
643.477	581.5
643.894	567.2
644.31	567.5
644.727	571
645.123	567.7
645.54	560.7
645.957	568.7
646.374	578.8
646.77	571.5
647.187	602.4
647.604	569.3
648.021	561.3
648.439	561.8
648.835	575.7
649.252	569.1
649.67	573.4
650.088	570.7
650.484	572.2
650.902	580.7
651.32	575.6
651.738	567.3
652.134	572.4
652.552	582.6
652.971	576.4
653.389	569.8
653.786	586.6
654.204	575.9
654.622	567.5
655.019	568.8
655.438	577.2
655.857	574.9
656.275	570.8
656.673	569.1
657.091	639.7
657.51	566.1
657.908	577
658.327	584.3
658.746	561.6
659.144	567.5
659.563	584.2
659.982	569.6
660.38	564.6
660.8	573
661.219	582.3
661.617	571.5
662.037	571.4
662.457	580.9
662.855	561.8
663.275	595.5
663.695	570
664.094	563.2
664.514	569.3
664.934	563.9
665.333	571.3
665.753	561.9
666.152	562.7
666.572	559.9
666.993	572.9
667.392	558.4
667.812	563.9
668.212	559.4
668.632	576.1
669.053	561.5
669.453	565.6
669.874	567.8
670.273	568.1
670.694	557.6
671.116	572.4
671.515	571.5
671.937	558.4
672.337	563
672.758	563.8
673.158	570.4
673.58	559.8
673.98	571.2
674.402	573
674.824	562.4
675.224	565.3
675.646	558.3
676.047	556.7
676.469	570
676.869	573.8
677.292	572.9
677.693	559.2
678.115	563.2
678.516	570.8
678.939	574
679.34	565.9
679.762	575.2
680.164	567.9
680.586	561.2
680.988	570.7
681.411	590.6
681.812	562.2
682.236	555.3
682.637	556.2
683.061	556.4
683.462	568
683.864	565.3
684.288	575.5
684.69	558.2
685.114	573.1
685.516	567.4
685.94	556.6
686.342	570.8
686.766	564.5
687.168	565.8
687.571	579.6
687.995	562.6
688.398	555.6
688.822	560.6
689.225	581.4
689.628	583
690.052	564.5
690.456	570
690.88	567.7
691.284	562.7
691.687	574.1
692.112	557.7
692.515	558.9
692.919	564.8
693.344	567.6
693.747	558.5
694.173	560.7
694.577	574.6
694.98	564
695.406	560.3
695.81	563.4
696.214	563.5
696.64	567.8
697.044	565.7
697.448	571.4
697.874	564.7
698.279	562.2
698.684	555.6
699.11	555.5
699.514	563.3
699.919	562.1
700.324	553.9
700.75	564
701.156	567.8
701.561	571.7
701.987	570.8
702.393	572.6
702.798	574.9
703.203	567.7
703.63	556.7
704.036	556
704.442	561
704.847	555.5
705.274	554.5
705.68	566.7
706.086	571.9
706.492	553.6
706.92	559.6
707.326	569.2
707.732	558.1
708.139	553.6
708.545	555.6
708.973	556.6
709.38	564.6
709.786	547.7
710.193	576.5
710.6	562.2
711.028	555.8
711.435	559.5
711.842	563.3
712.249	556.1
712.656	557
713.064	566.1
713.492	556.8
713.9	564.4
714.307	566.7
714.715	564.6
715.123	561.7
715.53	561.3
715.938	572.1
716.367	564.1
716.775	562.3
717.184	555.6
717.592	562.1
718	572.8
718.408	587.1
718.816	603.8
719.225	560.7
719.633	563.6
720.042	559.1
720.472	559.2
720.881	578.3
721.29	563.1
721.699	547.9
722.108	559.5
722.517	560.2
722.926	552.5
723.335	567.3
723.744	561.4
724.154	561.9
724.563	559.7
724.973	564.3
725.382	563.5
725.792	556.4
726.202	550.2
726.612	567.1
727.022	558.4
727.432	558.8
779.813	554.6
780.223	599.6
780.634	555.7
781.044	556.7
781.454	557.4
781.865	571.7
782.276	555.1
782.686	568.4
783.097	559.8
783.508	557.9
783.919	563
784.33	572.7
784.741	571.9
785.152	554.7
785.563	549.9
785.974	547.1
786.386	569.4
786.776	556.2
787.188	561.4
787.599	551.5
788.011	569.4
788.423	566
788.835	553.5
789.247	545.8
789.659	552.8
790.071	554.3
790.483	595.3
790.874	562
791.286	566.3
791.699	556.4
792.111	560
792.524	562.7
792.937	558.1
793.349	547.5
793.741	555.9
794.154	558.6
794.567	573.1
794.98	554.1
795.393	552.1
795.785	577.7
796.198	558.6
796.612	559.5
797.026	563.6
797.439	542.8
797.831	563.6
798.245	546
798.659	564.3
799.073	548.5
799.487	554.3
799.88	558.5
800.294	555.7
800.708	565.4
801.123	555.8
801.516	577
801.93	552.1
802.345	546.7
802.76	557.9
803.153	574.6
803.568	572.4
803.983	569
804.377	561.8
804.792	550.7
805.207	545.4
805.601	558.9
806.016	591.3
806.432	551.3
806.826	582.8
807.242	571.8
807.658	559.1
808.052	554.5
808.468	554.4
808.884	548.9
809.279	558.2
809.695	566.2
810.111	579.9
810.506	558.5
810.922	574.3
811.339	550.7
811.734	567.4
812.151	548.1
812.546	547
812.963	554.3
813.38	557.6
813.776	551
814.193	572
814.589	547.5
815.006	560.9
815.402	549.1
815.82	546.8
816.237	552.2
816.633	557.6
817.051	542.6
817.448	558.1
817.866	546.1
818.262	577
818.68	554.4
819.077	554.7
819.495	557.6
819.892	598.5
820.311	545.9
820.708	550.2
821.127	555.4
821.524	564.8
821.943	554.2
822.34	575.2
822.759	559
823.157	558.4
823.576	569.9
823.974	565
824.393	565.7
824.791	551.2
825.189	549.1
825.609	559.7
826.007	554.2
826.427	551.1
826.826	557.6
827.246	564.8
827.644	544.3
828.043	569.1
828.463	555.9
828.862	567.3
829.261	564.9
829.682	548.1
830.081	564.2
830.502	556.3
830.901	563.3
831.301	554.6
831.722	543.4
832.121	552.4
832.521	555.4
832.943	561.1
833.342	563.2
833.742	547.7
834.164	553.1
834.564	546.6
834.965	560.4
835.386	552.8
835.787	558.5
836.188	554.7
836.588	560.1
837.01	553.5
837.411	547.9
837.812	567.7
838.213	556.8
838.636	553.8
839.037	620.2
839.438	564.9
839.84	561.5
840.263	562.1
840.664	560.2
841.066	554.4
841.468	552.3
841.891	560
842.293	565.3
842.695	559.1
