#lambda/nm	C1
208.295	484.8
208.67	448
209.045	414.3
209.419	414.8
209.794	601.3
210.169	577.7
210.544	700.6
210.919	599.3
211.295	583.1
211.67	600.7
212.045	591.1
212.421	592.2
212.796	629.5
213.172	585.1
213.547	595.2
213.923	593.4
214.299	585.8
214.675	597.3
215.051	598.3
215.427	601.8
215.803	608.8
216.179	597.8
216.555	586.6
216.932	602.7
217.308	594.2
217.684	591.7
218.061	597.5
218.438	589.5
218.814	591.4
219.191	602.3
219.568	583.7
219.945	585.5
220.322	596.3
220.699	594.6
221.076	604.7
221.453	597.4
221.83	582.6
222.208	586.5
222.585	588.8
222.962	595.3
223.34	598.7
223.717	595.9
224.095	591.5
224.473	596
224.851	587.4
225.229	585.6
225.607	613.9
225.985	585.5
226.363	600.3
226.741	593
227.119	594.9
227.497	612.1
227.876	579.9
228.254	597.1
228.633	593.7
229.011	595.9
229.39	599.7
229.769	593.6
230.148	598.6
230.527	613.7
230.905	595
231.284	599.3
231.664	589
232.043	603.3
232.422	596.8
232.801	589.9
233.181	597.8
233.56	592.3
233.94	589.2
234.319	577.5
234.699	587.1
235.079	629.6
235.458	630.1
235.838	611.1
236.218	585.4
236.598	583.4
236.978	585.9
237.358	581.3
237.738	585.7
238.119	596.3
238.499	585.2
238.88	593.5
239.26	605.8
239.641	578.5
240.021	587.5
240.402	598.4
240.783	591.1
241.163	594.3
241.544	594.9
241.925	593.3
242.306	608.9
242.687	586.3
243.069	592.2
243.45	596.6
243.831	589.4
244.212	589.5
244.594	623.4
244.975	598.9
245.357	599.5
245.739	585.1
246.12	592.8
246.502	607.1
246.884	592
247.266	594.3
247.648	597.4
248.03	612.9
248.412	591.9
248.794	599.1
249.176	587.3
249.559	598.7
249.941	586.4
250.323	586.3
250.706	586.7
251.089	596.1
251.471	599.1
251.854	598.1
252.237	599.7
252.62	607
253.002	597.9
253.385	592
253.769	607.7
254.152	595
254.535	600.7
254.918	590
255.301	592.2
255.685	589.5
256.068	588.6
256.452	619.4
256.835	600.7
257.219	600.4
257.603	599.2
257.986	584.9
258.37	595.3
258.754	585
259.138	596.2
259.522	600.4
259.906	589.8
260.29	595.4
260.675	591.3
261.059	597
261.443	585.2
261.828	597.7
262.212	596
262.597	583.6
262.981	590.9
263.366	596.2
263.751	588.4
264.136	586.3
264.521	582.1
264.906	579.7
265.291	602
265.676	588.6
266.061	592.8
266.446	610.2
266.831	590.4
267.217	610.6
267.602	591
267.987	591.4
268.373	591.9
268.759	602.5
269.144	603.8
269.53	590.5
269.916	590.2
270.302	592.2
270.688	594.2
271.074	598.6
271.46	605.3
271.846	619.6
272.232	592.7
272.618	590.6
273.004	594.4
273.391	600.5
273.777	601.6
274.164	600.1
274.55	609.4
274.937	596.1
275.324	591.4
275.71	600.3
276.097	601.4
276.484	585.2
276.871	596.7
277.258	597.2
277.645	587.7
278.032	590.8
278.419	592.3
278.807	600.1
279.194	587.3
279.581	593.6
279.969	601.2
280.356	593.6
280.744	596.3
281.131	615.9
281.519	611.7
281.907	590.6
282.295	591.8
282.682	604.8
283.07	604.1
283.458	606.2
283.846	605.8
284.235	607
284.623	599.9
285.011	585.3
285.399	597
285.788	595.1
286.176	579.8
286.565	608
286.953	593.1
287.342	587.6
287.731	586.8
288.119	583.2
288.508	585.3
288.897	591.4
289.286	584.5
289.675	593.6
290.064	607.3
290.453	587.9
290.821	593.4
291.21	612.6
291.599	586.9
291.989	600.7
292.378	596.3
292.768	613.2
293.157	601.6
293.547	600.2
293.936	586.7
294.326	587
294.716	596.6
295.106	591.8
295.496	603.4
295.886	602.5
296.276	591.5
296.666	587.3
297.056	585.9
297.446	584.4
297.836	610.9
298.227	594.3
298.617	596.9
299.008	608.1
299.398	591.7
299.789	589.8
300.179	597.6
300.57	608.6
300.961	589.3
301.352	585.9
301.742	599
302.133	598.2
302.524	587.6
302.915	594.1
303.307	587.9
303.698	603.1
304.089	599.5
304.48	592.1
304.872	600.1
305.263	593.1
305.655	593.1
306.046	600.9
306.438	597.4
306.829	590.2
307.221	608.7
307.613	598.8
308.005	610.4
308.397	601.8
308.789	617.4
309.181	614.6
309.573	610.9
309.965	610.1
310.357	584.2
310.749	594.5
311.142	588.6
311.534	589.9
311.926	602.1
312.319	599.8
312.711	591.9
313.104	603.2
313.497	595
313.889	635.4
314.282	610
314.675	627.2
315.068	597.8
315.461	603.5
315.854	624.9
316.247	604.1
316.64	589.1
317.033	598.3
317.405	605.8
317.798	593.3
318.192	605
318.585	591.1
318.979	600
319.372	588.5
319.766	596.2
320.16	611.7
320.553	609.2
320.947	617.5
321.341	594.5
321.735	598.7
322.129	583.1
322.523	623.9
322.917	591.1
323.311	607.1
323.705	603.3
324.099	599.9
324.494	619.9
324.888	605.7
325.282	595.9
325.677	601.5
326.071	606
326.466	605.4
326.861	598.4
327.255	610.4
327.65	615.4
328.045	609
328.44	591.7
328.835	599.5
329.23	583.6
329.625	620.2
330.02	584.6
330.415	610.8
330.81	591.4
331.206	601.1
331.601	593.6
331.996	607.3
332.37	607
332.766	582.7
333.161	618.1
333.557	592.2
333.953	594
334.348	979.6
334.744	597.8
335.14	589.6
335.536	591.2
335.932	603.9
336.328	600.7
336.724	607.2
337.12	598.6
337.516	596.5
337.913	597.9
338.309	611.4
338.705	595
339.102	610.9
339.498	593.6
339.895	612.2
340.291	593
340.688	605.9
341.085	591.1
341.481	593.7
341.878	597.5
342.275	609.9
342.672	587.7
343.069	595.9
343.466	585.7
343.842	599.6
344.239	594.4
344.636	592.7
345.033	583.5
345.431	583.4
345.828	597.6
346.225	590.5
346.623	599.9
347.02	596.2
347.418	600.7
347.816	603.1
348.213	581.9
348.611	600.7
349.009	588
349.407	607.3
349.805	584.1
350.203	585.3
350.601	601.5
350.999	587.8
351.397	586.5
351.795	596
352.193	604
352.57	602
352.969	605.2
353.367	585.8
353.766	586.8
354.164	594.1
354.563	608.2
354.961	594.4
355.36	588.4
355.759	588.7
356.158	580.4
356.557	580.2
356.956	585.9
357.355	583.5
357.754	596.6
358.153	596.3
358.552	613.5
358.951	586.4
359.35	597.6
359.75	587.3
360.149	584.2
360.527	572.8
360.926	581.7
361.326	589.8
361.726	595
362.125	582.7
362.525	592.8
362.925	587.6
363.325	594.7
363.724	587.5
364.124	584.3
364.524	581.2
364.924	586.9
365.324	593.1
365.725	575.8
366.125	594.3
366.525	583.4
366.904	578.9
367.304	572.2
367.705	600.9
368.105	602.9
368.506	584.8
368.906	588.7
369.307	592.7
369.708	594.4
370.108	577.4
370.509	599.4
370.91	578.1
371.311	587.5
371.712	591.2
372.113	589.5
372.514	575.3
372.894	589.2
373.295	579.8
373.696	598.9
374.097	598.1
374.499	617.6
374.9	592.8
375.301	584.1
375.703	588.5
376.105	584.6
376.506	594
376.908	593.7
377.309	590.4
377.711	593.1
378.113	588.6
378.493	587.4
378.895	583.6
379.297	598.6
379.699	581
380.102	597.8
380.504	591.9
380.906	579.7
381.308	611.1
381.71	587.8
382.113	599.3
382.515	583
382.918	588.5
383.299	584.9
383.701	595.6
384.104	593.2
384.507	567.6
384.909	585.4
385.312	570.5
385.715	575.7
386.118	581.2
386.521	573.6
386.924	591.7
387.327	582.7
387.709	576.9
388.112	572.7
388.515	582.6
388.918	583.7
389.322	584.2
389.725	580
390.129	607.8
390.532	591.4
390.936	585.1
391.339	580.3
391.743	596.9
392.125	580.6
392.529	594.7
392.933	597.4
393.337	586.4
393.74	584.3
394.144	584.7
394.548	577.5
394.953	583.2
395.357	594.3
395.761	584.6
396.144	592.7
396.548	583
396.952	588.1
397.357	589.6
397.761	583.1
398.166	585.5
398.57	580.9
398.975	578.5
399.379	587.2
399.763	634.7
400.168	588.4
400.572	591.1
400.977	584.7
401.382	606
401.787	601.8
402.192	600.2
402.597	607.2
403.002	574.1
403.386	603.4
403.791	602.4
404.197	581.6
404.602	587.9
405.007	586.9
405.413	585.6
405.818	584
406.224	589.2
406.608	584.8
407.014	579.6
407.42	608
407.825	580.2
408.231	595.5
408.637	593.4
409.043	607.7
409.449	585.2
409.834	582.5
410.24	589.5
410.646	594.9
411.052	599.7
411.458	594.5
411.865	595.3
412.271	597.3
412.677	588.2
413.062	597.3
413.469	586.5
413.875	618.5
414.282	601.4
414.689	590.8
415.095	596.9
415.502	586.9
415.888	588.7
416.294	573.6
416.701	623.3
417.108	583.9
417.515	601.2
417.923	584.3
418.33	611.2
418.715	597.7
419.123	584.9
419.53	585.7
419.937	596.2
420.345	601.5
420.752	583.2
421.16	604.1
421.546	587.4
421.953	593.4
422.361	577.1
422.769	586.9
423.177	582.6
423.585	607.8
423.992	613.3
424.379	594.3
424.787	599.9
425.195	607.8
425.603	590.2
426.011	594.9
426.419	599.6
426.806	595.4
427.214	587.5
427.623	599.8
428.031	602.9
428.44	592.6
428.848	602.4
429.235	603.1
429.644	601.6
430.053	597.4
430.461	611.6
430.87	629.1
431.279	615.8
431.666	605.9
432.075	615.3
432.484	627.8
432.893	627.9
433.302	660.4
433.711	685.3
434.099	659.9
434.508	664.8
434.918	672.6
435.327	702.5
435.737	710.8
436.125	723.3
436.534	751
436.944	764.5
437.353	782.1
437.763	814.8
438.173	807.7
438.561	847.2
438.971	836.1
439.381	875
439.791	902.5
440.201	895.3
440.589	928.5
440.999	951.2
441.409	971.9
441.819	976.3
442.23	1017.5
442.619	1023.1
443.029	1028.7
443.439	1050.1
443.85	1076
444.26	1099.3
444.649	1094.2
445.06	1111.1
445.471	1123.5
445.881	1152
446.292	1162.2
446.682	1201.3
447.092	1168.9
447.503	1245
447.914	1208.7
448.325	1216.5
448.715	1230.4
449.126	1227
449.537	1238.5
449.948	1246.8
450.338	1256.3
450.75	1281.5
451.161	1280.9
451.572	1289.4
451.984	1280
452.374	1277.8
452.786	1273.7
453.197	1301.4
453.609	1309.6
453.999	1288.3
454.411	1303.6
454.823	1325.5
455.235	1326
455.647	1317.5
456.037	1336.7
456.449	1316
456.862	1325.8
457.274	1326.5
457.665	1326.2
458.077	1346.3
458.489	1357.6
458.902	1337.7
459.293	1341.1
459.705	1338.3
460.118	1332.7
460.53	1344.2
460.921	1346.7
461.334	1353.5
461.747	1346.5
462.16	1364.9
462.551	1361.4
462.964	1350.1
463.377	1345.3
463.79	1354
464.182	1352.3
464.595	1338.3
465.008	1346.6
465.421	1340.6
465.813	1339.1
466.226	1350.2
466.64	1345.4
467.053	1378
467.445	1349.9
467.859	1339.5
468.272	1332.5
468.686	1354.3
469.078	1328.4
469.492	1317.7
469.906	1328.7
470.298	1329.4
470.712	1312.8
471.126	1351.4
471.54	1297.3
471.933	1295
472.347	1306.8
472.761	1296.4
473.175	1296
473.568	1303.7
473.982	1284.2
474.397	1291.7
474.79	1297.7
475.204	1295.7
475.619	1284.8
476.033	1291.9
476.426	1280.7
476.841	1278.2
477.256	1288.7
477.649	1256.8
478.064	1260.1
478.479	1248.6
478.872	1252.5
479.287	1240.1
479.702	1236.4
480.118	1249.1
480.511	1240
480.927	1234.4
481.342	1244.1
481.736	1241
482.151	1221.4
482.566	1232.9
482.96	1234
483.376	1235.6
483.792	1209.4
484.186	1222.8
484.602	1209.8
485.017	1217.7
485.412	1201.9
485.827	1213.2
486.243	1214.3
486.638	1210.9
487.054	1200
487.47	1203.3
487.865	1186.3
488.281	1171.4
488.697	1176.3
489.092	1171.4
489.508	1162.2
489.925	1161.9
490.32	1147.3
490.736	1168.5
491.153	1156.4
491.548	1150.1
491.964	1153.1
492.381	1130.4
492.776	1143.5
493.193	1125.9
493.61	1143.6
494.006	1128.9
494.422	1120.8
494.84	1115
495.235	1126.3
495.652	1103.1
496.069	1102.5
496.465	1082.2
496.883	1087.1
497.3	1111.4
497.696	1087
498.113	1088.7
498.509	1068.2
498.927	1058.8
499.344	1066.1
499.741	1057.6
500.158	1068.2
500.576	1074.2
500.973	1057.4
501.39	1043.3
501.787	1036.9
502.205	1048.4
502.623	1036.8
503.02	1022.4
503.438	1015
503.856	1020.3
504.253	1023.7
504.671	1017.9
505.068	1005.2
505.486	1004.7
505.905	1030.7
506.302	997.8
506.72	999.3
507.118	974
507.536	991.2
507.955	980
508.352	980.3
508.771	978.3
509.169	986.7
509.587	963.3
510.006	968.3
510.404	948.2
510.823	950.9
511.221	946.1
511.64	948.5
512.038	947.7
512.457	933.2
512.877	938.1
513.275	929.1
513.694	930.3
514.092	925.8
514.512	930.7
514.91	921.3
515.33	922
515.749	920.2
516.148	916.1
516.568	908.4
516.966	897.8
517.386	890.3
517.785	891.3
518.205	887.1
518.603	885.8
519.024	881.7
519.444	882
519.843	887.2
520.263	875.2
520.662	874.3
521.082	869.3
521.481	874.4
521.902	867.1
522.301	861
522.722	866.8
523.121	854.2
523.542	856
523.963	848.8
524.362	850.9
524.783	845.7
525.183	839.6
525.604	842.6
526.003	833.9
526.425	831
526.824	834
527.246	834.6
527.646	835.3
528.067	829.5
528.467	812.3
528.888	815.9
529.289	807.6
529.71	809.6
530.11	800
530.532	799.2
530.932	789.4
531.354	779.6
531.755	826.1
532.176	796.5
532.577	791.8
532.999	781.8
533.4	783.6
533.822	785.5
534.223	776.3
534.645	765.7
535.046	775.4
535.468	774.7
535.869	782
536.292	766.6
536.693	767.6
537.115	764.3
537.516	762.4
537.939	757.5
538.34	772.7
538.742	776.2
539.165	757.8
539.566	754.8
539.989	747.4
540.391	753.8
540.814	757
541.216	753.9
541.639	746.7
542.041	763.1
542.464	741.6
542.866	733.2
543.268	733.6
543.691	746.9
544.093	741.5
544.517	760.8
544.919	728.6
545.343	751.5
545.745	718.8
546.147	733.1
546.571	726.7
546.974	716.3
547.398	724.5
547.8	743.6
548.224	717.3
548.627	714.3
549.03	726.2
549.454	712.5
549.857	706.1
550.281	708.4
550.684	714.2
551.087	720.1
551.512	712.2
551.915	714.7
552.34	704.8
552.743	698.5
553.146	700.5
553.571	700.9
553.975	723.9
554.399	696
554.803	746.7
555.207	701
555.632	684.1
556.036	695.2
556.461	683.8
556.865	696.5
557.268	685.6
557.694	685.4
558.098	685.2
558.502	691.6
558.927	678.5
559.332	679.8
559.736	678.2
560.162	683.6
560.566	672.5
560.992	678.5
561.396	674.9
561.801	670.6
562.227	676
562.631	672.2
563.036	668.1
563.462	678.6
563.867	666.5
564.272	652.4
564.698	671.8
565.103	658.8
565.508	683.6
565.935	661.8
566.34	653.2
566.745	669.7
567.172	648.5
567.577	674.4
567.982	665.7
568.409	659.9
568.815	656.3
569.22	655.5
569.626	659.2
570.053	644.3
570.459	653.6
570.865	653.2
571.292	651.9
571.698	652.8
572.104	636.1
572.531	644.2
572.937	652.1
573.343	646.4
573.75	641
574.177	646
574.583	653.4
574.99	640.9
575.396	639.6
575.824	636.5
576.231	645.1
576.637	636.2
577.065	663.8
577.472	637.4
577.879	633.5
578.286	650.2
578.714	629.5
579.121	628
579.528	635.6
579.935	646.9
580.364	630.1
580.771	617.7
581.178	624.1
581.585	631.5
582.014	635.7
582.421	624.7
582.829	621.4
583.236	638.5
583.644	621.9
584.073	614.5
584.481	630
584.889	623.2
585.296	626.2
585.726	623.7
586.134	617.7
586.542	614.7
586.95	640.4
587.358	605.5
587.787	621.5
588.196	604.6
588.604	612.8
589.012	617.1
589.421	617.2
589.851	610.8
590.259	609.3
590.668	610.9
591.076	651.3
591.485	605.4
591.894	609.6
592.324	618.5
592.733	623.6
593.142	598.7
593.551	612.5
593.96	610.7
594.369	599.5
594.8	597.6
595.209	607
595.618	593.7
596.028	600.6
596.437	601.9
596.847	604.6
597.256	611.2
597.687	603.9
598.097	608.3
598.507	595.8
598.917	606.2
599.327	602.5
599.736	597.5
600.146	614.1
600.556	599.4
600.988	610.9
601.398	590.8
601.808	610.3
602.219	586
602.629	597.1
603.039	602.3
603.45	618
603.86	598.8
604.271	614.1
604.703	599.1
605.114	597.3
605.525	597
605.935	601.8
606.346	613.2
606.757	603.4
607.168	590.9
607.579	586.5
607.99	604.9
608.402	589.9
608.813	590.3
609.224	592.5
609.636	579.7
610.047	585.2
610.48	593.5
610.892	595.9
611.303	596.6
611.715	589.5
612.127	584.4
612.539	584.5
612.95	595.3
613.362	577.4
613.774	580.1
614.186	578.9
614.599	581.5
615.011	600.2
615.423	579.5
615.835	585.7
616.248	583.5
616.66	593.5
617.073	581.5
617.485	587.5
617.898	603.7
618.311	593.2
618.723	584.1
619.136	613.6
619.549	602.4
619.962	609.5
620.375	586.9
620.788	592.3
621.201	582.1
621.614	598.3
622.028	584.9
622.441	590.4
622.854	602
623.268	578.2
623.681	594.5
624.095	588.6
624.509	595.6
624.922	587.9
625.336	576.6
625.728	590
626.142	595.9
626.556	602.8
626.97	590.5
627.384	583.2
627.799	586
628.213	594.7
628.627	582.4
629.041	575.8
629.456	580.3
629.87	584.4
630.285	594.7
630.699	595.3
631.093	581.8
631.507	590.6
631.922	582.6
632.337	601.1
632.752	579.9
633.167	583.7
633.582	577.3
633.997	582.2
634.412	578.9
634.806	580.9
635.221	579.1
635.637	592.4
636.052	573.4
636.468	586.5
636.883	599.1
637.299	573.5
637.715	564.5
638.109	580.4
638.525	573.2
638.941	592
639.357	585.1
639.773	590.1
640.189	572.6
640.584	580.1
641	579.7
641.416	572.3
641.832	571.9
642.249	576.8
642.665	573.5
643.06	583.1
643.477	583.7
643.894	564.2
644.31	575
644.727	573.4
645.123	572.4
645.54	565.2
645.957	574.7
646.374	582.5
646.77	575
647.187	604.8
647.604	578.8
648.021	562.8
648.439	571.4
648.835	580.2
649.252	576.4
649.67	571.3
650.088	581.6
650.484	586.3
650.902	581.8
651.32	586
651.738	572.6
652.134	575.5
652.552	591.1
652.971	582.6
653.389	576.3
653.786	587.3
654.204	572.7
654.622	567.9
655.019	577.2
655.438	581.8
655.857	578.5
656.275	582.4
656.673	570.5
657.091	646.6
657.51	573.5
657.908	586.7
658.327	589
658.746	563.8
659.144	577.2
659.563	585.5
659.982	579.2
660.38	563.8
660.8	578.7
661.219	587.3
661.617	580.3
662.037	580.6
662.457	580.5
662.855	565.9
663.275	607.7
663.695	571.9
664.094	569.8
664.514	575.7
664.934	566.2
665.333	578.5
665.753	566.6
666.152	567.1
666.572	564
666.993	585.2
667.392	572
667.812	567
668.212	571.6
668.632	582.3
669.053	568.5
669.453	579.7
669.874	577.3
670.273	576.8
670.694	564.8
671.116	587.4
671.515	581.5
671.937	567.9
672.337	567.9
672.758	572.8
673.158	581.5
673.58	564.9
673.98	573.8
674.402	584.2
674.824	571.5
675.224	566.6
675.646	561.9
676.047	566.4
676.469	570.1
676.869	573.6
677.292	575.7
677.693	564.8
678.115	563.3
678.516	576.7
678.939	572.9
679.34	563.4
679.762	579
680.164	575.5
680.586	564.4
680.988	576.4
681.411	597.9
681.812	568
682.236	563.8
682.637	563
683.061	564.5
683.462	573.3
683.864	567.8
684.288	576.6
684.69	560.6
685.114	585
685.516	583.3
685.94	564.3
686.342	575.5
686.766	565.3
687.168	565.7
687.571	580.6
687.995	566.5
688.398	556.9
688.822	570.4
689.225	587.2
689.628	589.7
690.052	569.2
690.456	577.3
690.88	570.8
691.284	559.2
691.687	572.8
692.112	557.5
692.515	563.5
692.919	567.6
693.344	573.5
693.747	557.3
694.173	568.5
694.577	574.9
694.98	572.1
695.406	568.2
695.81	574.6
696.214	571
696.64	570.8
697.044	575.2
697.448	574.7
697.874	567.2
698.279	565.2
698.684	559.5
699.11	565.2
699.514	570.4
699.919	564.8
700.324	559.3
700.75	565.6
701.156	566.3
701.561	580.4
701.987	571.9
702.393	576.2
702.798	576.4
703.203	572.8
703.63	564.7
704.036	559.9
704.442	568.1
704.847	561.5
705.274	564
705.68	568.2
706.086	575.1
706.492	556.5
706.92	566.8
707.326	570.9
707.732	568.5
708.139	561.8
708.545	559.5
708.973	562.8
709.38	563.6
709.786	555.8
710.193	575.1
710.6	565
711.028	557.2
711.435	564.7
711.842	567.2
712.249	558
712.656	565.1
713.064	574.2
713.492	561
713.9	565.3
714.307	568.4
714.715	567.6
715.123	567.9
715.53	565.2
715.938	578.6
716.367	565.8
716.775	564.8
717.184	560.3
717.592	566.4
718	576
718.408	600.4
718.816	609.5
719.225	570.8
719.633	569.3
720.042	561.5
720.472	562.3
720.881	579.3
721.29	570.9
721.699	559.3
722.108	574.6
722.517	572.4
722.926	569.8
723.335	571.5
723.744	561.7
724.154	568.5
724.563	567.5
724.973	572
725.382	567.3
725.792	563.6
726.202	555.3
726.612	578.4
727.022	564.9
727.432	563.5
779.813	566.7
780.223	610
780.634	568.2
781.044	561.5
781.454	566.9
781.865	575.6
782.276	553.3
782.686	570.4
783.097	566
783.508	562.2
783.919	570.4
784.33	582.1
784.741	574.2
785.152	563.3
785.563	554.2
785.974	558.5
786.386	572
786.776	566.2
787.188	560.8
787.599	552.5
788.011	575.1
788.423	568.1
788.835	563.2
789.247	562.3
789.659	556.4
790.071	561.3
790.483	603.9
790.874	564.2
791.286	568.3
791.699	559.1
792.111	563.6
792.524	568.2
792.937	564.6
793.349	557.7
793.741	557.4
794.154	560.9
794.567	578.4
794.98	563.8
795.393	556.3
795.785	577.1
796.198	561.7
796.612	565.4
797.026	568.3
797.439	547.3
797.831	563.4
798.245	557.2
798.659	557.6
799.073	560.8
799.487	556
799.88	562.7
800.294	561.4
800.708	570.9
801.123	563.3
801.516	583.7
801.93	554.8
802.345	550.8
802.76	566.9
803.153	572.3
803.568	576.8
803.983	573.5
804.377	573.4
804.792	556.2
805.207	556.2
805.601	567.3
806.016	596.7
806.432	560.9
806.826	594
807.242	576.8
807.658	567.2
808.052	560.2
808.468	557.5
808.884	556.6
809.279	563.9
809.695	578.6
810.111	584.7
810.506	567
810.922	583.8
811.339	559
811.734	573.7
812.151	562.8
812.546	560.7
812.963	557.1
813.38	568.5
813.776	564.5
814.193	583.8
814.589	560.9
815.006	563
815.402	557.5
815.82	561.9
816.237	560.7
816.633	563.9
817.051	556.9
817.448	565.7
817.866	550.8
818.262	589.9
818.68	559.6
819.077	560.8
819.495	561.5
819.892	597.6
820.311	557.4
820.708	563.4
821.127	558.3
821.524	569.3
821.943	563.5
822.34	579.7
822.759	564.8
823.157	560.1
823.576	573.9
823.974	569.3
824.393	569.7
824.791	560.1
825.189	558.6
825.609	559.1
826.007	566.4
826.427	552.2
826.826	571.2
827.246	563.5
827.644	548.6
828.043	572
828.463	558.1
828.862	569
829.261	569.1
829.682	554.4
830.081	566
830.502	558.9
830.901	569
831.301	559.4
831.722	556.9
832.121	563.1
832.521	558.6
832.943	562.4
833.342	561.7
833.742	554.5
834.164	550.8
834.564	549.9
834.965	567.8
835.386	555.6
835.787	556.7
836.188	562.3
836.588	561.2
837.01	559.6
837.411	556.8
837.812	569.2
838.213	568.3
838.636	556.1
839.037	626.7
839.438	560.3
839.84	563
840.263	570.5
840.664	563.2
841.066	559.2
841.468	566.2
841.891	558.8
