#lambda/nm	C1
208.295	477.1
208.67	445.7
209.045	408
209.419	409.8
209.794	590.4
210.169	571
210.544	688.7
210.919	587.9
211.295	576.3
211.67	582.6
212.045	579.7
212.421	578.6
212.796	620.6
213.172	579.4
213.547	574.9
213.923	581.5
214.299	580
214.675	595.8
215.051	587
215.427	586.1
215.803	600.1
216.179	589.7
216.555	579.7
216.932	590.9
217.308	584.5
217.684	581.8
218.061	589.3
218.438	585.1
218.814	577.1
219.191	590.3
219.568	571.6
219.945	581.3
220.322	593
220.699	587.6
221.076	588.1
221.453	586.8
221.83	576.1
222.208	579.4
222.585	578.2
222.962	585.9
223.34	590.2
223.717	587.4
224.095	576.9
224.473	587.7
224.851	583.3
225.229	578.5
225.607	600.9
225.985	572.1
226.363	587.1
226.741	586.9
227.119	581.8
227.497	592.2
227.876	573.3
228.254	590.9
228.633	590.2
229.011	586.3
229.39	590
229.769	586.8
230.148	590.9
230.527	603.9
230.905	583
231.284	587.7
231.664	578.6
232.043	594.8
232.422	586.2
232.801	576.2
233.181	588.6
233.56	585.3
233.94	586.5
234.319	574.3
234.699	582.9
235.079	623.1
235.458	623.4
235.838	597.3
236.218	576.6
236.598	572.5
236.978	573.8
237.358	579.2
237.738	577
238.119	590.9
238.499	571.3
238.88	580.2
239.26	601.9
239.641	572.1
240.021	575.1
240.402	581.6
240.783	577.5
241.163	583.1
241.544	591.7
241.925	585.2
242.306	595.5
242.687	580.6
243.069	588.1
243.45	590.8
243.831	579.4
244.212	583.6
244.594	612.4
244.975	592.1
245.357	590.5
245.739	575.3
246.12	585.1
246.502	593.5
246.884	578.9
247.266	582.9
247.648	584
248.03	603.6
248.412	586
248.794	586.9
249.176	581.8
249.559	598.2
249.941	581.2
250.323	570.6
250.706	581.9
251.089	585.6
251.471	587
251.854	585.7
252.237	585.3
252.62	595
253.002	582.4
253.385	584.6
253.769	602.6
254.152	582.7
254.535	587.7
254.918	580.1
255.301	581.2
255.685	581.8
256.068	576.2
256.452	605.3
256.835	590.1
257.219	589.8
257.603	594.4
257.986	578.1
258.37	587.3
258.754	568.3
259.138	595.8
259.522	594.9
259.906	580.4
260.29	587.3
260.675	583.6
261.059	588
261.443	578.7
261.828	587.4
262.212	589.4
262.597	568.3
262.981	579.2
263.366	593.2
263.751	579.7
264.136	575
264.521	577.6
264.906	571.9
265.291	590.6
265.676	576.2
266.061	588.7
266.446	599.4
266.831	585.3
267.217	604.8
267.602	582.2
267.987	588.5
268.373	584.7
268.759	591.9
269.144	591.3
269.53	581.7
269.916	582.8
270.302	579.6
270.688	592.5
271.074	591.4
271.46	594.7
271.846	610.9
272.232	584.2
272.618	581
273.004	578.4
273.391	594.9
273.777	595.3
274.164	589.9
274.55	597.5
274.937	590.6
275.324	582.2
275.71	590.5
276.097	587.2
276.484	575.8
276.871	589.8
277.258	589.6
277.645	572.2
278.032	583.9
278.419	580.8
278.807	588.7
279.194	576.6
279.581	576.9
279.969	585.8
280.356	587.6
280.744	586.2
281.131	607.6
281.519	595.9
281.907	583.3
282.295	585.7
282.682	593.1
283.07	583.5
283.458	590.7
283.846	596.5
284.235	596.2
284.623	592.9
285.011	573.9
285.399	582.5
285.788	586.8
286.176	574.7
286.565	592.5
286.953	580.6
287.342	584.7
287.731	578.8
288.119	575.6
288.508	581.2
288.897	584
289.286	570.4
289.675	582.7
290.064	594.2
290.453	583.5
290.821	587.5
291.21	595
291.599	580.1
291.989	581.8
292.378	588.9
292.768	603.7
293.157	585.9
293.547	592.1
293.936	583.1
294.326	577.6
294.716	590.7
295.106	579.7
295.496	592.6
295.886	594.7
296.276	581.9
296.666	581.8
297.056	579.2
297.446	581.1
297.836	605.6
298.227	584.4
298.617	585
299.008	594.9
299.398	582
299.789	579
300.179	587.8
300.57	599.1
300.961	581.3
301.352	579.2
301.742	593.5
302.133	584.2
302.524	582.9
302.915	589.3
303.307	582.3
303.698	596.6
304.089	591.7
304.48	582.2
304.872	587.6
305.263	588.1
305.655	581.4
306.046	591
306.438	591.7
306.829	578.5
307.221	598.7
307.613	589.1
308.005	599.5
308.397	593.3
308.789	608
309.181	611.8
309.573	600.5
309.965	592.1
310.357	575.6
310.749	592.3
311.142	578
311.534	577.9
311.926	594
312.319	587.3
312.711	574.8
313.104	596.5
313.497	582.4
313.889	619.6
314.282	602.3
314.675	604.3
315.068	592.2
315.461	589.6
315.854	615.9
316.247	596.4
316.64	584.1
317.033	586.6
317.405	592.8
317.798	585.4
318.192	590.8
318.585	577.9
318.979	590.6
319.372	581.1
319.766	587.7
320.16	597.1
320.553	601.7
320.947	610
321.341	585
321.735	585.8
322.129	569.4
322.523	619.4
322.917	579.4
323.311	594.4
323.705	590.6
324.099	593.4
324.494	602.3
324.888	596.5
325.282	581.3
325.677	588.1
326.071	592.5
326.466	597.1
326.861	588.6
327.255	596.7
327.65	602.8
328.045	600
328.44	590.8
328.835	588.6
329.23	577.5
329.625	611.4
330.02	580.2
330.415	610.1
330.81	591
331.206	590.5
331.601	581.9
331.996	594.4
332.37	593.2
332.766	578.1
333.161	604.2
333.557	585.4
333.953	587.9
334.348	1003.3
334.744	589.6
335.14	584.5
335.536	579.5
335.932	595.6
336.328	586.9
336.724	592.6
337.12	580.5
337.516	589
337.913	591
338.309	600.3
338.705	584.9
339.102	592.8
339.498	586
339.895	603.3
340.291	577.1
340.688	597
341.085	579.1
341.481	580.1
341.878	583.4
342.275	604.2
342.672	579.5
343.069	583.9
343.466	575.5
343.842	589.2
344.239	574.8
344.636	585.2
345.033	575.8
345.431	581.4
345.828	589
346.225	585.4
346.623	593.8
347.02	587.1
347.418	590.8
347.816	598.2
348.213	574.8
348.611	586.6
349.009	580
349.407	601.1
349.805	575.1
350.203	575.5
350.601	594.7
350.999	581.6
351.397	575.5
351.795	582.5
352.193	595.7
352.57	594.6
352.969	593.5
353.367	579.3
353.766	578.3
354.164	582.1
354.563	592
354.961	582.1
355.36	577.7
355.759	582.1
356.158	570.9
356.557	578
356.956	575.2
357.355	568.1
357.754	593.6
358.153	584.9
358.552	595.4
358.951	574.3
359.35	590.9
359.75	577.9
360.149	573.3
360.527	571.5
360.926	572.1
361.326	579.7
361.726	579.6
362.125	572.5
362.525	592.3
362.925	580.3
363.325	579.4
363.724	581.4
364.124	575.2
364.524	573.9
364.924	579.8
365.324	587.1
365.725	565.9
366.125	584.9
366.525	576
366.904	569.6
367.304	566.2
367.705	596.7
368.105	594.3
368.506	582
368.906	580.6
369.307	575.1
369.708	587.8
370.108	562.9
370.509	585.7
370.91	570.3
371.311	578.1
371.712	580.5
372.113	581.7
372.514	567.7
372.894	574.6
373.295	571.8
373.696	590.1
374.097	581.3
374.499	604.4
374.9	582.6
375.301	573.2
375.703	583.4
376.105	575.1
376.506	581.2
376.908	584.1
377.309	575.1
377.711	579.1
378.113	574
378.493	573.9
378.895	576.7
379.297	579.3
379.699	569.3
380.102	583.6
380.504	577.7
380.906	570.4
381.308	600.7
381.71	577.3
382.113	586.5
382.515	581.2
382.918	578.6
383.299	578.1
383.701	587.3
384.104	578.4
384.507	555.6
384.909	574.8
385.312	567.9
385.715	568.9
386.118	576.3
386.521	563
386.924	581.9
387.327	570.5
387.709	565.1
388.112	557.5
388.515	571.1
388.918	576.6
389.322	585.2
389.725	572.8
390.129	596
390.532	580.6
390.936	569.8
391.339	566
391.743	580.7
392.125	573.6
392.529	587.4
392.933	591.1
393.337	573.6
393.74	577.8
394.144	578.2
394.548	572.3
394.953	573.6
395.357	581
395.761	575.1
396.144	581.7
396.548	577.4
396.952	577.5
397.357	578.2
397.761	573
398.166	578.9
398.57	574.7
398.975	573.2
399.379	577.3
399.763	621.4
400.168	581.2
400.572	577.6
400.977	577.7
401.382	592
401.787	584.5
402.192	594.4
402.597	587.1
403.002	568.6
403.386	588.9
403.791	593.2
404.197	572.2
404.602	574.5
405.007	572.4
405.413	568.4
405.818	572.2
406.224	572.9
406.608	572.9
407.014	562.9
407.42	591.2
407.825	571.4
408.231	589.9
408.637	579.8
409.043	599.2
409.449	573.2
409.834	570.7
410.24	578.2
410.646	584.2
411.052	587.5
411.458	580.6
411.865	583.4
412.271	586.3
412.677	575
413.062	579.2
413.469	572.6
413.875	600.4
414.282	590.2
414.689	582.9
415.095	585.7
415.502	576.8
415.888	577.4
416.294	559.7
416.701	609.4
417.108	580.6
417.515	585.3
417.923	577.1
418.33	594.8
418.715	587.6
419.123	573.8
419.53	571.4
419.937	579.2
420.345	600.1
420.752	574.6
421.16	593.7
421.546	576.6
421.953	585.2
422.361	571.9
422.769	577.8
423.177	571.3
423.585	602.1
423.992	599.3
424.379	591
424.787	586.1
425.195	600.2
425.603	577.9
426.011	595.3
426.419	597.7
426.806	579.4
427.214	586.3
427.623	593.9
428.031	601.3
428.44	586.9
428.848	598.7
429.235	599.1
429.644	592.6
430.053	595
430.461	610.8
430.87	622.7
431.279	608.1
431.666	604.4
432.075	613.4
432.484	631.8
432.893	628.7
433.302	665.2
433.711	696.8
434.099	673.8
434.508	688.5
434.918	688.7
435.327	722.9
435.737	734.2
436.125	752
436.534	772.9
436.944	797.2
437.353	820
437.763	848.3
438.173	844.1
438.561	892.5
438.971	890.1
439.381	914.7
439.791	941.9
440.201	942.2
440.589	986.2
440.999	1011.2
441.409	1033.5
441.819	1034.5
442.23	1067.7
442.619	1075.1
443.029	1097.4
443.439	1113.8
443.85	1148.8
444.26	1157.6
444.649	1174.3
445.06	1164.2
445.471	1172.8
445.881	1201.2
446.292	1228.8
446.682	1246.2
447.092	1233.9
447.503	1310.4
447.914	1284.2
448.325	1281.8
448.715	1289.8
449.126	1288.5
449.537	1322.4
449.948	1306
450.338	1318.9
450.75	1348.4
451.161	1338.8
451.572	1345.3
451.984	1347.8
452.374	1342.4
452.786	1375.6
453.197	1369.2
453.609	1386.6
453.999	1376.7
454.411	1384.9
454.823	1395.8
455.235	1398.3
455.647	1395.6
456.037	1402.3
456.449	1389.2
456.862	1411.2
457.274	1401.8
457.665	1388.7
458.077	1423.4
458.489	1428
458.902	1411.4
459.293	1413.8
459.705	1423.1
460.118	1407.2
460.53	1427.2
460.921	1421.1
461.334	1422.6
461.747	1409.6
462.16	1425.6
462.551	1429.9
462.964	1427
463.377	1389
463.79	1407.3
464.182	1414
464.595	1401.4
465.008	1412.4
465.421	1407.6
465.813	1387.9
466.226	1406.1
466.64	1377
467.053	1424.5
467.445	1406.6
467.859	1386.7
468.272	1383.3
468.686	1393.8
469.078	1393.4
469.492	1363.4
469.906	1390.7
470.298	1395.8
470.712	1381.1
471.126	1411.1
471.54	1354.4
471.933	1369.7
472.347	1374.5
472.761	1369
473.175	1349.9
473.568	1355.2
473.982	1346.7
474.397	1365.4
474.79	1355.3
475.204	1360
475.619	1352.2
476.033	1336.2
476.426	1339
476.841	1325.4
477.256	1354.2
477.649	1314.5
478.064	1306.4
478.479	1313.7
478.872	1305.9
479.287	1296.4
479.702	1297.6
480.118	1306.4
480.511	1294.3
480.927	1288.5
481.342	1290.1
481.736	1296.6
482.151	1282.4
482.566	1284.6
482.96	1280.2
483.376	1287.7
483.792	1268.6
484.186	1269.4
484.602	1265.6
485.017	1267.2
485.412	1264.3
485.827	1270.9
486.243	1261.5
486.638	1263.7
487.054	1259.4
487.47	1256.7
487.865	1228.2
488.281	1231
488.697	1223.3
489.092	1217.1
489.508	1215.3
489.925	1218
490.32	1190.7
490.736	1200.8
491.153	1195.5
491.548	1190.6
491.964	1192.2
492.381	1171.1
492.776	1182.9
493.193	1177.7
493.61	1180.4
494.006	1164.2
494.422	1171.3
494.84	1152.6
495.235	1164.9
495.652	1146.3
496.069	1144.2
496.465	1128.9
496.883	1125.2
497.3	1153.9
497.696	1115
498.113	1120.8
498.509	1106.6
498.927	1096.5
499.344	1098.9
499.741	1091.3
500.158	1094.5
500.576	1097.2
500.973	1085.6
501.39	1081.2
501.787	1059.8
502.205	1070.7
502.623	1060.7
503.02	1060.7
503.438	1062.4
503.856	1045.7
504.253	1049.3
504.671	1059.4
505.068	1031.4
505.486	1031.7
505.905	1054.3
506.302	1023.7
506.72	1036
507.118	1015.3
507.536	1020.3
507.955	1018
508.352	1008.6
508.771	1011.4
509.169	1004.6
509.587	993.6
510.006	983.1
510.404	982.9
510.823	976.5
511.221	974.3
511.64	972.9
512.038	982.9
512.457	966.7
512.877	973.9
513.275	955.2
513.694	951.6
514.092	948.9
514.512	942
514.91	935.2
515.33	934.3
515.749	937.4
516.148	928.8
516.568	933.6
516.966	923
517.386	923.1
517.785	915.2
518.205	914.3
518.603	912.2
519.024	905.9
519.444	913.8
519.843	903.7
520.263	894.6
520.662	903.2
521.082	892.2
521.481	887.7
521.902	883.6
522.301	884.8
522.722	888.5
523.121	874.8
523.542	867.8
523.963	860.7
524.362	860
524.783	856.4
525.183	851.6
525.604	852.7
526.003	845.4
526.425	837.3
526.824	844.2
527.246	845.3
527.646	848.3
528.067	827.9
528.467	830.7
528.888	835.2
529.289	819
529.71	825.8
530.11	806.8
530.532	817.9
530.932	802.9
531.354	797.7
531.755	835.2
532.176	810.3
532.577	797.8
532.999	798
533.4	796.6
533.822	801.1
534.223	788.8
534.645	784.7
535.046	779.5
535.468	779.8
535.869	792.1
536.292	777.1
536.693	778.2
537.115	779.3
537.516	769.2
537.939	763.7
538.34	782.3
538.742	784.6
539.165	764.1
539.566	761.7
539.989	758.6
540.391	757
540.814	757.7
541.216	761.5
541.639	755.1
542.041	761.6
542.464	751.9
542.866	750.1
543.268	738.8
543.691	757.6
544.093	744
544.517	759.6
544.919	737.8
545.343	761.9
545.745	735
546.147	746.6
546.571	732.3
546.974	723.6
547.398	728
547.8	738.7
548.224	724.2
548.627	715.6
549.03	729.9
549.454	711.6
549.857	709.8
550.281	708
550.684	702
551.087	718.3
551.512	717.8
551.915	710.6
552.34	703
552.743	706.4
553.146	701.6
553.571	703.6
553.975	720.2
554.399	692.8
554.803	743.6
555.207	695.7
555.632	690.2
556.036	691.7
556.461	679.5
556.865	688.9
557.268	684.2
557.694	687.4
558.098	691.1
558.502	685.3
558.927	680.3
559.332	679
559.736	681
560.162	681.2
560.566	669.7
560.992	677
561.396	670.5
561.801	672.3
562.227	671.1
562.631	668.7
563.036	669.7
563.462	672.7
563.867	671.5
564.272	651.7
564.698	669.3
565.103	655.6
565.508	672.7
565.935	666
566.34	659.7
566.745	668.7
567.172	656.3
567.577	673.6
567.982	661.6
568.409	659.4
568.815	649.3
569.22	652.2
569.626	657.2
570.053	634.7
570.459	652.8
570.865	653.2
571.292	653.4
571.698	647.6
572.104	635.7
572.531	637
572.937	647.4
573.343	642.3
573.75	637.4
574.177	638.8
574.583	637.6
574.99	633.1
575.396	637.6
575.824	637.9
576.231	639.5
576.637	624.8
577.065	655.3
577.472	628.5
577.879	629.3
578.286	642.9
578.714	623.3
579.121	626.6
579.528	627
579.935	633.8
580.364	623.5
580.771	611.3
581.178	616.7
581.585	626.4
582.014	626.5
582.421	620.8
582.829	622.8
583.236	629
583.644	617.1
584.073	620
584.481	615.1
584.889	611.4
585.296	623.6
585.726	617.4
586.134	608.5
586.542	601.4
586.95	631.3
587.358	604.1
587.787	616.3
588.196	607.5
588.604	606.2
589.012	609.5
589.421	605.5
589.851	605.7
590.259	613.3
590.668	606.2
591.076	645.3
591.485	595.8
591.894	601.8
592.324	620
592.733	618.9
593.142	588
593.551	596.1
593.96	629.6
594.369	588.3
594.8	596.1
595.209	596.3
595.618	591.8
596.028	592
596.437	590.5
596.847	595.5
597.256	600.3
597.687	600.2
598.097	597.7
598.507	581.7
598.917	597.2
599.327	598.4
599.736	599.5
600.146	600.5
600.556	591.9
600.988	605.9
601.398	587
601.808	602.7
602.219	580.8
602.629	593.8
603.039	592
603.45	616.6
603.86	584.7
604.271	599.2
604.703	590
605.114	583.3
605.525	583.1
605.935	590.5
606.346	606.8
606.757	587.3
607.168	587.7
607.579	581.6
607.99	597.8
608.402	585
608.813	588
609.224	579.8
609.636	575.7
610.047	578.2
610.48	582.7
610.892	588.3
611.303	588.8
611.715	581.7
612.127	574.9
612.539	572
612.95	583
613.362	567.5
613.774	571.2
614.186	574.5
614.599	578
615.011	595.4
615.423	577.5
615.835	580.1
616.248	573.5
616.66	588.3
617.073	578.5
617.485	576.6
617.898	592.5
618.311	582.3
618.723	584.9
619.136	606
619.549	584.6
619.962	598.5
620.375	575
620.788	585.5
621.201	575.4
621.614	585.8
622.028	577.3
622.441	584.7
622.854	594.6
623.268	566.7
623.681	584.1
624.095	579.5
624.509	584.1
624.922	582.8
625.336	568.3
625.728	580.2
626.142	587.2
626.556	597
626.97	580.5
627.384	571.2
627.799	576
628.213	591.9
628.627	568
629.041	572.1
629.456	577.6
629.87	573
630.285	580
630.699	588.9
631.093	581.8
631.507	578.4
631.922	575.8
632.337	583.1
632.752	567.7
633.167	573.2
633.582	572.5
633.997	573.7
634.412	570.3
634.806	576.7
635.221	564.9
635.637	580.8
636.052	559.4
636.468	576.7
636.883	587
637.299	572.2
637.715	563.8
638.109	574.9
638.525	561.1
638.941	584.7
639.357	571.5
639.773	582.9
640.189	567.5
640.584	568.2
641	571.5
641.416	556.2
641.832	565.8
642.249	568.4
642.665	570.2
643.06	571.5
643.477	579.3
643.894	556.1
644.31	563.8
644.727	568.4
645.123	572.3
645.54	557.7
645.957	570.7
646.374	575.1
646.77	566.5
647.187	598.9
647.604	569.5
648.021	552.3
648.439	552.3
648.835	571.4
649.252	568.1
649.67	564.1
650.088	563.5
650.484	568
650.902	569.6
651.32	576.8
651.738	566.7
652.134	572.1
652.552	576.7
652.971	574.5
653.389	565.9
653.786	580.7
654.204	566.4
654.622	559.5
655.019	559
655.438	567.5
655.857	564.4
656.275	562.9
656.673	552.7
657.091	632.4
657.51	561.7
657.908	575.6
658.327	582
658.746	553.8
659.144	568.5
659.563	574.8
659.982	565.1
660.38	555.3
660.8	571.5
661.219	571.2
661.617	569.2
662.037	563.3
662.457	575.1
662.855	550.9
663.275	594.1
663.695	564.6
664.094	562.2
664.514	573.5
664.934	557.2
665.333	568.2
665.753	561.1
666.152	554.5
666.572	553.1
666.993	573.5
667.392	554.9
667.812	563.8
668.212	564.4
668.632	568.9
669.053	554.4
669.453	566.8
669.874	560.1
670.273	568.4
670.694	561.7
671.116	567.8
671.515	571.7
671.937	562.6
672.337	557.2
672.758	561.6
673.158	565.4
673.58	557.8
673.98	565.7
674.402	571.6
674.824	555.7
675.224	560.9
675.646	554.8
676.047	560.6
676.469	559.5
676.869	564.7
677.292	568.3
677.693	557.6
678.115	556.5
678.516	569.3
678.939	566
679.34	560.3
679.762	572.7
680.164	564.3
680.586	553.3
680.988	566.2
681.411	579
681.812	562.3
682.236	551.3
682.637	555.1
683.061	550.4
683.462	560.1
683.864	558.7
684.288	564.4
684.69	554.3
685.114	569.7
685.516	567.5
685.94	551.3
686.342	565.7
686.766	554.4
687.168	556
687.571	570.9
687.995	555.6
688.398	546.2
688.822	558.9
689.225	569.9
689.628	577.2
690.052	561.8
690.456	566.1
690.88	556.7
691.284	544.5
691.687	563.2
692.112	549.4
692.515	549.1
692.919	559.5
693.344	559.9
693.747	555.5
694.173	553.3
694.577	574.8
694.98	557.7
695.406	560.1
695.81	564.4
696.214	561.7
696.64	561.9
697.044	564
697.448	565.3
697.874	556.9
698.279	555.4
698.684	550.6
699.11	555.3
699.514	556.6
699.919	556.2
700.324	549.4
700.75	558.7
701.156	557.9
701.561	566.5
701.987	560.9
702.393	567.3
702.798	569.4
703.203	556.3
703.63	557
704.036	554.1
704.442	560.3
704.847	551.6
705.274	561
705.68	562.7
706.086	567
706.492	550
706.92	559.3
707.326	563
707.732	553.3
708.139	544.8
708.545	548.8
708.973	549.8
709.38	552.1
709.786	545.1
710.193	566.9
710.6	551
711.028	548.8
711.435	556.5
711.842	551.6
712.249	552.3
712.656	555.8
713.064	561
713.492	554.2
713.9	550.3
714.307	560.1
714.715	557.8
715.123	560.6
715.53	555.5
715.938	566.9
716.367	560.7
716.775	552.6
717.184	549.7
717.592	555.1
718	563
718.408	589.2
718.816	595.6
719.225	560
719.633	561.6
720.042	548.7
720.472	552.9
720.881	579.7
721.29	558.8
721.699	546.2
722.108	561.2
722.517	560.9
722.926	551.3
723.335	565
723.744	557.3
724.154	557.7
724.563	558.4
724.973	561.3
725.382	563.8
725.792	555.7
726.202	548.3
726.612	569.9
727.022	559.5
727.432	551.4
779.813	552.4
780.223	594.2
780.634	550.2
781.044	547.9
781.454	553.5
781.865	572.2
782.276	548.8
782.686	565.2
783.097	558.2
783.508	550.5
783.919	556.6
784.33	565.4
784.741	567
785.152	552.1
785.563	546
785.974	546.3
786.386	565.4
786.776	552.3
787.188	556.3
787.599	547.6
788.011	564.7
788.423	563.3
788.835	552.4
789.247	545.8
789.659	547.3
790.071	547.4
790.483	592.7
790.874	554.3
791.286	557.5
791.699	548.4
792.111	557.5
792.524	560.1
792.937	555.4
793.349	546.1
793.741	546.5
794.154	551.7
794.567	572.2
794.98	555.5
795.393	540.1
795.785	568.8
796.198	553.5
796.612	558.2
797.026	549.7
797.439	541.5
797.831	552.8
798.245	547.3
798.659	556.7
799.073	546.6
799.487	548.1
799.88	552.6
800.294	550
800.708	553.1
801.123	558.7
801.516	571
801.93	543.2
802.345	540.9
802.76	555.3
803.153	560
803.568	567.3
803.983	565.6
804.377	553.5
804.792	540.8
805.207	538.2
805.601	557.3
806.016	587.8
806.432	546.4
806.826	584.8
807.242	567.2
807.658	552.5
808.052	555.7
808.468	552.4
808.884	549.9
809.279	555.1
809.695	565.2
810.111	575
810.506	552.7
810.922	566.5
811.339	546.2
811.734	560.5
812.151	548.3
812.546	541.8
812.963	546.6
813.38	557.7
813.776	554.2
814.193	572.5
814.589	546.9
815.006	552.8
815.402	548.3
815.82	550.1
816.237	549.1
816.633	555.8
817.051	543.4
817.448	552.1
817.866	544
818.262	568.4
818.68	551.3
819.077	550.6
819.495	546.8
819.892	589.8
820.311	547.1
820.708	550
821.127	543.8
821.524	557.2
821.943	550.8
822.34	573.6
822.759	553.4
823.157	550.7
823.576	567.4
823.974	560.3
824.393	556.5
824.791	549.5
825.189	539.1
825.609	553.2
826.007	555
826.427	539.7
826.826	547.4
827.246	557.1
827.644	541.2
828.043	561.9
828.463	549.3
828.862	560
829.261	556.2
829.682	542.5
830.081	556.9
830.502	545.2
830.901	552.9
831.301	548.1
831.722	538.6
832.121	549.8
832.521	541.7
832.943	544.2
833.342	550.4
833.742	541.8
834.164	542.7
834.564	548.2
834.965	553.7
835.386	542.4
835.787	546.6
836.188	549.3
836.588	548.5
837.01	548
837.411	543.6
837.812	557.9
838.213	554.2
838.636	545.9
839.037	615.9
839.438	551.6
839.84	553.9
840.263	558.7
840.664	552.3
841.066	551.9
841.468	552.1
841.891	546.5
