#lambda/nm	C1
208.295	480.9
208.67	446.4
209.045	406.3
209.419	415.1
209.794	592.4
210.169	568.4
210.544	688.1
210.919	591.1
211.295	575.2
211.67	583.6
212.045	582
212.421	580.4
212.796	621
213.172	580.7
213.547	581.3
213.923	583.5
214.299	574.8
214.675	592.4
215.051	590.1
215.427	585.5
215.803	599.1
216.179	585.8
216.555	576.9
216.932	590.3
217.308	580.4
217.684	581.2
218.061	588.4
218.438	584.7
218.814	581.1
219.191	590
219.568	575.8
219.945	578.8
220.322	586.8
220.699	586.6
221.076	591.4
221.453	584.2
221.83	577.2
222.208	579.4
222.585	583.6
222.962	585.2
223.34	588.8
223.717	582.4
224.095	586.1
224.473	585.6
224.851	580.3
225.229	572.9
225.607	596.8
225.985	572.3
226.363	588.7
226.741	585.2
227.119	579.4
227.497	597
227.876	576.9
228.254	592.7
228.633	586.6
229.011	584.3
229.39	583.2
229.769	586
230.148	587.5
230.527	600.1
230.905	580.2
231.284	587.3
231.664	575.6
232.043	595.3
232.422	587.5
232.801	581.7
233.181	583.2
233.56	577.7
233.94	581
234.319	570.3
234.699	586.4
235.079	616.9
235.458	616.4
235.838	598.4
236.218	579.1
236.598	572.2
236.978	578.4
237.358	579.4
237.738	574.7
238.119	590.9
238.499	570.9
238.88	581.4
239.26	594.7
239.641	577.2
240.021	579.1
240.402	583.8
240.783	576.1
241.163	578.6
241.544	586.4
241.925	586.2
242.306	595.4
242.687	575.1
243.069	584.3
243.45	589.6
243.831	578.1
244.212	582.1
244.594	621
244.975	585.7
245.357	588.1
245.739	576.9
246.12	582.5
246.502	594.6
246.884	577.6
247.266	579.3
247.648	584
248.03	597.6
248.412	585.6
248.794	591.8
249.176	576.7
249.559	591.3
249.941	583.9
250.323	573.3
250.706	573.6
251.089	580.2
251.471	585.9
251.854	584.2
252.237	580.4
252.62	589.8
253.002	582.3
253.385	586
253.769	594.2
254.152	588.2
254.535	594.9
254.918	576.6
255.301	584.7
255.685	581.2
256.068	579.8
256.452	605
256.835	591.7
257.219	593.8
257.603	597.5
257.986	572.8
258.37	589
258.754	579.4
259.138	593.6
259.522	596.8
259.906	579.2
260.29	586.4
260.675	579.9
261.059	585
261.443	577.4
261.828	589.2
262.212	583.5
262.597	572.5
262.981	581.8
263.366	590.7
263.751	586.7
264.136	576.8
264.521	586.2
264.906	573.2
265.291	591.2
265.676	580.6
266.061	592.7
266.446	607.3
266.831	579.1
267.217	609.1
267.602	580.2
267.987	589.2
268.373	580
268.759	593.9
269.144	586.6
269.53	582
269.916	578.8
270.302	580.8
270.688	581.2
271.074	581.9
271.46	593.5
271.846	606.6
272.232	585.4
272.618	576.1
273.004	575.9
273.391	590.9
273.777	592.6
274.164	586.2
274.55	599.9
274.937	583.3
275.324	590.3
275.71	587.4
276.097	595.3
276.484	576.6
276.871	583.9
277.258	587.3
277.645	569
278.032	582
278.419	585.3
278.807	588.3
279.194	583.3
279.581	575.9
279.969	590.5
280.356	587.2
280.744	586.4
281.131	607
281.519	594.5
281.907	585.1
282.295	581.7
282.682	600.2
283.07	585.2
283.458	592
283.846	595.2
284.235	598
284.623	592.9
285.011	579.6
285.399	585
285.788	582.8
286.176	579
286.565	595.8
286.953	580
287.342	581
287.731	578.5
288.119	578.9
288.508	584.7
288.897	585.6
289.286	572.1
289.675	590
290.064	596.1
290.453	582.8
290.821	587.8
291.21	606.7
291.599	576.5
291.989	583.7
292.378	592.2
292.768	605
293.157	589.5
293.547	593
293.936	582.9
294.326	580.9
294.716	590.7
295.106	584.3
295.496	588.6
295.886	590.8
296.276	584.4
296.666	580.3
297.056	581.4
297.446	573.4
297.836	596.6
298.227	582.5
298.617	585.2
299.008	596.7
299.398	584.5
299.789	579.3
300.179	589.6
300.57	597.3
300.961	580.4
301.352	580.9
301.742	592.9
302.133	585.5
302.524	579.1
302.915	587.3
303.307	578.4
303.698	594.8
304.089	594.7
304.48	576.6
304.872	589.1
305.263	588.8
305.655	574.9
306.046	593.3
306.438	588.2
306.829	581.8
307.221	593.7
307.613	590.7
308.005	594.2
308.397	595.9
308.789	603.6
309.181	606.2
309.573	600.1
309.965	593.3
310.357	583.8
310.749	585.2
311.142	577.3
311.534	577.9
311.926	593
312.319	589.6
312.711	579.3
313.104	591.2
313.497	578.4
313.889	625.6
314.282	603
314.675	610.1
315.068	585
315.461	585.8
315.854	613.6
316.247	589.3
316.64	584.8
317.033	582
317.405	593.7
317.798	585.8
318.192	588.3
318.585	583.3
318.979	592.6
319.372	574.8
319.766	585.2
320.16	597.2
320.553	605
320.947	602.5
321.341	585.2
321.735	585.3
322.129	579.5
322.523	607.6
322.917	579
323.311	597.3
323.705	587.9
324.099	596.5
324.494	600.5
324.888	591.6
325.282	582.8
325.677	585.5
326.071	594.3
326.466	596
326.861	581.2
327.255	594.7
327.65	597.9
328.045	597
328.44	589.1
328.835	586.9
329.23	579.5
329.625	610.3
330.02	578.2
330.415	603.8
330.81	585.2
331.206	587.3
331.601	578.2
331.996	595.6
332.37	593.2
332.766	577
333.161	606.5
333.557	581.5
333.953	583.9
334.348	952.5
334.744	591
335.14	579.9
335.536	579.1
335.932	595.3
336.328	583.3
336.724	596.3
337.12	586
337.516	591.1
337.913	582.2
338.309	593.2
338.705	584.2
339.102	595.1
339.498	578.4
339.895	596.1
340.291	575.6
340.688	595.9
341.085	577.3
341.481	579.6
341.878	586.5
342.275	598.5
342.672	577.3
343.069	575.9
343.466	563.2
343.842	593.8
344.239	578.1
344.636	582.7
345.033	574.2
345.431	574.9
345.828	581.7
346.225	579.8
346.623	588.6
347.02	587.1
347.418	590.2
347.816	599.6
348.213	573.5
348.611	591.2
349.009	576.8
349.407	595.1
349.805	571.2
350.203	572.2
350.601	598.7
350.999	575.9
351.397	576.6
351.795	581.2
352.193	588
352.57	589.5
352.969	591.9
353.367	574.3
353.766	572.5
354.164	582.7
354.563	592.8
354.961	582
355.36	589
355.759	576.2
356.158	573.4
356.557	573.2
356.956	577.4
357.355	567.7
357.754	581.3
358.153	590.2
358.552	605.8
358.951	582.3
359.35	591.7
359.75	580.4
360.149	572.3
360.527	570.9
360.926	569.5
361.326	583.9
361.726	583.8
362.125	575.6
362.525	586.2
362.925	577.7
363.325	579.8
363.724	581.3
364.124	575
364.524	575.6
364.924	583.2
365.324	586.4
365.725	560.6
366.125	583.3
366.525	579.4
366.904	572.9
367.304	568.7
367.705	600.5
368.105	592.7
368.506	577.5
368.906	581.2
369.307	573.1
369.708	583.8
370.108	571.9
370.509	588.7
370.91	575.6
371.311	584
371.712	584
372.113	578.2
372.514	562.4
372.894	577.4
373.295	573.9
373.696	589.3
374.097	590
374.499	606.9
374.9	584.5
375.301	574.9
375.703	582.6
376.105	568.8
376.506	582.2
376.908	582.6
377.309	580.4
377.711	583.4
378.113	575.4
378.493	579
378.895	571.7
379.297	585.5
379.699	569
380.102	586.2
380.504	578.3
380.906	577.3
381.308	601.3
381.71	578.2
382.113	584.2
382.515	579.1
382.918	578.8
383.299	576.6
383.701	582
384.104	582.7
384.507	563.6
384.909	576.9
385.312	563.6
385.715	569.8
386.118	580.3
386.521	565.7
386.924	591.8
387.327	572.6
387.709	568.1
388.112	560.5
388.515	579.4
388.918	577.3
389.322	572
389.725	570.1
390.129	596.3
390.532	586
390.936	569
391.339	577
391.743	580.4
392.125	571
392.529	585
392.933	596.8
393.337	579.5
393.74	577.3
394.144	582.8
394.548	574.2
394.953	571.7
395.357	581.5
395.761	571.3
396.144	577.8
396.548	581.2
396.952	573.9
397.357	576.8
397.761	572.9
398.166	573.7
398.57	572.7
398.975	565.9
399.379	577.3
399.763	629.5
400.168	581.3
400.572	575.9
400.977	576.4
401.382	597.1
401.787	584.3
402.192	597
402.597	588
403.002	564.8
403.386	589.6
403.791	588.9
404.197	573.3
404.602	575.9
405.007	576.9
405.413	569.4
405.818	571.7
406.224	573.1
406.608	577.3
407.014	568.4
407.42	589.7
407.825	569
408.231	578.4
408.637	581.3
409.043	585.8
409.449	569.5
409.834	570.4
410.24	578.3
410.646	589.9
411.052	580
411.458	575
411.865	583.5
412.271	587.6
412.677	578.6
413.062	580.4
413.469	572.4
413.875	599.4
414.282	588.9
414.689	580.7
415.095	579.4
415.502	569.7
415.888	575.3
416.294	561.2
416.701	613.9
417.108	565.7
417.515	586.8
417.923	568.8
418.33	600.4
418.715	588.1
419.123	575.9
419.53	573.5
419.937	587.5
420.345	594.3
420.752	573.3
421.16	586.5
421.546	579.1
421.953	588.4
422.361	571.7
422.769	575.6
423.177	571.5
423.585	601.4
423.992	591.6
424.379	587.6
424.787	591.2
425.195	598.2
425.603	580.4
426.011	592.5
426.419	593.4
426.806	582.9
427.214	577.3
427.623	589.5
428.031	597
428.44	584
428.848	593.4
429.235	596.8
429.644	581.9
430.053	582.9
430.461	597.8
430.87	606.8
431.279	592.4
431.666	583.5
432.075	587.8
432.484	596.6
432.893	593.1
433.302	620.8
433.711	637.3
434.099	612.1
434.508	610.9
434.918	608
435.327	628.1
435.737	635.5
436.125	639.6
436.534	643.6
436.944	651.8
437.353	662
437.763	689.6
438.173	668.6
438.561	692.7
438.971	675.1
439.381	698.8
439.791	701.4
440.201	696.6
440.589	719.4
440.999	737.7
441.409	744.3
441.819	733.4
442.23	750.9
442.619	766.7
443.029	765.5
443.439	776.1
443.85	792.7
444.26	798.5
444.649	808.8
445.06	805
445.471	798.6
445.881	806.3
446.292	828.3
446.682	838.5
447.092	820.4
447.503	876.5
447.914	840.5
448.325	835.9
448.715	843.7
449.126	842.8
449.537	855.5
449.948	862.4
450.338	857.8
450.75	868.3
451.161	862.3
451.572	875.4
451.984	868.2
452.374	852.7
452.786	874.6
453.197	883.8
453.609	883.8
453.999	875.5
454.411	877.9
454.823	901.9
455.235	893.7
455.647	890.6
456.037	896.3
456.449	875.8
456.862	891.8
457.274	893.3
457.665	887.2
458.077	902.5
458.489	912
458.902	896.9
459.293	898.1
459.705	901.3
460.118	892.8
460.53	902.7
460.921	900.4
461.334	903.2
461.747	900.6
462.16	913.2
462.551	913.3
462.964	909.2
463.377	880.1
463.79	896.2
464.182	902.7
464.595	891.2
465.008	911.8
465.421	903.8
465.813	895.5
466.226	905.1
466.64	890.3
467.053	929.1
467.445	902.5
467.859	895.4
468.272	895.4
468.686	896.8
469.078	881.5
469.492	888.2
469.906	888.3
470.298	900.4
470.712	886.4
471.126	921.3
471.54	880.5
471.933	880.2
472.347	879.6
472.761	880.5
473.175	868
473.568	873.8
473.982	864.8
474.397	874.4
474.79	874.4
475.204	887.6
475.619	865
476.033	876.5
476.426	870.8
476.841	871.6
477.256	886.2
477.649	860.2
478.064	853.2
478.479	858.6
478.872	859.1
479.287	850.2
479.702	850.7
480.118	858.5
480.511	851.8
480.927	842
481.342	850.9
481.736	858.1
482.151	848.5
482.566	857.1
482.96	843.8
483.376	856.9
483.792	841.8
484.186	851.7
484.602	836.6
485.017	841.1
485.412	842.8
485.827	846.2
486.243	839.2
486.638	868
487.054	841.6
487.47	856.3
487.865	828.8
488.281	826.4
488.697	826.8
489.092	825.7
489.508	822.8
489.925	840.1
490.32	810.7
490.736	834.4
491.153	819.8
491.548	824.5
491.964	831.5
492.381	801.1
492.776	821.8
493.193	806.3
493.61	821.8
494.006	814.1
494.422	805.2
494.84	798.7
495.235	809.2
495.652	793.4
496.069	798.3
496.465	786.1
496.883	797.4
497.3	822
497.696	785.5
498.113	801.4
498.509	778.2
498.927	773.3
499.344	780.6
499.741	777.5
500.158	785.7
500.576	785.8
500.973	777.8
501.39	764.5
501.787	758.3
502.205	768.7
502.623	760.9
503.02	760.1
503.438	752.1
503.856	757.8
504.253	759.9
504.671	759.8
505.068	748.2
505.486	755.4
505.905	765.9
506.302	757
506.72	760.9
507.118	738
507.536	746.9
507.955	742.7
508.352	747.7
508.771	753.2
509.169	747.5
509.587	734.5
510.006	740
510.404	724.2
510.823	723.3
511.221	729.7
511.64	729.9
512.038	744.4
512.457	729
512.877	728.6
513.275	720.8
513.694	725.2
514.092	723.5
514.512	727
514.91	722.1
515.33	721.3
515.749	715.1
516.148	714.2
516.568	714.1
516.966	712.1
517.386	705
517.785	701.8
518.205	705.3
518.603	696.6
519.024	695.3
519.444	698.6
519.843	703.1
520.263	702.4
520.662	696.6
521.082	698
521.481	700.2
521.902	688.8
522.301	693.1
522.722	689.8
523.121	690.4
523.542	683.2
523.963	687.4
524.362	680.1
524.783	685.3
525.183	674.1
525.604	681.5
526.003	672.3
526.425	674.2
526.824	679.7
527.246	678.3
527.646	675.2
528.067	670.6
528.467	675.7
528.888	673.3
529.289	666.2
529.71	666.1
530.11	666.2
530.532	659.7
530.932	652.9
531.354	658.3
531.755	697.1
532.176	674
532.577	654.5
532.999	661.6
533.4	657.3
533.822	662.4
534.223	656.8
534.645	647.4
535.046	651.8
535.468	656.9
535.869	666.3
536.292	653.9
536.693	645.2
537.115	659
537.516	641.3
537.939	647.2
538.34	669.4
538.742	660.5
539.165	644.2
539.566	643
539.989	645.8
540.391	639.9
540.814	646.4
541.216	645.3
541.639	645.9
542.041	650.6
542.464	633.5
542.866	643.2
543.268	629.7
543.691	647.5
544.093	646.1
544.517	659.7
544.919	634.5
545.343	658.8
545.745	634.6
546.147	636.4
546.571	629.6
546.974	625
547.398	635.9
547.8	642.6
548.224	630.7
548.627	628.4
549.03	632.6
549.454	621.9
549.857	620.3
550.281	624.2
550.684	630.9
551.087	639.9
551.512	624.3
551.915	631.5
552.34	625.9
552.743	621.8
553.146	618.6
553.571	625.2
553.975	641.6
554.399	611.3
554.803	673.7
555.207	619.5
555.632	614.2
556.036	624.6
556.461	609
556.865	616.2
557.268	607
557.694	613.6
558.098	617.3
558.502	614.4
558.927	611.6
559.332	607
559.736	614
560.162	621.5
560.566	610.7
560.992	616.1
561.396	611.7
561.801	609.7
562.227	606.6
562.631	600.9
563.036	606.4
563.462	612.5
563.867	605
564.272	593.8
564.698	608.8
565.103	596.9
565.508	623.2
565.935	603.8
566.34	602
566.745	614.6
567.172	601.6
567.577	621.6
567.982	609.3
568.409	605.9
568.815	593.4
569.22	602.7
569.626	606.7
570.053	587.7
570.459	602.9
570.865	605
571.292	603.7
571.698	602.2
572.104	585.9
572.531	589.3
572.937	610.1
573.343	593.1
573.75	589.9
574.177	592
574.583	602.4
574.99	592.7
575.396	601
575.824	594.9
576.231	602.6
576.637	592.5
577.065	613
577.472	586.8
577.879	593.8
578.286	604.3
578.714	585.2
579.121	592.3
579.528	591.8
579.935	599.7
580.364	595.6
580.771	576
581.178	582.4
581.585	589.1
582.014	590.4
582.421	585.4
582.829	585.1
583.236	594.3
583.644	586.9
584.073	586.1
584.481	584.3
584.889	584.5
585.296	585.9
585.726	590
586.134	578.6
586.542	576.9
586.95	600
587.358	577.6
587.787	585
588.196	577.4
588.604	578.3
589.012	585.7
589.421	572
589.851	576.8
590.259	582.5
590.668	583.7
591.076	614.5
591.485	578.7
591.894	578.2
592.324	592.9
592.733	583.4
593.142	572.8
593.551	575.4
593.96	583.4
594.369	565.3
594.8	568.6
595.209	578.8
595.618	568.9
596.028	576.4
596.437	571.7
596.847	579
597.256	577.9
597.687	579.6
598.097	578.1
598.507	562.9
598.917	581.2
599.327	577.2
599.736	573.7
600.146	577.9
600.556	578.2
600.988	583.2
601.398	571
601.808	583.7
602.219	568.2
602.629	571.2
603.039	573.5
603.45	595.7
603.86	577.1
604.271	590.9
604.703	579.6
605.114	574.5
605.525	575.1
605.935	575.4
606.346	592.5
606.757	578.6
607.168	572.3
607.579	567.8
607.99	573.1
608.402	570.3
608.813	572
609.224	569.1
609.636	563.1
610.047	562.9
610.48	564.9
610.892	573.7
611.303	575.4
611.715	566.6
612.127	561.3
612.539	563.4
612.95	566.1
613.362	561.7
613.774	557.4
614.186	557.4
614.599	564.9
615.011	573.3
615.423	561.9
615.835	561.3
616.248	557
616.66	576.4
617.073	557.9
617.485	566.5
617.898	571.9
618.311	576.7
618.723	561.4
619.136	590.5
619.549	581.6
619.962	590.5
620.375	568.1
620.788	569.8
621.201	560.7
621.614	572.2
622.028	569.3
622.441	569.9
622.854	581.9
623.268	558.9
623.681	568.8
624.095	564.9
624.509	576.4
624.922	573.9
625.336	560.1
625.728	565
626.142	576.4
626.556	581.1
626.97	576.4
627.384	564.6
627.799	567.3
628.213	573.6
628.627	564.6
629.041	563.4
629.456	564.8
629.87	563.3
630.285	571.7
630.699	574.1
631.093	563.1
631.507	566.7
631.922	571.5
632.337	573.3
632.752	551.3
633.167	570.2
633.582	558.6
633.997	565.2
634.412	561.7
634.806	570.7
635.221	561.6
635.637	574.3
636.052	557.6
636.468	569.2
636.883	587.4
637.299	562.6
637.715	545.8
638.109	564.5
638.525	558.7
638.941	570.7
639.357	563.8
639.773	576.7
640.189	560.1
640.584	568.2
641	571.5
641.416	553.9
641.832	557.1
642.249	561.3
642.665	559.6
643.06	567
643.477	575.9
643.894	550.4
644.31	555.6
644.727	559.8
645.123	564.2
645.54	554.6
645.957	567.2
646.374	566.3
646.77	558.6
647.187	582.4
647.604	567.8
648.021	552.7
648.439	557.7
648.835	570.2
649.252	565.6
649.67	559.8
650.088	561.4
650.484	562
650.902	570.4
651.32	566.8
651.738	558.4
652.134	569.8
652.552	581.8
652.971	567.6
653.389	563.6
653.786	577
654.204	566.7
654.622	552.7
655.019	562.7
655.438	570.2
655.857	558.3
656.275	566.1
656.673	559.3
657.091	625.3
657.51	557.3
657.908	571.7
658.327	581.9
658.746	552.3
659.144	562.6
659.563	577.9
659.982	567.4
660.38	556.6
660.8	562
661.219	573
661.617	564.8
662.037	563.5
662.457	566.2
662.855	551.3
663.275	591.2
663.695	558.7
664.094	559.7
664.514	564.7
664.934	552.8
665.333	564.8
665.753	552.9
666.152	555.4
666.572	554.5
666.993	578.2
667.392	563
667.812	559.2
668.212	552.7
668.632	572.5
669.053	551.4
669.453	564.7
669.874	560.9
670.273	568.5
670.694	553.4
671.116	569.1
671.515	570.4
671.937	565.7
672.337	556.3
672.758	559.8
673.158	566.5
673.58	547.8
673.98	559.2
674.402	571.9
674.824	554.3
675.224	553.5
675.646	553.7
676.047	552.7
676.469	553.9
676.869	561.4
677.292	558.2
677.693	553.2
678.115	560.6
678.516	559.1
678.939	563.8
679.34	557.9
679.762	570.4
680.164	562.5
680.586	553.7
680.988	564.5
681.411	586.5
681.812	559.7
682.236	557
682.637	551.9
683.061	544.4
683.462	565.6
683.864	554.5
684.288	563
684.69	552.6
685.114	568.9
685.516	569.4
685.94	550.6
686.342	564.2
686.766	556.3
687.168	554.6
687.571	571.6
687.995	559.2
688.398	543.6
688.822	554.3
689.225	573.1
689.628	573.3
690.052	557.5
690.456	562.5
690.88	553.9
691.284	547
691.687	563.3
692.112	544.4
692.515	548.8
692.919	556.3
693.344	562.5
693.747	553
694.173	552.5
694.577	562.6
694.98	555
695.406	555
695.81	558.4
696.214	558.7
696.64	559.3
697.044	561.3
697.448	569.7
697.874	555.8
698.279	554.1
698.684	550.3
699.11	545.8
699.514	554.1
699.919	551.3
700.324	548
700.75	561.7
701.156	554.1
701.561	567.3
701.987	569.1
702.393	562.6
702.798	561.5
703.203	560.1
703.63	546.7
704.036	549.2
704.442	553.8
704.847	556.6
705.274	553.5
705.68	560.4
706.086	569.9
706.492	541.5
706.92	553.2
707.326	556.8
707.732	554.3
708.139	545
708.545	545.8
708.973	549.1
709.38	550.4
709.786	537.2
710.193	565.8
710.6	558.4
711.028	546.9
711.435	551
711.842	556.1
712.249	553
712.656	555.7
713.064	562.4
713.492	551.8
713.9	550.9
714.307	553.4
714.715	555.9
715.123	562.5
715.53	558.7
715.938	559.4
716.367	560.2
716.775	556
717.184	544.7
717.592	550.2
718	560.6
718.408	586.2
718.816	593.4
719.225	557
719.633	555.3
720.042	550.3
720.472	554.5
720.881	572.7
721.29	561.8
721.699	548.6
722.108	556.3
722.517	561.5
722.926	548.8
723.335	566.2
723.744	553.5
724.154	556.1
724.563	560.3
724.973	556
725.382	559
725.792	548.4
726.202	545.3
726.612	564.4
727.022	557.5
727.432	557.5
779.813	549.3
780.223	592.3
780.634	550.5
781.044	554.4
781.454	557.6
781.865	566
782.276	546.4
782.686	559.4
783.097	556.6
783.508	554.6
783.919	553
784.33	564.9
784.741	567.7
785.152	548.9
785.563	539
785.974	553.7
786.386	565.7
786.776	554.9
787.188	548.2
787.599	542.4
788.011	560.8
788.423	559.4
788.835	551.4
789.247	550
789.659	552
790.071	555.3
790.483	592.4
790.874	552.1
791.286	559.2
791.699	551.7
792.111	551
792.524	560.8
792.937	551.9
793.349	543.9
793.741	554.1
794.154	549.5
794.567	576.6
794.98	551.3
795.393	548.1
795.785	565.8
796.198	545.6
796.612	557.1
797.026	547.7
797.439	539
797.831	548.6
798.245	547.6
798.659	549.5
799.073	553.8
799.487	549.6
799.88	558
800.294	554.4
800.708	558.9
801.123	550.9
801.516	573
801.93	542.6
802.345	535.8
802.76	553.3
803.153	564.3
803.568	566.1
803.983	561.7
804.377	561.5
804.792	538.8
805.207	535.9
805.601	553
806.016	586.5
806.432	546.4
806.826	576.1
807.242	565.6
807.658	557.9
808.052	548
808.468	554.2
808.884	548.4
809.279	554.2
809.695	566.2
810.111	570.5
810.506	556.6
810.922	570.7
811.339	554
811.734	563.6
812.151	551.6
812.546	550.3
812.963	554.8
813.38	556
813.776	552.5
814.193	571.7
814.589	549.4
815.006	554.2
815.402	549.4
815.82	551.3
816.237	555.2
816.633	556.4
817.051	548.2
817.448	561.4
817.866	544
818.262	573.8
818.68	549.5
819.077	548.1
819.495	551.5
819.892	593.4
820.311	547
820.708	549.3
821.127	544.5
821.524	562.4
821.943	555.3
822.34	562.2
822.759	553
823.157	558.9
823.576	562.7
823.974	555.5
824.393	556.7
824.791	548.6
825.189	545.1
825.609	548
826.007	551
826.427	539.2
826.826	548.2
827.246	559.4
827.644	541.1
828.043	567.2
828.463	549.9
828.862	560.8
829.261	557.4
829.682	544.6
830.081	561.6
830.502	546.5
830.901	557.2
831.301	552
831.722	534.9
832.121	557.1
832.521	547.7
832.943	550.7
833.342	554.2
833.742	544.9
834.164	550.3
834.564	541.4
834.965	544.3
835.386	550.6
835.787	549.4
836.188	554.4
836.588	554.5
837.01	551.6
837.411	544.3
837.812	563.7
838.213	550.7
838.636	545
839.037	615.7
839.438	548
839.84	553.3
840.263	556.7
840.664	557.2
841.066	548.4
841.468	552.3
841.891	547.2
842.293	562.7
842.695	556.4
843.098	557.8
843.5	544.2
843.902	556.8
844.326	553.1
844.729	550.1
845.131	559.3
845.534	549.1
845.937	560.7
846.34	567.5
846.764	544.2
847.167	554.4
847.571	546
