#lambda/nm	C1
208.295	484.4
208.67	447.6
209.045	411.7
209.419	415.8
209.794	604.6
210.169	580.1
210.544	700
210.919	600
211.295	592.6
211.67	593.9
212.045	592
212.421	591
212.796	630.6
213.172	591.4
213.547	585.7
213.923	593.1
214.299	589.4
214.675	597.9
215.051	594.3
215.427	599.7
215.803	606.4
216.179	599.6
216.555	585.8
216.932	603.8
217.308	594.4
217.684	590.3
218.061	600.2
218.438	598.1
218.814	588.8
219.191	601.8
219.568	585.7
219.945	588.3
220.322	598.7
220.699	593.3
221.076	600
221.453	595.5
221.83	586.9
222.208	592.2
222.585	595.3
222.962	599.7
223.34	596.7
223.717	586.9
224.095	591.6
224.473	597.2
224.851	584.8
225.229	583.4
225.607	605.9
225.985	591.4
226.363	596.1
226.741	598.5
227.119	585.7
227.497	605.8
227.876	585.9
228.254	596.7
228.633	598.7
229.011	594.4
229.39	596.5
229.769	596.7
230.148	602.4
230.527	611.5
230.905	593.8
231.284	593.6
231.664	583.9
232.043	602.7
232.422	598.5
232.801	588.6
233.181	595.6
233.56	591.1
233.94	588.1
234.319	574.7
234.699	585.8
235.079	631.3
235.458	626
235.838	608.6
236.218	580.1
236.598	584.4
236.978	586.2
237.358	587.5
237.738	581.5
238.119	594.3
238.499	585.7
238.88	586.8
239.26	606.5
239.641	578.9
240.021	589.5
240.402	591
240.783	588.2
241.163	593.1
241.544	593.9
241.925	595.6
242.306	606.1
242.687	588.1
243.069	589.9
243.45	598.1
243.831	587.3
244.212	588.8
244.594	627.7
244.975	601.2
245.357	596.4
245.739	585.2
246.12	593.2
246.502	609.9
246.884	589.6
247.266	589.2
247.648	598.7
248.03	616.8
248.412	593.1
248.794	600.8
249.176	592
249.559	601.2
249.941	589.1
250.323	591.9
250.706	582.8
251.089	591.9
251.471	593.7
251.854	596.9
252.237	590.4
252.62	602.3
253.002	594.2
253.385	587.8
253.769	611.3
254.152	590.1
254.535	600.1
254.918	589.8
255.301	591.7
255.685	589.2
256.068	583.1
256.452	612.6
256.835	601.2
257.219	606.5
257.603	602.4
257.986	581.8
258.37	594.5
258.754	582
259.138	600.2
259.522	603.2
259.906	589.2
260.29	591.3
260.675	586.6
261.059	591.6
261.443	584.1
261.828	594.1
262.212	595.6
262.597	582.3
262.981	590.1
263.366	596.6
263.751	595.4
264.136	588.2
264.521	591.9
264.906	588.1
265.291	602.6
265.676	588
266.061	600.7
266.446	615.8
266.831	587.6
267.217	610.1
267.602	602.7
267.987	599.9
268.373	594
268.759	598.2
269.144	599.1
269.53	593.2
269.916	591
270.302	586.1
270.688	599.1
271.074	593.2
271.46	606.2
271.846	618.5
272.232	598.1
272.618	589.7
273.004	595.6
273.391	597.8
273.777	603.5
274.164	594.8
274.55	608
274.937	601.2
275.324	592.3
275.71	601.6
276.097	601.9
276.484	584.7
276.871	595.5
277.258	598.7
277.645	579.2
278.032	591.3
278.419	590.8
278.807	595.7
279.194	587.3
279.581	583
279.969	594.1
280.356	594.1
280.744	595.8
281.131	622.6
281.519	601.5
281.907	589.4
282.295	588.2
282.682	604.5
283.07	589.3
283.458	600.4
283.846	604
284.235	596.9
284.623	604.7
285.011	581.6
285.399	594.1
285.788	591.9
286.176	579.8
286.565	603
286.953	582.3
287.342	588.1
287.731	581.6
288.119	592.4
288.508	587.1
288.897	594.7
289.286	582
289.675	600
290.064	604.6
290.453	586
290.821	593.6
291.21	607.5
291.599	595.6
291.989	590
292.378	602.5
292.768	615.7
293.157	598
293.547	603.4
293.936	596.8
294.326	591.3
294.716	599.7
295.106	595.1
295.496	598.2
295.886	608.9
296.276	597.7
296.666	586.5
297.056	588.7
297.446	586.1
297.836	611.5
298.227	596.8
298.617	600.9
299.008	610.6
299.398	593.4
299.789	590.5
300.179	598.8
300.57	610.8
300.961	586.5
301.352	593.6
301.742	601.5
302.133	594.2
302.524	589.7
302.915	594.5
303.307	591.7
303.698	599.4
304.089	600.6
304.48	589
304.872	602.5
305.263	597.3
305.655	586.4
306.046	599.3
306.438	595.5
306.829	591.6
307.221	611.9
307.613	596.8
308.005	606.2
308.397	610.6
308.789	618.9
309.181	616.7
309.573	611.9
309.965	604.3
310.357	594.3
310.749	597.3
311.142	586.7
311.534	586
311.926	603.7
312.319	594.1
312.711	592.3
313.104	609.4
313.497	593.9
313.889	635.1
314.282	610.4
314.675	621.8
315.068	594.6
315.461	605.4
315.854	622.1
316.247	601.8
316.64	592.9
317.033	595.2
317.405	608.7
317.798	594.9
318.192	603.4
318.585	590.3
318.979	602.1
319.372	587.4
319.766	596.8
320.16	608.8
320.553	609.1
320.947	617.3
321.341	595.4
321.735	594.1
322.129	583
322.523	622.4
322.917	589.1
323.311	603.6
323.705	595.9
324.099	596.6
324.494	609.3
324.888	605.2
325.282	596.8
325.677	600.3
326.071	607.4
326.466	605.2
326.861	605.6
327.255	610.3
327.65	609.5
328.045	610.3
328.44	598.2
328.835	593.6
329.23	592.1
329.625	619.9
330.02	590.7
330.415	616
330.81	594.8
331.206	592.3
331.601	593.1
331.996	602.1
332.37	605.9
332.766	581.4
333.161	616.9
333.557	589.3
333.953	590.6
334.348	883.1
334.744	598.1
335.14	589.5
335.536	586.2
335.932	608.1
336.328	592.1
336.724	605.5
337.12	590.4
337.516	601.5
337.913	597
338.309	605.8
338.705	594.8
339.102	611.3
339.498	593.9
339.895	606.1
340.291	590.4
340.688	602.5
341.085	588.2
341.481	591.7
341.878	591.4
342.275	614.5
342.672	587.5
343.069	590.8
343.466	582.3
343.842	605.5
344.239	584.3
344.636	598.1
345.033	588.2
345.431	586.9
345.828	595
346.225	593.9
346.623	605.5
347.02	597
347.418	603.6
347.816	605.5
348.213	590.7
348.611	594.9
349.009	588.7
349.407	605.4
349.805	579.5
350.203	584.4
350.601	607.4
350.999	589.3
351.397	587.8
351.795	590.1
352.193	604
352.57	599.1
352.969	602.6
353.367	587.3
353.766	586.5
354.164	590.3
354.563	594.3
354.961	590.6
355.36	590.1
355.759	589.3
356.158	583.1
356.557	581.5
356.956	579.2
357.355	585.5
357.754	592.2
358.153	599.6
358.552	616.4
358.951	590.6
359.35	600.7
359.75	585.6
360.149	583.2
360.527	580.3
360.926	577.9
361.326	596.7
361.726	589.9
362.125	584.5
362.525	600.3
362.925	584.5
363.325	587.4
363.724	586.9
364.124	584.4
364.524	586.1
364.924	583.9
365.324	601
365.725	573.9
366.125	592.5
366.525	587.2
366.904	582.7
367.304	577.2
367.705	611.1
368.105	597.5
368.506	582.6
368.906	587.4
369.307	591
369.708	597.9
370.108	570.3
370.509	597.1
370.91	580.9
371.311	586.2
371.712	597.8
372.113	585.1
372.514	580.9
372.894	587.4
373.295	587.8
373.696	596.5
374.097	593.3
374.499	615.7
374.9	586.1
375.301	585.7
375.703	589.7
376.105	580.2
376.506	589
376.908	585.5
377.309	587.7
377.711	587.2
378.113	585.7
378.493	587.2
378.895	577.2
379.297	590.6
379.699	575.6
380.102	586.3
380.504	592.5
380.906	581.2
381.308	614.6
381.71	589
382.113	596.4
382.515	586.5
382.918	588.6
383.299	580.4
383.701	594.8
384.104	587
384.507	567.5
384.909	585.8
385.312	578.4
385.715	577.6
386.118	584.5
386.521	581.9
386.924	591.4
387.327	580.1
387.709	576.9
388.112	574.1
388.515	581.9
388.918	586.3
389.322	590.9
389.725	581.1
390.129	612.1
390.532	588.1
390.936	582.8
391.339	582.6
391.743	586.1
392.125	584
392.529	595.1
392.933	598.3
393.337	591.5
393.74	585
394.144	587.8
394.548	581.2
394.953	580.3
395.357	595.9
395.761	584.7
396.144	582.7
396.548	584.7
396.952	587.9
397.357	590.5
397.761	579.4
398.166	579.5
398.57	589.4
398.975	576.6
399.379	583.9
399.763	634.7
400.168	584.1
400.572	591
400.977	583.5
401.382	608.1
401.787	599.8
402.192	601.2
402.597	601.3
403.002	578.7
403.386	600.9
403.791	607.7
404.197	583.3
404.602	588.6
405.007	581.8
405.413	584.1
405.818	586.5
406.224	578.5
406.608	578.4
407.014	575.9
407.42	605.9
407.825	579.3
408.231	593
408.637	590.4
409.043	603.1
409.449	583.5
409.834	582.4
410.24	585.3
410.646	600.4
411.052	599.5
411.458	590.4
411.865	591.8
412.271	594.9
412.677	588.1
413.062	594.6
413.469	578.5
413.875	611.7
414.282	602
414.689	591.9
415.095	603.1
415.502	584.7
415.888	584.8
416.294	570.4
416.701	629.2
417.108	582
417.515	600.4
417.923	580.1
418.33	603.5
418.715	600.7
419.123	587.7
419.53	588.3
419.937	587.2
420.345	602.2
420.752	585
421.16	601.9
421.546	587.8
421.953	596.2
422.361	576
422.769	587.1
423.177	580
423.585	611.4
423.992	610.8
424.379	599.4
424.787	598
425.195	607.1
425.603	584.6
426.011	594
426.419	602.3
426.806	591.9
427.214	582.3
427.623	600.9
428.031	602
428.44	590.5
428.848	606.4
429.235	604.9
429.644	595.1
430.053	593.6
430.461	612.7
430.87	630.7
431.279	616.6
431.666	602.6
432.075	615.8
432.484	624.9
432.893	624.9
433.302	655.6
433.711	692
434.099	657.8
434.508	672.1
434.918	670.5
435.327	704.1
435.737	717.3
436.125	727.2
436.534	740.1
436.944	769.9
437.353	778.8
437.763	810.2
438.173	811.5
438.561	847.1
438.971	831.6
439.381	855.1
439.791	882.6
440.201	876
440.589	918.8
440.999	946
441.409	967.4
441.819	950.9
442.23	1000.8
442.619	1011.6
443.029	1032
443.439	1044.6
443.85	1058.9
444.26	1079
444.649	1077.4
445.06	1083.1
445.471	1092.3
445.881	1117.1
446.292	1147
446.682	1160.3
447.092	1156.4
447.503	1215.7
447.914	1174.2
448.325	1191.9
448.715	1196.7
449.126	1185.7
449.537	1203.7
449.948	1213
450.338	1214.5
450.75	1230
451.161	1234.2
451.572	1245.5
451.984	1249.9
452.374	1243.3
452.786	1262.9
453.197	1262.1
453.609	1272.9
453.999	1261
454.411	1265.9
454.823	1289.5
455.235	1278.8
455.647	1280.9
456.037	1281.7
456.449	1263
456.862	1288.4
457.274	1294.4
457.665	1274.9
458.077	1294.4
458.489	1311.6
458.902	1284.5
459.293	1296.3
459.705	1298.2
460.118	1285.6
460.53	1290
460.921	1294.3
461.334	1282.7
461.747	1297.3
462.16	1308.4
462.551	1302.3
462.964	1309.7
463.377	1287.1
463.79	1309.9
464.182	1321.9
464.595	1293.9
465.008	1304
465.421	1300.5
465.813	1295.8
466.226	1298.9
466.64	1286.4
467.053	1334.6
467.445	1297
467.859	1295.5
468.272	1290
468.686	1293
469.078	1270.5
469.492	1265.7
469.906	1277.3
470.298	1280.4
470.712	1264.2
471.126	1294
471.54	1247.2
471.933	1251.3
472.347	1258.1
472.761	1248.9
473.175	1250.1
473.568	1240.5
473.982	1234.7
474.397	1255.5
474.79	1246.6
475.204	1266
475.619	1236.8
476.033	1236.2
476.426	1237.7
476.841	1221.4
477.256	1258.4
477.649	1225.4
478.064	1216.4
478.479	1218.1
478.872	1210.1
479.287	1204.2
479.702	1191.9
480.118	1200.7
480.511	1205.8
480.927	1196.8
481.342	1196.1
481.736	1203.2
482.151	1200.5
482.566	1199.3
482.96	1188.6
483.376	1204.9
483.792	1176.8
484.186	1180.6
484.602	1178.4
485.017	1180.5
485.412	1161.1
485.827	1170.3
486.243	1163.4
486.638	1178.9
487.054	1162.1
487.47	1167.4
487.865	1149
488.281	1146.2
488.697	1133.1
489.092	1126.5
489.508	1118
489.925	1142.9
490.32	1112.1
490.736	1120.1
491.153	1112.4
491.548	1116.3
491.964	1115.4
492.381	1084.6
492.776	1089.7
493.193	1094
493.61	1098.7
494.006	1080.9
494.422	1085.6
494.84	1077.4
495.235	1079.1
495.652	1074.6
496.069	1064.3
496.465	1056.1
496.883	1053.6
497.3	1074.1
497.696	1043.3
498.113	1056
498.509	1041
498.927	1029
499.344	1021.7
499.741	1029.3
500.158	1028.6
500.576	1038.4
500.973	1020.3
501.39	1008.9
501.787	1001.6
502.205	1005.5
502.623	1000.4
503.02	996.9
503.438	991.9
503.856	985.9
504.253	992
504.671	987.4
505.068	975.5
505.486	970.7
505.905	990.6
506.302	971.2
506.72	978
507.118	952.9
507.536	951
507.955	947.5
508.352	949.1
508.771	955.7
509.169	945.7
509.587	941.7
510.006	940.4
510.404	917.7
510.823	921.7
511.221	920.3
511.64	911.7
512.038	932.3
512.457	913.8
512.877	911.3
513.275	897.4
513.694	892.8
514.092	892.6
514.512	889.2
514.91	895
515.33	885.7
515.749	889.7
516.148	888.7
516.568	879.5
516.966	881.4
517.386	869.5
517.785	868.2
518.205	861.1
518.603	850
519.024	850.9
519.444	860.7
519.843	859.9
520.263	858.6
520.662	853.4
521.082	845.9
521.481	842.6
521.902	834.5
522.301	831.6
522.722	839.3
523.121	830.4
523.542	829.7
523.963	819
524.362	824.3
524.783	830.1
525.183	815.2
525.604	821.3
526.003	815.2
526.425	802
526.824	813.5
527.246	816.6
527.646	809.3
528.067	802.1
528.467	801.2
528.888	793
529.289	783.7
529.71	790.6
530.11	785.2
530.532	774.2
530.932	773.5
531.354	767.1
531.755	810.7
532.176	778.2
532.577	761.2
532.999	769.9
533.4	763.9
533.822	773.2
534.223	763.4
534.645	757.6
535.046	750.7
535.468	757.2
535.869	769.8
536.292	749
536.693	750.3
537.115	753.8
537.516	741.9
537.939	749.5
538.34	759.7
538.742	761.4
539.165	743.9
539.566	742.9
539.989	738.2
540.391	736.6
540.814	742.9
541.216	744.3
541.639	741.5
542.041	737.5
542.464	727.2
542.866	727.2
543.268	720.3
543.691	733
544.093	734
544.517	740.5
544.919	715.4
545.343	750.4
545.745	714.8
546.147	716.9
546.571	716.1
546.974	706.2
547.398	711.7
547.8	726.3
548.224	710.2
548.627	694.7
549.03	718.1
549.454	696.2
549.857	692.2
550.281	694.8
550.684	690.9
551.087	702.9
551.512	700.7
551.915	704.2
552.34	692.4
552.743	684.2
553.146	693
553.571	687.8
553.975	706.8
554.399	681
554.803	732.8
555.207	682.1
555.632	668.9
556.036	690.2
556.461	674.2
556.865	684.8
557.268	663.5
557.694	678.3
558.098	677.7
558.502	675.7
558.927	668.9
559.332	666.7
559.736	674.1
560.162	680.8
560.566	663
560.992	671.7
561.396	662.9
561.801	661.6
562.227	658
562.631	660.2
563.036	658.6
563.462	660.6
563.867	659.9
564.272	638.7
564.698	663.7
565.103	645.3
565.508	673.9
565.935	651.6
566.34	653.7
566.745	661.2
567.172	652.4
567.577	667.3
567.982	661.9
568.409	649.3
568.815	639.4
569.22	642.5
569.626	647
570.053	634
570.459	643.8
570.865	646.7
571.292	649.3
571.698	646
572.104	625.5
572.531	633.1
572.937	647.5
573.343	634.5
573.75	632.9
574.177	640.4
574.583	638.6
574.99	629.5
575.396	640
575.824	635.1
576.231	638
576.637	628.9
577.065	658.9
577.472	628.6
577.879	628.7
578.286	640.7
578.714	621.7
579.121	625.2
579.528	625.4
579.935	636
580.364	627.4
580.771	613.3
581.178	617.3
581.585	631.4
582.014	631.3
582.421	623.3
582.829	617.5
583.236	633.9
583.644	609.5
584.073	621.2
584.481	619
584.889	610.5
585.296	621.3
585.726	619.4
586.134	611.6
586.542	612.4
586.95	630.7
587.358	602.9
587.787	615.5
588.196	604.3
588.604	610
589.012	614
589.421	603.8
589.851	607.1
590.259	612.5
590.668	605.7
591.076	646.6
591.485	605.3
591.894	604
592.324	620.8
592.733	622.9
593.142	595.1
593.551	606.7
593.96	637.3
594.369	598
594.8	601.3
595.209	605.6
595.618	589.6
596.028	599.2
596.437	596
596.847	604.6
597.256	604.8
597.687	610
598.097	602.4
598.507	591.9
598.917	605.5
599.327	609
599.736	598
600.146	601
600.556	603.7
600.988	615.2
601.398	598
601.808	607.4
602.219	584.3
602.629	592.5
603.039	599.6
603.45	621.8
603.86	594.2
604.271	610.2
604.703	598.8
605.114	592
605.525	591.3
605.935	591.3
606.346	610.7
606.757	595.6
607.168	590.2
607.579	586.6
607.99	601
608.402	587
608.813	591.6
609.224	585
609.636	577.4
610.047	585.4
610.48	587.1
610.892	597.4
611.303	597.3
611.715	586.4
612.127	584.8
612.539	586
612.95	583.9
613.362	577.8
613.774	577
614.186	580.3
614.599	582.9
615.011	590.9
615.423	580.3
615.835	583.7
616.248	574.9
616.66	592.7
617.073	570.6
617.485	584.8
617.898	588.6
618.311	579.9
618.723	586.7
619.136	612.5
619.549	599.1
619.962	608.5
620.375	578.2
620.788	587.4
621.201	573.9
621.614	586.5
622.028	578.5
622.441	590.3
622.854	596.1
623.268	570.4
623.681	589.5
624.095	582.4
624.509	592.1
624.922	587.6
625.336	571.5
625.728	586
626.142	596
626.556	601.9
626.97	589.3
627.384	574.6
627.799	579.8
628.213	595.1
628.627	585.5
629.041	580.2
629.456	577.4
629.87	589.5
630.285	593.8
630.699	586.4
631.093	584.2
631.507	584.9
631.922	584.2
632.337	598.8
632.752	574.9
633.167	585.6
633.582	579.6
633.997	579
634.412	574
634.806	583.1
635.221	570.2
635.637	592.7
636.052	578.4
636.468	579.2
636.883	593.3
637.299	579.3
637.715	564.1
638.109	579.5
638.525	567.1
638.941	593.5
639.357	577.9
639.773	585.7
640.189	568.8
640.584	579.1
641	581.4
641.416	566.1
641.832	575.8
642.249	569.2
642.665	574
643.06	580
643.477	584.3
643.894	557.1
644.31	574.5
644.727	577.5
645.123	575.3
645.54	567.8
645.957	580.9
646.374	580.4
646.77	573.7
647.187	608.7
647.604	576.7
648.021	565.7
648.439	567.9
648.835	580.1
649.252	578.9
649.67	568.7
650.088	579.6
650.484	571.5
650.902	584.5
651.32	588.4
651.738	574.1
652.134	578.9
652.552	591.3
652.971	582.1
653.389	575.6
653.786	584.5
654.204	574.8
654.622	567.2
655.019	578.1
655.438	581.7
655.857	575.5
656.275	580.6
656.673	568.2
657.091	641.8
657.51	567.2
657.908	579.6
658.327	588.4
658.746	569.2
659.144	571.9
659.563	582.6
659.982	572.1
660.38	561.2
660.8	574.7
661.219	585.4
661.617	573.6
662.037	572
662.457	585.6
662.855	562.5
663.275	590.8
663.695	576
664.094	576.6
664.514	579.1
664.934	563
665.333	578.8
665.753	563.3
666.152	565
666.572	565.9
666.993	587
667.392	574.3
667.812	571.4
668.212	567.1
668.632	578.8
669.053	571.5
669.453	573.6
669.874	577.3
670.273	579.9
670.694	564.5
671.116	587.7
671.515	581.5
671.937	570.1
672.337	567.4
672.758	574
673.158	579.1
673.58	562.4
673.98	573
674.402	588
674.824	572.7
675.224	568.9
675.646	563.7
676.047	569.3
676.469	568.3
676.869	577.3
677.292	577.4
677.693	570.1
678.115	571.9
678.516	576.3
678.939	572.9
679.34	566.9
679.762	577.6
680.164	574.1
680.586	560.3
680.988	570.6
681.411	588.5
681.812	570.4
682.236	559.8
682.637	563.2
683.061	559.6
683.462	569.2
683.864	566
684.288	581
684.69	561
685.114	579.6
685.516	577.9
685.94	563.4
686.342	576.8
686.766	565.1
687.168	567
687.571	584.7
687.995	568.8
688.398	556.4
688.822	566.1
689.225	578
689.628	585
690.052	571
690.456	578.7
690.88	571.3
691.284	552.7
691.687	570.5
692.112	564.9
692.515	557
692.919	571.2
693.344	570.6
693.747	564.7
694.173	561.4
694.577	575.8
694.98	562.9
695.406	568.6
695.81	567.4
696.214	574.9
696.64	579.3
697.044	576.1
697.448	577.7
697.874	562
698.279	567.7
698.684	569.1
699.11	564.2
699.514	566.1
699.919	562.6
700.324	556.9
700.75	565.8
701.156	570.5
701.561	578.2
701.987	572.4
702.393	574
702.798	575.2
703.203	568.4
703.63	560
704.036	565
704.442	565.9
704.847	561.7
705.274	570.1
705.68	565.2
706.086	576.2
706.492	552.3
706.92	565
707.326	572.7
707.732	565
708.139	552.4
708.545	553.6
708.973	559
709.38	563.6
709.786	557.9
710.193	577
710.6	566.8
711.028	554.2
711.435	561.5
711.842	560.2
712.249	559.2
712.656	562.8
713.064	570.9
713.492	555.7
713.9	560.4
714.307	567.2
714.715	559.3
715.123	565.2
715.53	566.4
715.938	573.8
716.367	564.7
716.775	565.4
717.184	556.3
717.592	568.1
718	573.6
718.408	595.2
718.816	606.8
719.225	570.5
719.633	567.1
720.042	560.2
720.472	562.4
720.881	582.6
721.29	569.2
721.699	554.5
722.108	569.8
722.517	568.3
722.926	563.6
723.335	580.5
723.744	562.1
724.154	563.4
724.563	568.7
724.973	571.3
725.382	566.9
725.792	564.1
726.202	562
726.612	578.6
727.022	567.8
727.432	560.5
779.813	565.3
780.223	608.9
780.634	565.4
781.044	561
781.454	570
781.865	575
782.276	562.1
782.686	578.9
783.097	565.8
783.508	562.7
783.919	570.5
784.33	573.6
784.741	575.6
785.152	560.9
785.563	549.4
785.974	562.1
786.386	576
786.776	562.7
787.188	565
787.599	560.4
788.011	570.8
788.423	570.9
788.835	558.6
789.247	554.1
789.659	564.9
790.071	565.5
790.483	601.6
790.874	560.4
791.286	567.3
791.699	561.5
792.111	560.2
792.524	561.6
792.937	565.7
793.349	556.9
793.741	564.1
794.154	560.5
794.567	577.5
794.98	561.3
795.393	555.2
795.785	579.2
796.198	559.4
796.612	562
797.026	561.9
797.439	550.1
797.831	562
798.245	557.2
798.659	555.3
799.073	558.6
799.487	553.4
799.88	567.4
800.294	563
800.708	567.1
801.123	566.7
801.516	580.7
801.93	554.1
802.345	550.1
802.76	562
803.153	576.5
803.568	577.6
803.983	574.1
804.377	569.6
804.792	552.2
805.207	549.5
805.601	563.6
806.016	595.2
806.432	554.7
806.826	591.3
807.242	573
807.658	564.4
808.052	558.3
808.468	556.4
808.884	558.7
809.279	560.4
809.695	573.9
810.111	577.9
810.506	562.6
810.922	578
811.339	559.9
811.734	572.8
812.151	558.5
812.546	556.9
812.963	560
813.38	567.2
813.776	564.4
814.193	583.6
814.589	555.4
815.006	556.5
815.402	550.3
815.82	562.7
816.237	569.8
816.633	568.9
817.051	553.4
817.448	567.4
817.866	555.2
818.262	579.6
818.68	560.3
819.077	553.5
819.495	556.4
819.892	601.1
820.311	550.2
820.708	558.6
821.127	563.1
821.524	576.2
821.943	564.8
822.34	581
822.759	566.9
823.157	567.6
823.576	574.5
823.974	571.4
824.393	569.1
824.791	561.4
825.189	555.7
825.609	554.6
826.007	562.4
826.427	552.2
826.826	561.6
827.246	570.4
827.644	551.1
828.043	571
828.463	558
828.862	571.4
829.261	569.1
829.682	556.2
830.081	567.9
830.502	553.1
830.901	564.4
831.301	560
831.722	551.3
832.121	561.3
832.521	563.8
832.943	560.4
833.342	560.9
833.742	550.1
834.164	561.4
834.564	557.1
834.965	567.4
835.386	561.4
835.787	560
836.188	560.7
836.588	564.1
837.01	566.7
837.411	557.4
837.812	567.4
838.213	562.6
838.636	554.5
839.037	631.4
839.438	561.2
839.84	560
840.263	560.1
840.664	563.4
841.066	558.2
841.468	562
841.891	560.4
842.293	569.9
842.695	560.7
843.098	569.4
843.5	560.3
843.902	563.8
844.326	568.8
