#lambda/nm	C1
208.295	479.1
208.67	442.3
209.045	404.7
209.419	411.1
209.794	587.3
210.169	567.6
210.544	680.1
210.919	584.9
211.295	567.7
211.67	581.1
212.045	573.1
212.421	578.8
212.796	616.5
213.172	579.9
213.547	570.9
213.923	572.1
214.299	566.9
214.675	582.6
215.051	580.3
215.427	587.1
215.803	594.7
216.179	580.5
216.555	567.8
216.932	586.7
217.308	574.2
217.684	572.4
218.061	582.1
218.438	580.3
218.814	572.5
219.191	584
219.568	570.9
219.945	576.4
220.322	585.8
220.699	587.4
221.076	585.5
221.453	585.9
221.83	569.4
222.208	574.2
222.585	571.4
222.962	576.5
223.34	581.8
223.717	578.8
224.095	567.4
224.473	579.2
224.851	573.1
225.229	566.6
225.607	594.6
225.985	567.8
226.363	577.6
226.741	579.8
227.119	575.8
227.497	588.4
227.876	567.8
228.254	583.1
228.633	582.1
229.011	575.7
229.39	584.1
229.769	579
230.148	584.2
230.527	594.6
230.905	576.9
231.284	579.9
231.664	571.5
232.043	590.8
232.422	584.1
232.801	573.8
233.181	584.4
233.56	577.1
233.94	575.1
234.319	561.7
234.699	573.9
235.079	616
235.458	616.3
235.838	595.8
236.218	572.7
236.598	568.4
236.978	570.5
237.358	567.7
237.738	576.5
238.119	581
238.499	565.2
238.88	579.3
239.26	591.9
239.641	568.4
240.021	574.9
240.402	573.3
240.783	575
241.163	576.3
241.544	577.5
241.925	579.8
242.306	593.6
242.687	565.1
243.069	584.1
243.45	585.7
243.831	576.3
244.212	574.5
244.594	614.9
244.975	588.3
245.357	585.8
245.739	569.2
246.12	580.4
246.502	589.7
246.884	575.8
247.266	570.8
247.648	581.3
248.03	594.8
248.412	579.5
248.794	583
249.176	578
249.559	588.8
249.941	577.1
250.323	571.9
250.706	571.7
251.089	580.7
251.471	581.2
251.854	581.4
252.237	579.3
252.62	582.7
253.002	583.5
253.385	580.5
253.769	594
254.152	586
254.535	588.5
254.918	579.3
255.301	579.7
255.685	576
256.068	574.1
256.452	600.1
256.835	576.4
257.219	585.4
257.603	588.9
257.986	572.8
258.37	584.3
258.754	561.3
259.138	585.7
259.522	588.8
259.906	571.4
260.29	581.7
260.675	578.5
261.059	580.6
261.443	577.9
261.828	583.2
262.212	585.7
262.597	568.7
262.981	576.1
263.366	588.6
263.751	583.4
264.136	573.5
264.521	577.2
264.906	569.3
265.291	586.5
265.676	577.8
266.061	591.8
266.446	594
266.831	579
267.217	595.1
267.602	580.7
267.987	581.8
268.373	567.7
268.759	587.8
269.144	583.6
269.53	579.8
269.916	575.4
270.302	575.5
270.688	579.3
271.074	577.1
271.46	587.9
271.846	605.2
272.232	576.9
272.618	572.3
273.004	572.6
273.391	586.6
273.777	585.3
274.164	579.7
274.55	593.4
274.937	582.6
275.324	574
275.71	581.6
276.097	575.9
276.484	567.6
276.871	580.6
277.258	587.1
277.645	564.2
278.032	578.2
278.419	571.7
278.807	577.9
279.194	569.5
279.581	570.4
279.969	583.2
280.356	578.4
280.744	579.5
281.131	605.5
281.519	588.4
281.907	574.2
282.295	573.9
282.682	591.4
283.07	584.9
283.458	583.7
283.846	584
284.235	594.8
284.623	590.2
285.011	562.9
285.399	573
285.788	575.7
286.176	565.3
286.565	588.5
286.953	568.5
287.342	574.2
287.731	575.9
288.119	567.2
288.508	571
288.897	578.2
289.286	565.3
289.675	579.7
290.064	585.3
290.453	577
290.821	581.8
291.21	587.2
291.599	574.5
291.989	579.9
292.378	579.5
292.768	593.2
293.157	584.2
293.547	587.5
293.936	574.7
294.326	572.4
294.716	585.3
295.106	575.9
295.496	583.7
295.886	586.8
296.276	580
296.666	573
297.056	567.5
297.446	565.9
297.836	595.6
298.227	570.4
298.617	583.6
299.008	591.8
299.398	583.4
299.789	574.3
300.179	586.1
300.57	591.3
300.961	574
301.352	576.6
301.742	586.4
302.133	579.1
302.524	581.3
302.915	576.9
303.307	567.7
303.698	588.2
304.089	586.2
304.48	582.5
304.872	580.8
305.263	580.5
305.655	568.9
306.046	582.7
306.438	585.7
306.829	571.8
307.221	592.2
307.613	589.7
308.005	585.5
308.397	593.7
308.789	601.4
309.181	602
309.573	597.9
309.965	587.7
310.357	576.4
310.749	585.1
311.142	575.8
311.534	575
311.926	585.2
312.319	578.2
312.711	576.9
313.104	590.3
313.497	581.9
313.889	617.9
314.282	598.3
314.675	604.3
315.068	585.5
315.461	587.6
315.854	614.9
316.247	587.3
316.64	577.1
317.033	581.9
317.405	590.6
317.798	579.4
318.192	579.4
318.585	577.7
318.979	583.2
319.372	573.7
319.766	579.4
320.16	592.4
320.553	594
320.947	600.8
321.341	578.4
321.735	581.4
322.129	568
322.523	601
322.917	575
323.311	585.8
323.705	580.2
324.099	582.6
324.494	593.6
324.888	594.2
325.282	575.8
325.677	586.2
326.071	587.8
326.466	591.9
326.861	584.6
327.255	592.3
327.65	596.2
328.045	600.1
328.44	586.2
328.835	582.7
329.23	575.2
329.625	602.5
330.02	577.8
330.415	599.3
330.81	585.7
331.206	581.7
331.601	577.8
331.996	589.6
332.37	591.2
332.766	570.6
333.161	597.2
333.557	577.6
333.953	580.8
334.348	900.3
334.744	578.3
335.14	577.8
335.536	570.4
335.932	598.3
336.328	581.8
336.724	589.8
337.12	583.7
337.516	581.3
337.913	580.7
338.309	595.6
338.705	580.7
339.102	592.7
339.498	575.5
339.895	593.8
340.291	574.6
340.688	591.2
341.085	574.3
341.481	578.6
341.878	579.6
342.275	593.5
342.672	573.4
343.069	575
343.466	565
343.842	590.6
344.239	574
344.636	577.5
345.033	567.6
345.431	571.6
345.828	578
346.225	573.7
346.623	584
347.02	579.3
347.418	590.9
347.816	592.2
348.213	571.7
348.611	580.3
349.009	570.6
349.407	587.2
349.805	568
350.203	566.5
350.601	590.6
350.999	576.6
351.397	569.2
351.795	575.5
352.193	582.5
352.57	585.2
352.969	588.3
353.367	572.2
353.766	567.8
354.164	578.9
354.563	586.2
354.961	582.4
355.36	573.2
355.759	567.2
356.158	573.5
356.557	569.8
356.956	566.1
357.355	568.2
357.754	582.4
358.153	587.9
358.552	598.7
358.951	573.3
359.35	585.1
359.75	571.9
360.149	569
360.527	562.5
360.926	564.6
361.326	577.4
361.726	570.6
362.125	569.8
362.525	586
362.925	572
363.325	576.1
363.724	576
364.124	573.3
364.524	568.8
364.924	576
365.324	581.3
365.725	562.3
366.125	576.9
366.525	571.6
366.904	563.1
367.304	554.9
367.705	582.9
368.105	586.8
368.506	572.9
368.906	572
369.307	572.6
369.708	570.3
370.108	564
370.509	581.7
370.91	568.2
371.311	570.6
371.712	569.8
372.113	570
372.514	559.8
372.894	566.5
373.295	566
373.696	585.2
374.097	580.8
374.499	606.2
374.9	572
375.301	566.2
375.703	574
376.105	565.4
376.506	577.6
376.908	586.7
377.309	570
377.711	571
378.113	571.2
378.493	576.7
378.895	564.9
379.297	583
379.699	557.8
380.102	581.4
380.504	570.9
380.906	572.6
381.308	591.5
381.71	566.7
382.113	579.6
382.515	569.8
382.918	575.6
383.299	568.2
383.701	577.8
384.104	573.8
384.507	552.1
384.909	566.7
385.312	560.1
385.715	556.2
386.118	563.7
386.521	558.5
386.924	580.7
387.327	567.1
387.709	561.5
388.112	558.9
388.515	568.5
388.918	564.5
389.322	580.9
389.725	567.7
390.129	590
390.532	573.2
390.936	569.6
391.339	563.5
391.743	570.6
392.125	561.9
392.529	581.2
392.933	584.9
393.337	573.2
393.74	572.8
394.144	571.6
394.548	565.6
394.953	563.1
395.357	576.3
395.761	569.4
396.144	573.9
396.548	576.6
396.952	569.8
397.357	573.8
397.761	566.6
398.166	565.9
398.57	573.5
398.975	565.2
399.379	570.9
399.763	615.6
400.168	578.4
400.572	576.1
400.977	570.2
401.382	590.6
401.787	572.3
402.192	586.3
402.597	585.8
403.002	562.4
403.386	589.9
403.791	588.9
404.197	567
404.602	572.8
405.007	571.5
405.413	568.6
405.818	561.9
406.224	565
406.608	573.5
407.014	559.1
407.42	585.2
407.825	568
408.231	578.7
408.637	572.9
409.043	581.9
409.449	568.9
409.834	563.2
410.24	565.2
410.646	583.6
411.052	583.9
411.458	581.9
411.865	579.2
412.271	585
412.677	568.7
413.062	582
413.469	560.4
413.875	590.8
414.282	583.2
414.689	573.5
415.095	579.7
415.502	565.1
415.888	573.8
416.294	559.3
416.701	604.7
417.108	568.1
417.515	581.2
417.923	566.1
418.33	587.1
418.715	576.1
419.123	573
419.53	574
419.937	572.7
420.345	584.9
420.752	571.3
421.16	588.6
421.546	569.5
421.953	576.2
422.361	565.9
422.769	571.9
423.177	565
423.585	595.5
423.992	594
424.379	584.3
424.787	580.2
425.195	593.7
425.603	569.7
426.011	582.3
426.419	587.2
426.806	578.5
427.214	575.8
427.623	587.2
428.031	591.1
428.44	578.8
428.848	586.3
429.235	591.9
429.644	583.2
430.053	581.4
430.461	596.3
430.87	612.3
431.279	598.6
431.666	583.8
432.075	600
432.484	611
432.893	610.3
433.302	642.1
433.711	670.1
434.099	637.6
434.508	645.9
434.918	648.7
435.327	666.7
435.737	681.8
436.125	693.9
436.534	713.8
436.944	728.7
437.353	742.1
437.763	774.6
438.173	760.5
438.561	802.2
438.971	791.6
439.381	811.1
439.791	839.2
440.201	824.8
440.589	864.6
440.999	887.1
441.409	894.7
441.819	898.8
442.23	935.5
442.619	940.9
443.029	959
443.439	971
443.85	989.2
444.26	1013.6
444.649	1016.5
445.06	1016.2
445.471	1024.2
445.881	1049.2
446.292	1060.4
446.682	1092
447.092	1068.5
447.503	1123.5
447.914	1083.5
448.325	1084
448.715	1105.1
449.126	1101.4
449.537	1130
449.948	1142.9
450.338	1128.6
450.75	1136
451.161	1152.7
451.572	1159.7
451.984	1157.3
452.374	1150.8
452.786	1169.8
453.197	1168.7
453.609	1175.2
453.999	1155.9
454.411	1174.2
454.823	1183.2
455.235	1188.5
455.647	1188.7
456.037	1205.6
456.449	1197.6
456.862	1212.1
457.274	1208.8
457.665	1190.4
458.077	1212.7
458.489	1219.2
458.902	1200.6
459.293	1218.4
459.705	1220.2
460.118	1207.5
460.53	1218
460.921	1213.3
461.334	1213.9
461.747	1199.7
462.16	1206.5
462.551	1226
462.964	1213.8
463.377	1203.2
463.79	1197.7
464.182	1217.6
464.595	1194.6
465.008	1203.6
465.421	1208.4
465.813	1198.6
466.226	1208.8
466.64	1205.1
467.053	1240.1
467.445	1198.3
467.859	1199.1
468.272	1184.5
468.686	1200.3
469.078	1190.2
469.492	1181.5
469.906	1185.6
470.298	1197.6
470.712	1164.6
471.126	1207.6
471.54	1166.4
471.933	1177.4
472.347	1165.7
472.761	1166.7
473.175	1170.6
473.568	1171.5
473.982	1155
474.397	1160.4
474.79	1154.5
475.204	1168.6
475.619	1153.6
476.033	1149.1
476.426	1147.3
476.841	1143.2
477.256	1164.8
477.649	1136.1
478.064	1129.5
478.479	1133.2
478.872	1122.2
479.287	1113.7
479.702	1126.8
480.118	1117.4
480.511	1125.8
480.927	1108.2
481.342	1109.4
481.736	1121.6
482.151	1098.3
482.566	1119.5
482.96	1108.9
483.376	1116.6
483.792	1107.7
484.186	1103.2
484.602	1094.9
485.017	1095.5
485.412	1093.9
485.827	1092.7
486.243	1092.8
486.638	1106.3
487.054	1089.7
487.47	1095.4
487.865	1075.5
488.281	1072.7
488.697	1072.6
489.092	1072.7
489.508	1052.5
489.925	1061.9
490.32	1043.6
490.736	1062
491.153	1056
491.548	1056.2
491.964	1057.4
492.381	1033.6
492.776	1042.3
493.193	1032.6
493.61	1032.6
494.006	1020.6
494.422	1028
494.84	1021.8
495.235	1024.8
495.652	1012.4
496.069	1010.6
496.465	997.5
496.883	1000.1
497.3	1027.7
497.696	993.9
498.113	989.8
498.509	978.3
498.927	975.6
499.344	974.4
499.741	970.9
500.158	986.4
500.576	977.2
500.973	971.3
501.39	953.7
501.787	943.4
502.205	955.8
502.623	935.8
503.02	937.6
503.438	939.7
503.856	941.5
504.253	935.2
504.671	933.1
505.068	922.4
505.486	927.2
505.905	941.9
506.302	922.3
506.72	928.5
507.118	903.4
507.536	906.5
507.955	908.8
508.352	909.3
508.771	899.6
509.169	913.3
509.587	890.8
510.006	892.9
510.404	881.4
510.823	880.9
511.221	886.2
511.64	881.3
512.038	891.1
512.457	878.9
512.877	874.2
513.275	868
513.694	866.8
514.092	857.2
514.512	868
514.91	852.3
515.33	853.9
515.749	847.3
516.148	850.9
516.568	850.7
516.966	842.1
517.386	833.2
517.785	835.3
518.205	832
518.603	820.8
519.024	814.2
519.444	827.5
519.843	834.6
520.263	819.4
520.662	818.8
521.082	809
521.481	811.9
521.902	807.6
522.301	808.2
522.722	796.2
523.121	793.6
523.542	791.9
523.963	797.5
524.362	793.3
524.783	797.3
525.183	785
525.604	792.4
526.003	771.3
526.425	770.2
526.824	777.1
527.246	780.1
527.646	775.9
528.067	765.3
528.467	761.6
528.888	767.7
529.289	759.1
529.71	758.2
530.11	746.6
530.532	754.5
530.932	744
531.354	736.7
531.755	778
532.176	749.6
532.577	741.7
532.999	741.8
533.4	733.3
533.822	741.1
534.223	730.4
534.645	732.5
535.046	727.1
535.468	727
535.869	729.5
536.292	716.9
536.693	715.4
537.115	719.6
537.516	713.9
537.939	714.1
538.34	734.1
538.742	727.4
539.165	716
539.566	719.5
539.989	708.8
540.391	708.8
540.814	712.4
541.216	721.9
541.639	708.6
542.041	710.7
542.464	706.9
542.866	706.6
543.268	697.8
543.691	704.2
544.093	701.7
544.517	712
544.919	685.4
545.343	719.3
545.745	685.8
546.147	697.7
546.571	688.4
546.974	673.5
547.398	690.8
547.8	699.8
548.224	686.3
548.627	671.7
549.03	687.4
549.454	678.7
549.857	668.3
550.281	677.1
550.684	664.6
551.087	690.9
551.512	677
551.915	681.1
552.34	675.9
552.743	662.6
553.146	672.5
553.571	660.2
553.975	679.8
554.399	657.4
554.803	711
555.207	659.1
555.632	649.8
556.036	665.1
556.461	648.1
556.865	655.5
557.268	646.9
557.694	652.2
558.098	653.9
558.502	652.4
558.927	643.1
559.332	645.3
559.736	648.5
560.162	650
560.566	641.5
560.992	642.2
561.396	641
561.801	639.9
562.227	646.3
562.631	640.2
563.036	640.8
563.462	643.3
563.867	643
564.272	623.8
564.698	648.7
565.103	622.5
565.508	651.3
565.935	640.8
566.34	632.6
566.745	635.9
567.172	633
567.577	651.6
567.982	637
568.409	630.1
568.815	615.7
569.22	629.4
569.626	632.5
570.053	614.3
570.459	625.1
570.865	628.5
571.292	625.3
571.698	620.7
572.104	604.4
572.531	611.8
572.937	625.5
573.343	622.5
573.75	612.9
574.177	617.7
574.583	624.6
574.99	614.9
575.396	611.9
575.824	612.8
576.231	614.1
576.637	607
577.065	640.6
577.472	601.7
577.879	610.4
578.286	621.7
578.714	599.6
579.121	605.2
579.528	608.4
579.935	615
580.364	603.4
580.771	592.7
581.178	602.3
581.585	603.2
582.014	611.3
582.421	602.3
582.829	606.3
583.236	615.6
583.644	595.3
584.073	596.3
584.481	603.6
584.889	597.5
585.296	607.6
585.726	602.7
586.134	597.8
586.542	591.5
586.95	614.6
587.358	586.9
587.787	603.3
588.196	596.5
588.604	593.2
589.012	593.1
589.421	586.7
589.851	583.2
590.259	596.2
590.668	587.1
591.076	625.8
591.485	590.8
591.894	594.7
592.324	600
592.733	601.7
593.142	585
593.551	592.1
593.96	622.7
594.369	580.9
594.8	585.2
595.209	583.1
595.618	579.7
596.028	583.6
596.437	577.4
596.847	581.5
597.256	587.6
597.687	596
598.097	587.2
598.507	575.3
598.917	591.8
599.327	591.1
599.736	587.2
600.146	593.5
600.556	580.9
600.988	592.6
601.398	578.2
601.808	591.1
602.219	569.3
602.629	579.7
603.039	576.5
603.45	597.5
603.86	579.8
604.271	587.1
604.703	572.9
605.114	576.6
605.525	575.9
605.935	572.7
606.346	592.7
606.757	580
607.168	571.8
607.579	568.2
607.99	581.6
608.402	572
608.813	579.9
609.224	569.3
609.636	560.7
610.047	560.6
610.48	570.5
610.892	580
611.303	575.8
611.715	574.6
612.127	565.1
612.539	566
612.95	570.4
613.362	563.5
613.774	561.1
614.186	566.1
614.599	560
615.011	578.6
615.423	557.2
615.835	567.9
616.248	559.9
616.66	572.9
617.073	563.3
617.485	567.2
617.898	580.1
618.311	569.9
618.723	571.2
619.136	594.9
619.549	580
619.962	590.1
620.375	570.7
620.788	571.4
621.201	560.1
621.614	571.7
622.028	563.1
622.441	572.9
622.854	578.6
623.268	563.2
623.681	570.8
624.095	569.7
624.509	576.8
624.922	573.4
625.336	553.2
625.728	568.1
626.142	573.1
626.556	587
626.97	570.4
627.384	559.3
627.799	568.5
628.213	580.4
628.627	562.3
629.041	559.9
629.456	565
629.87	569
630.285	570.4
630.699	575.2
631.093	566.6
631.507	571.4
631.922	570.4
632.337	573.7
632.752	557.7
633.167	565
633.582	560.1
633.997	562.8
634.412	559.7
634.806	563.7
635.221	554.7
635.637	572.4
636.052	550.4
636.468	570.6
636.883	577.5
637.299	562.9
637.715	552.7
638.109	561.4
638.525	551.8
638.941	573.8
639.357	566
639.773	570.9
640.189	557.9
640.584	566
641	567.6
641.416	557
641.832	558.7
642.249	556.1
642.665	561
643.06	570.7
643.477	565.8
643.894	546.8
644.31	557.2
644.727	562
645.123	559
645.54	549.2
645.957	555.9
646.374	563
646.77	558.5
647.187	584.8
647.604	562.8
648.021	550.4
648.439	553.7
648.835	562.8
649.252	562.2
649.67	559.5
650.088	556.8
650.484	558.5
650.902	564.6
651.32	564.3
651.738	554.3
652.134	560
652.552	577.4
652.971	570
653.389	556.2
653.786	569.7
654.204	559.3
654.622	551.8
655.019	556.3
655.438	558.3
655.857	560.9
656.275	553.1
656.673	549.4
657.091	621.7
657.51	550.3
657.908	563
658.327	572.5
658.746	542.5
659.144	555
659.563	574.3
659.982	560.6
660.38	551.1
660.8	562.5
661.219	563.6
661.617	562
662.037	552.8
662.457	569.8
662.855	545.1
663.275	582.4
663.695	555.4
664.094	549.8
664.514	558
664.934	543.3
665.333	559.4
665.753	548.3
666.152	541.2
666.572	548.4
666.993	565.1
667.392	554
667.812	550.4
668.212	551.9
668.632	564.6
669.053	548.1
669.453	560.3
669.874	559.2
670.273	554.2
670.694	547.3
671.116	568.9
671.515	567.1
671.937	547.9
672.337	549.7
672.758	555.5
673.158	567
673.58	546
673.98	554.8
674.402	561.7
674.824	550.6
675.224	549.9
675.646	549.2
676.047	554.3
676.469	557.5
676.869	562.5
677.292	562
677.693	544.9
678.115	556.1
678.516	557.4
678.939	558.6
679.34	551.4
679.762	570.3
680.164	558.1
680.586	546.5
680.988	558.6
681.411	578.2
681.812	546.9
682.236	551.3
682.637	545.6
683.061	545.5
683.462	552
683.864	552.7
684.288	559.5
684.69	546.7
685.114	565.6
685.516	564.3
685.94	548.3
686.342	563.3
686.766	546.1
687.168	542.8
687.571	569.2
687.995	559
688.398	544.4
688.822	552.8
689.225	567.3
689.628	574.4
690.052	556.1
690.456	556.7
690.88	553.4
691.284	542.1
691.687	566.1
692.112	546.7
692.515	546.1
692.919	558.1
693.344	556.1
693.747	550.3
694.173	544.9
694.577	560.6
694.98	551.6
695.406	554.3
695.81	553.7
696.214	557.1
696.64	557.1
697.044	554.5
697.448	559.7
697.874	554.5
698.279	550.8
698.684	541.5
699.11	544.5
699.514	550.1
699.919	548.4
700.324	547.2
700.75	552.4
701.156	553.3
701.561	565.1
701.987	558.8
702.393	558.6
702.798	561
703.203	548.8
703.63	546.2
704.036	553.4
704.442	556.4
704.847	541.4
705.274	547.9
705.68	551.7
706.086	560.2
706.492	539.4
706.92	546.5
707.326	553.4
707.732	548.6
708.139	546.8
708.545	542.2
708.973	546
709.38	552.7
709.786	536.1
710.193	561
710.6	552.7
711.028	542.6
711.435	548.8
711.842	550.7
712.249	544.9
712.656	551.3
713.064	559.9
713.492	541.5
713.9	545.9
714.307	552.4
714.715	547.6
715.123	555.3
715.53	556.7
715.938	565
716.367	550.4
716.775	546.4
717.184	537.5
717.592	544.2
718	561.5
718.408	583
718.816	586.3
719.225	558
719.633	551.7
720.042	543.3
720.472	548
720.881	569.3
721.29	554.7
721.699	541.5
722.108	551.5
722.517	554.9
722.926	550.1
723.335	556.9
723.744	542.9
724.154	547.8
724.563	552
724.973	548.4
725.382	549.4
725.792	544.5
726.202	537.4
726.612	558.6
727.022	545
727.432	550.3
779.813	549
780.223	594.1
780.634	551
781.044	543.9
781.454	555.5
781.865	562.9
782.276	543.2
782.686	553.9
783.097	546.5
783.508	547.3
783.919	550.2
784.33	560
784.741	559.9
785.152	545.2
785.563	530.5
785.974	538.7
786.386	559.5
786.776	542.3
787.188	542.1
787.599	540
788.011	554.4
788.423	551.5
788.835	546.5
789.247	536.3
789.659	548.4
790.071	545.9
790.483	590.1
790.874	541.4
791.286	553.8
791.699	547.1
792.111	550.2
792.524	552.7
792.937	546.8
793.349	545.2
793.741	542.2
794.154	539
794.567	570.6
794.98	546.6
795.393	534.7
795.785	569
796.198	543.1
796.612	547
797.026	544.9
797.439	532.7
797.831	540.2
798.245	537.4
798.659	537.9
799.073	537.4
799.487	542.6
799.88	542.4
800.294	542.6
800.708	542
801.123	549.6
801.516	559.9
801.93	533.7
802.345	536.9
802.76	547.4
803.153	557.4
803.568	557.4
803.983	553.8
804.377	550.5
804.792	533.1
805.207	532.4
805.601	546.6
806.016	581.5
806.432	543.4
806.826	574.5
807.242	558.8
807.658	550.2
808.052	543.7
808.468	540
808.884	542.2
809.279	549.3
809.695	558.1
810.111	565.4
810.506	550.9
810.922	562.5
811.339	547.1
811.734	550.3
812.151	542.3
812.546	539.7
812.963	540.3
813.38	551.5
813.776	544.2
814.193	563.3
814.589	540.8
815.006	542.3
815.402	540.8
815.82	545.3
816.237	544.1
816.633	548.7
817.051	532.4
817.448	548
817.866	537.5
818.262	567.6
818.68	543.5
819.077	540.1
819.495	545.7
819.892	584.7
820.311	536.4
820.708	540.9
821.127	543.2
821.524	556.1
821.943	547.9
822.34	560.8
822.759	552.6
823.157	542.6
823.576	559.6
823.974	547.1
824.393	559.2
824.791	545
825.189	539.1
825.609	541.6
826.007	543.9
826.427	540.6
826.826	542.1
827.246	549.3
827.644	530.8
828.043	552.3
828.463	539.8
828.862	557.6
829.261	553
829.682	535.6
830.081	554.8
830.502	539
830.901	543.4
831.301	542.6
831.722	539
832.121	542
832.521	540.7
832.943	547.5
833.342	544
833.742	537.7
834.164	547.1
834.564	534.8
834.965	546.9
835.386	543
835.787	544.2
836.188	548.2
836.588	540.7
837.01	549.2
837.411	533.4
837.812	548.6
838.213	547.9
838.636	548
839.037	604.1
839.438	549.9
839.84	547.7
840.263	548.2
840.664	548.3
841.066	544.8
841.468	545.8
841.891	538.3
842.293	554.8
842.695	555.2
843.098	555.7
843.5	544.6
843.902	547.3
844.326	549.8
