#lambda/nm	C1
208.295	483.2
208.67	449
209.045	410.8
209.419	414.2
209.794	597.5
210.169	577.2
210.544	699.5
210.919	595.5
211.295	584
211.67	599.6
212.045	588.4
212.421	591.4
212.796	626.8
213.172	588.8
213.547	584.7
213.923	591.4
214.299	593
214.675	604.3
215.051	590.5
215.427	597.8
215.803	606.1
216.179	595
216.555	587.7
216.932	596.7
217.308	590.8
217.684	587.7
218.061	599.7
218.438	592
218.814	584.3
219.191	600.5
219.568	585.3
219.945	589.8
220.322	595.1
220.699	590.8
221.076	595.7
221.453	596
221.83	580.3
222.208	591.8
222.585	586.5
222.962	596.1
223.34	593.7
223.717	593.2
224.095	583.5
224.473	596
224.851	586.5
225.229	582.1
225.607	608.6
225.985	584.7
226.363	587
226.741	588.2
227.119	591.7
227.497	605.6
227.876	582.3
228.254	602.1
228.633	598.3
229.011	590.3
229.39	596.5
229.769	594.4
230.148	606.3
230.527	617.1
230.905	591.5
231.284	594.8
231.664	587.9
232.043	606.3
232.422	602.6
232.801	587.4
233.181	598.7
233.56	592.1
233.94	596
234.319	582.1
234.699	586.9
235.079	636
235.458	629
235.838	604.5
236.218	583.3
236.598	582.6
236.978	582.6
237.358	584
237.738	585.2
238.119	598.1
238.499	580.8
238.88	587
239.26	606.5
239.641	580.2
240.021	591.9
240.402	590.3
240.783	586.7
241.163	589
241.544	596.3
241.925	591.2
242.306	607.3
242.687	592.9
243.069	588.6
243.45	595.1
243.831	586.5
244.212	588.4
244.594	629.4
244.975	602.5
245.357	594.2
245.739	586.7
246.12	596.8
246.502	610.2
246.884	591.9
247.266	591.5
247.648	591.5
248.03	613.1
248.412	595
248.794	594
249.176	591.1
249.559	599.1
249.941	582.5
250.323	583.1
250.706	583.8
251.089	594.5
251.471	590.9
251.854	589.2
252.237	598.9
252.62	595.8
253.002	593
253.385	593.3
253.769	606.6
254.152	593.9
254.535	596.2
254.918	583.7
255.301	594.1
255.685	590.8
256.068	582.1
256.452	618.2
256.835	605
257.219	597.4
257.603	601.6
257.986	582.6
258.37	596.6
258.754	580.2
259.138	600.5
259.522	602.9
259.906	588.2
260.29	591.3
260.675	592.7
261.059	594.8
261.443	591.4
261.828	601.2
262.212	603.9
262.597	581.3
262.981	590.9
263.366	598.8
263.751	591.6
264.136	590.9
264.521	591.4
264.906	586.7
265.291	602.6
265.676	590.4
266.061	597.5
266.446	613.5
266.831	595.4
267.217	606.9
267.602	598.1
267.987	599.4
268.373	583
268.759	601.7
269.144	602.3
269.53	590.8
269.916	586
270.302	587.2
270.688	598.1
271.074	595
271.46	606.1
271.846	626.6
272.232	592.8
272.618	590.6
273.004	589.5
273.391	599.6
273.777	603.4
274.164	597.5
274.55	604.4
274.937	599.1
275.324	591.5
275.71	597.7
276.097	600.1
276.484	587.9
276.871	602.6
277.258	593.8
277.645	585
278.032	593
278.419	591.1
278.807	597.7
279.194	587.6
279.581	585
279.969	599.5
280.356	593.5
280.744	596.3
281.131	617.9
281.519	606.5
281.907	589.9
282.295	592.7
282.682	605.6
283.07	599
283.458	602.2
283.846	599.2
284.235	600.3
284.623	606.1
285.011	586
285.399	596.9
285.788	591.4
286.176	583.7
286.565	601.8
286.953	589.6
287.342	591.4
287.731	582.5
288.119	590.6
288.508	592.7
288.897	594.2
289.286	581.1
289.675	595.9
290.064	606.8
290.453	594.9
290.821	594
291.21	610.5
291.599	590.7
291.989	594.1
292.378	607.9
292.768	616.2
293.157	600.3
293.547	603.7
293.936	591.7
294.326	589.8
294.716	604.2
295.106	592.7
295.496	601.9
295.886	600.8
296.276	589.4
296.666	588.4
297.056	591.4
297.446	575.7
297.836	606.2
298.227	588.2
298.617	594.2
299.008	600.1
299.398	591
299.789	591
300.179	596.5
300.57	608.8
300.961	580.9
301.352	587.9
301.742	600.5
302.133	598.1
302.524	584.7
302.915	595.9
303.307	585.8
303.698	601.2
304.089	602.1
304.48	594
304.872	595.1
305.263	595.9
305.655	591.7
306.046	596.5
306.438	595.8
306.829	586.8
307.221	608.2
307.613	598.9
308.005	606.8
308.397	605.2
308.789	615.1
309.181	617.1
309.573	606.9
309.965	607.8
310.357	592.1
310.749	603.3
311.142	589.3
311.534	587.6
311.926	595.1
312.319	593.4
312.711	585.8
313.104	601.8
313.497	594.5
313.889	629.8
314.282	613.4
314.675	616.4
315.068	599.6
315.461	600.2
315.854	626.3
316.247	600.7
316.64	591.6
317.033	600.4
317.405	606
317.798	591.8
318.192	599
318.585	590.4
318.979	596.2
319.372	593.2
319.766	592.3
320.16	608.3
320.553	607.7
320.947	617.4
321.341	594.2
321.735	600.2
322.129	585.6
322.523	613.5
322.917	583.5
323.311	605
323.705	595.4
324.099	597.7
324.494	611.4
324.888	603.1
325.282	593.4
325.677	596.7
326.071	603.8
326.466	610.3
326.861	601.8
327.255	600.7
327.65	604.1
328.045	605.8
328.44	599.2
328.835	594.2
329.23	589.3
329.625	622.5
330.02	590
330.415	618.6
330.81	594.3
331.206	593
331.601	590.5
331.996	602.5
332.37	605.2
332.766	588
333.161	619.4
333.557	586
333.953	598.5
334.348	1028.4
334.744	596.5
335.14	593.2
335.536	589
335.932	603.7
336.328	603.9
336.724	601
337.12	594.7
337.516	597.4
337.913	596.5
338.309	607.5
338.705	598.6
339.102	605.6
339.498	594
339.895	607.2
340.291	592.7
340.688	604.3
341.085	589.4
341.481	597.2
341.878	597.2
342.275	608.6
342.672	587.9
343.069	590
343.466	580.1
343.842	601.8
344.239	586.3
344.636	594.3
345.033	588.1
345.431	588.3
345.828	592.5
346.225	586.6
346.623	603.5
347.02	592.8
347.418	601.4
347.816	608.8
348.213	584.7
348.611	600.2
349.009	584.4
349.407	602.1
349.805	581.3
350.203	586.4
350.601	602.1
350.999	585.8
351.397	582.8
351.795	589.5
352.193	603.5
352.57	601.3
352.969	598.6
353.367	583.7
353.766	588.9
354.164	588.6
354.563	602.8
354.961	588.5
355.36	591.6
355.759	585.9
356.158	582.5
356.557	589.5
356.956	582.3
357.355	582.4
357.754	591.3
358.153	602.2
358.552	616.4
358.951	589.8
359.35	611.6
359.75	591.8
360.149	585.9
360.527	577.8
360.926	586
361.326	591.8
361.726	586.2
362.125	578.3
362.525	596.7
362.925	586.5
363.325	585.1
363.724	591
364.124	580
364.524	584.1
364.924	589.7
365.324	598.7
365.725	577.9
366.125	589.7
366.525	589.4
366.904	578.7
367.304	572.8
367.705	604.4
368.105	603.9
368.506	582.5
368.906	586
369.307	586.5
369.708	594.1
370.108	577.3
370.509	595.5
370.91	584.4
371.311	587.2
371.712	585.8
372.113	585.8
372.514	572.5
372.894	585.7
373.295	584.4
373.696	599.1
374.097	595.7
374.499	615.7
374.9	587.2
375.301	578.6
375.703	596.4
376.105	571.8
376.506	594.4
376.908	587.7
377.309	591.1
377.711	593.1
378.113	586
378.493	587.8
378.895	580.8
379.297	594.5
379.699	573
380.102	594.5
380.504	590.8
380.906	584.2
381.308	614
381.71	583.9
382.113	600.4
382.515	583.6
382.918	586.7
383.299	583.7
383.701	596.2
384.104	587.5
384.507	569.8
384.909	583.1
385.312	575
385.715	574.4
386.118	583.1
386.521	580.1
386.924	596.3
387.327	585.6
387.709	573.7
388.112	568.2
388.515	582.5
388.918	585.8
389.322	587.8
389.725	584.4
390.129	610.9
390.532	593.7
390.936	583.3
391.339	572.6
391.743	586.5
392.125	584.2
392.529	593.3
392.933	593.8
393.337	583.2
393.74	584.5
394.144	584.4
394.548	580.9
394.953	582.4
395.357	589.8
395.761	581.4
396.144	589.6
396.548	580
396.952	586
397.357	588.9
397.761	583.2
398.166	585
398.57	582.7
398.975	575.2
399.379	582
399.763	630.1
400.168	583.7
400.572	584.4
400.977	584.8
401.382	604.5
401.787	595.5
402.192	602.5
402.597	594.7
403.002	572.2
403.386	597.3
403.791	601.7
404.197	585.6
404.602	584.7
405.007	588
405.413	579.7
405.818	574.8
406.224	582
406.608	584.6
407.014	577.4
407.42	604.3
407.825	583
408.231	597.1
408.637	590.8
409.043	600.7
409.449	580.5
409.834	580.9
410.24	584.4
410.646	596.9
411.052	599.2
411.458	584.9
411.865	593.4
412.271	597.2
412.677	585.2
413.062	589.5
413.469	580.1
413.875	614.3
414.282	600.4
414.689	589.1
415.095	592.7
415.502	586.9
415.888	585.4
416.294	572.6
416.701	626
417.108	578.5
417.515	591.4
417.923	581.6
418.33	604.4
418.715	592.8
419.123	583.8
419.53	580.6
419.937	587.7
420.345	600.9
420.752	583
421.16	597.2
421.546	592.3
421.953	591.1
422.361	578.6
422.769	583.7
423.177	578.5
423.585	616.4
423.992	608.9
424.379	596.2
424.787	601.3
425.195	609
425.603	594.2
426.011	595.9
426.419	605.6
426.806	593.7
427.214	591.5
427.623	600.3
428.031	607.6
428.44	600
428.848	604.6
429.235	606.5
429.644	597.8
430.053	593.7
430.461	623.7
430.87	626.2
431.279	613.6
431.666	604.4
432.075	613.2
432.484	632
432.893	630.5
433.302	656.1
433.711	690.5
434.099	662.7
434.508	671.8
434.918	675.3
435.327	701.7
435.737	716.8
436.125	726.1
436.534	742.4
436.944	770
437.353	786.8
437.763	822.5
438.173	813.4
438.561	845.4
438.971	837.7
439.381	860.3
439.791	892
440.201	882.1
440.589	925.5
440.999	961.2
441.409	974.8
441.819	981.8
442.23	1009
442.619	1020
443.029	1041.6
443.439	1058.6
443.85	1080.1
444.26	1100.4
444.649	1103.4
445.06	1105.6
445.471	1105.3
445.881	1132.9
446.292	1166.4
446.682	1175.8
447.092	1163.1
447.503	1238.8
447.914	1182.5
448.325	1203.5
448.715	1215.6
449.126	1224.6
449.537	1221.5
449.948	1227.2
450.338	1243.2
450.75	1258.1
451.161	1259
451.572	1278
451.984	1274.6
452.374	1271.2
452.786	1286.5
453.197	1293.4
453.609	1301.4
453.999	1284.2
454.411	1292.3
454.823	1307.5
455.235	1323.3
455.647	1301.5
456.037	1315.8
456.449	1300.6
456.862	1317.5
457.274	1316.7
457.665	1304.3
458.077	1323
458.489	1328.4
458.902	1318.8
459.293	1322.7
459.705	1325.5
460.118	1312.3
460.53	1324.9
460.921	1323.9
461.334	1321.6
461.747	1320.2
462.16	1334.3
462.551	1338.7
462.964	1339.4
463.377	1313.2
463.79	1340.7
464.182	1350.8
464.595	1326.1
465.008	1341.7
465.421	1344.6
465.813	1333.3
466.226	1326.3
466.64	1322.6
467.053	1365.5
467.445	1333.9
467.859	1317.4
468.272	1323.2
468.686	1340.8
469.078	1321.4
469.492	1294.7
469.906	1305.8
470.298	1303.1
470.712	1287.7
471.126	1331
471.54	1279.7
471.933	1284.1
472.347	1278.8
472.761	1275.7
473.175	1269.4
473.568	1276.4
473.982	1265.6
474.397	1273.2
474.79	1264.2
475.204	1285
475.619	1266.7
476.033	1281.5
476.426	1262.4
476.841	1259.8
477.256	1278.4
477.649	1239.1
478.064	1239.2
478.479	1237
478.872	1237.3
479.287	1219.8
479.702	1226.7
480.118	1225
480.511	1232.2
480.927	1222.6
481.342	1218.7
481.736	1221.6
482.151	1212.9
482.566	1220.2
482.96	1203.5
483.376	1222.7
483.792	1213.6
484.186	1204
484.602	1194.1
485.017	1200.5
485.412	1188.8
485.827	1188.5
486.243	1174
486.638	1194.9
487.054	1176.3
487.47	1178.4
487.865	1168.1
488.281	1161.7
488.697	1150.4
489.092	1152.1
489.508	1146.5
489.925	1153.9
490.32	1144
490.736	1147.7
491.153	1139.1
491.548	1130.7
491.964	1133.5
492.381	1108.7
492.776	1112.3
493.193	1114.7
493.61	1110.9
494.006	1107.1
494.422	1096.7
494.84	1090.3
495.235	1101.2
495.652	1089.2
496.069	1082.7
496.465	1083.7
496.883	1080.5
497.3	1094
497.696	1064.8
498.113	1070
498.509	1052.9
498.927	1053.1
499.344	1054.7
499.741	1046.9
500.158	1066.8
500.576	1044.9
500.973	1042.9
501.39	1023.6
501.787	1023.8
502.205	1025.7
502.623	1017.3
503.02	1014.2
503.438	1007.7
503.856	1009
504.253	1010.7
504.671	1004.2
505.068	987
505.486	985.9
505.905	1004.5
506.302	982.1
506.72	982.3
507.118	966.7
507.536	968
507.955	965.7
508.352	964.5
508.771	965.3
509.169	959
509.587	947.1
510.006	945.2
510.404	938.5
510.823	939.6
511.221	931.9
511.64	930.5
512.038	933.3
512.457	925.4
512.877	919.7
513.275	898.7
513.694	908
514.092	907.7
514.512	913.9
514.91	895.7
515.33	904.2
515.749	901.9
516.148	904.2
516.568	901.9
516.966	884.9
517.386	887.2
517.785	881
518.205	874.7
518.603	873.2
519.024	855.6
519.444	869.7
519.843	874.8
520.263	871.8
520.662	858.3
521.082	862.5
521.481	856.8
521.902	857
522.301	847.6
522.722	849.2
523.121	844.6
523.542	842.4
523.963	839.5
524.362	835
524.783	844.7
525.183	827.8
525.604	834.6
526.003	825.2
526.425	813.6
526.824	824.1
527.246	820.2
527.646	817.3
528.067	811.8
528.467	814
528.888	813.9
529.289	796.6
529.71	806.1
530.11	799.4
530.532	789.2
530.932	780.5
531.354	776.4
531.755	815.9
532.176	793.6
532.577	777.5
532.999	777.8
533.4	768.4
533.822	779.7
534.223	769.8
534.645	763.2
535.046	757.2
535.468	760.2
535.869	772.9
536.292	748
536.693	751.5
537.115	764.4
537.516	753
537.939	754.7
538.34	765.6
538.742	761.3
539.165	756.4
539.566	746.4
539.989	740.3
540.391	743.3
540.814	748.4
541.216	747.4
541.639	748.6
542.041	747.7
542.464	739
542.866	735.3
543.268	726.9
543.691	736
544.093	739.7
544.517	746.9
544.919	722.1
545.343	745.5
545.745	723.5
546.147	721.8
546.571	722.1
546.974	711
547.398	717.3
547.8	729.1
548.224	718.2
548.627	706.4
549.03	715.6
549.454	710
549.857	705
550.281	705.7
550.684	699.9
551.087	716.4
551.512	706.1
551.915	713.6
552.34	693.7
552.743	696.5
553.146	690.9
553.571	694.3
553.975	714.4
554.399	681.9
554.803	738.8
555.207	691
555.632	686.7
556.036	697.7
556.461	671.4
556.865	685.5
557.268	671.4
557.694	680.6
558.098	677.7
558.502	684.9
558.927	663.5
559.332	671.5
559.736	674.8
560.162	674.4
560.566	672.4
560.992	680.6
561.396	669.1
561.801	664.4
562.227	664.8
562.631	673.4
563.036	665.2
563.462	666
563.867	677.2
564.272	650.2
564.698	668.9
565.103	651.5
565.508	678.5
565.935	656.4
566.34	656.7
566.745	665.7
567.172	654.7
567.577	673.2
567.982	663.3
568.409	657.6
568.815	641.5
569.22	656
569.626	659.3
570.053	632
570.459	645.2
570.865	649.7
571.292	652.3
571.698	644.6
572.104	629.4
572.531	634.8
572.937	648.9
573.343	645.1
573.75	639.7
574.177	632.9
574.583	646.7
574.99	639.6
575.396	645.8
575.824	636.1
576.231	638.7
576.637	629.1
577.065	652.8
577.472	628.7
577.879	633
578.286	642.6
578.714	624.3
579.121	625.7
579.528	628.2
579.935	630.9
580.364	629.2
580.771	611.4
581.178	620
581.585	629.2
582.014	627.8
582.421	622.1
582.829	619.1
583.236	630.9
583.644	616.7
584.073	621.2
584.481	623.9
584.889	619.4
585.296	624.1
585.726	623.3
586.134	612
586.542	611.7
586.95	628.7
587.358	605.9
587.787	623.4
588.196	609.8
588.604	608.4
589.012	611.1
589.421	608.6
589.851	607.9
590.259	615.3
590.668	608.7
591.076	651.1
591.485	604.9
591.894	608.9
592.324	617.3
592.733	625.7
593.142	597.5
593.551	603.3
593.96	618.4
594.369	597.2
594.8	594.6
595.209	602.6
595.618	587.5
596.028	593.5
596.437	593.2
596.847	605.6
597.256	605.4
597.687	606.6
598.097	604.4
598.507	584.1
598.917	602
599.327	604.9
599.736	603.2
600.146	608.7
600.556	599.5
600.988	612.2
601.398	593.7
601.808	603.7
602.219	591.9
602.629	596.3
603.039	596.2
603.45	626
603.86	592.1
604.271	609
604.703	595.5
605.114	591.5
605.525	595.4
605.935	596.8
606.346	612.4
606.757	594.6
607.168	589.5
607.579	583.3
607.99	605.3
608.402	589.5
608.813	593.6
609.224	585.1
609.636	580.2
610.047	578.7
610.48	591.9
610.892	603.4
611.303	600
611.715	587.3
612.127	579.2
612.539	581.6
612.95	591.1
613.362	583.4
613.774	578.9
614.186	587.4
614.599	581.9
615.011	595.9
615.423	574.1
615.835	582.2
616.248	578.3
616.66	587.9
617.073	582.7
617.485	588.2
617.898	593.3
618.311	586.1
618.723	583.4
619.136	614.5
619.549	601.8
619.962	601.1
620.375	589.6
620.788	587.6
621.201	584.8
621.614	589.4
622.028	582.3
622.441	585.4
622.854	600
623.268	580.9
623.681	589.1
624.095	587.7
624.509	592.5
624.922	590.7
625.336	580.4
625.728	587.5
626.142	594.1
626.556	602.2
626.97	591.9
627.384	583.9
627.799	583.6
628.213	589.4
628.627	584.6
629.041	581.7
629.456	571.5
629.87	582.3
630.285	590.2
630.699	591.8
631.093	582.1
631.507	583.5
631.922	585.2
632.337	598.2
632.752	572.7
633.167	577
633.582	575
633.997	574.7
634.412	570
634.806	578.3
635.221	570
635.637	587.8
636.052	567.8
636.468	579.7
636.883	602.3
637.299	579.5
637.715	565.3
638.109	577.1
638.525	566.1
638.941	588
639.357	584.8
639.773	591.7
640.189	572.8
640.584	575.6
641	581.5
641.416	567.6
641.832	583.4
642.249	575.1
642.665	580.7
643.06	583.8
643.477	587.7
643.894	565.9
644.31	569.8
644.727	572.8
645.123	574.9
645.54	568.7
645.957	573
646.374	583.2
646.77	574.4
647.187	607.7
647.604	579.4
648.021	562.2
648.439	570.7
648.835	578.4
649.252	572.3
649.67	576.5
650.088	577.9
650.484	581.3
650.902	587.2
651.32	584.8
651.738	575.1
652.134	579.2
652.552	587.7
652.971	581.8
653.389	572.9
653.786	588.4
654.204	575.9
654.622	568.6
655.019	579.2
655.438	577.1
655.857	574.4
656.275	577.9
656.673	567.3
657.091	643.2
657.51	567.1
657.908	579
658.327	591
658.746	568.6
659.144	575
659.563	579.5
659.982	577.3
660.38	568.7
660.8	582
661.219	579.8
661.617	580.5
662.037	570.5
662.457	586.6
662.855	563.6
663.275	605.4
663.695	581.2
664.094	569.7
664.514	578.6
664.934	562.6
665.333	582.4
665.753	568.1
666.152	567.1
666.572	565.2
666.993	581.7
667.392	565.5
667.812	573.3
668.212	570
668.632	580.7
669.053	568.3
669.453	576.6
669.874	575.4
670.273	575.7
670.694	565.4
671.116	579.6
671.515	581.3
671.937	569.9
672.337	566
672.758	569.6
673.158	577.2
673.58	562.4
673.98	569.2
674.402	578.8
674.824	567.5
675.224	570.8
675.646	557.5
676.047	564.2
676.469	569.1
676.869	571.5
677.292	571.3
677.693	554.2
678.115	561
678.516	573.2
678.939	573.3
679.34	573.3
679.762	581.4
680.164	567.7
680.586	562.5
680.988	578.1
681.411	594.4
681.812	567.3
682.236	564.4
682.637	558.1
683.061	559.8
683.462	563.9
683.864	567.1
684.288	574.7
684.69	556.6
685.114	579.8
685.516	581.5
685.94	562.3
686.342	573.6
686.766	572.3
687.168	560
687.571	587.9
687.995	569
688.398	563.2
688.822	569.5
689.225	583.5
689.628	587.4
690.052	563.8
690.456	570.7
690.88	565.3
691.284	562.3
691.687	571.6
692.112	558.8
692.515	561.9
692.919	569.1
693.344	572
693.747	566.7
694.173	565.2
694.577	577.5
694.98	568.8
695.406	565.3
695.81	568.6
696.214	571.6
696.64	569.2
697.044	570.9
697.448	571.6
697.874	562.3
698.279	567.2
698.684	558.1
699.11	557.1
699.514	566.8
699.919	562.1
700.324	559.8
700.75	568.7
701.156	568.5
701.561	582.3
701.987	567
702.393	571.5
702.798	569.8
703.203	563.4
703.63	561.8
704.036	558.2
704.442	568.7
704.847	564.3
705.274	563.8
705.68	575.2
706.086	575.2
706.492	553.5
706.92	565.1
707.326	572.6
707.732	570
708.139	559.6
708.545	552.8
708.973	558.7
709.38	563.3
709.786	555
710.193	579.5
710.6	562.2
711.028	555.5
711.435	560.8
711.842	561.8
712.249	565.9
712.656	562.5
713.064	572.1
713.492	563.2
713.9	555.3
714.307	566.8
714.715	570.7
715.123	564.5
715.53	568.7
715.938	572.3
716.367	568.4
716.775	565.5
717.184	557.4
717.592	564.4
718	572.7
718.408	597.1
718.816	607.8
719.225	574.5
719.633	562
720.042	557
720.472	565.6
720.881	582.2
721.29	573.4
721.699	554.5
722.108	568.6
722.517	570
722.926	564.9
723.335	577.3
723.744	562.1
724.154	564.9
724.563	566.5
724.973	569.8
725.382	570.9
725.792	563.4
726.202	561.2
726.612	577.9
727.022	569.3
727.432	559.6
779.813	564.3
780.223	602.1
780.634	564
781.044	554
781.454	564.7
781.865	574.2
782.276	554.8
782.686	577.3
783.097	565.2
783.508	566.8
783.919	565.7
784.33	577.9
784.741	572.8
785.152	562.6
785.563	544.2
785.974	560.1
786.386	580.3
786.776	558.4
787.188	565.9
787.599	557.1
788.011	568.2
788.423	568.8
788.835	560.1
789.247	553.9
789.659	558.4
790.071	560
790.483	606.3
790.874	561.8
791.286	569
791.699	558.1
792.111	559.9
792.524	564
792.937	562.1
793.349	548.7
793.741	554.8
794.154	552.7
794.567	575.9
794.98	563.5
795.393	551.4
795.785	575.4
796.198	561.7
796.612	562.3
797.026	566.5
797.439	548.5
797.831	563.1
798.245	557
798.659	563.1
799.073	562.2
799.487	559.9
799.88	562.2
800.294	559.3
800.708	567.5
801.123	564.6
801.516	579
801.93	552
802.345	548.9
802.76	566.9
803.153	575.8
803.568	582
803.983	566.6
804.377	561
804.792	550.4
805.207	552.1
805.601	569.3
806.016	594.3
806.432	554
806.826	591.2
807.242	573.4
807.658	566
808.052	559.8
808.468	569.2
808.884	557.8
809.279	561.8
809.695	576.3
810.111	586.4
810.506	564.9
810.922	583.8
811.339	555.7
811.734	568.9
812.151	563.4
812.546	555.8
812.963	557
813.38	567.9
813.776	563.1
814.193	582.7
814.589	559.9
815.006	554
815.402	555.5
815.82	559.1
816.237	568.3
816.633	563.5
817.051	558.6
817.448	565.3
817.866	558.5
818.262	577.4
818.68	562
819.077	558.6
819.495	563.8
819.892	600.8
820.311	558
820.708	547
821.127	556.1
821.524	573.8
821.943	568
822.34	584.8
822.759	561.9
823.157	561.2
823.576	572.9
823.974	565.8
824.393	568.2
824.791	549.2
825.189	553.2
825.609	560.4
826.007	557.6
826.427	547.6
826.826	558.5
827.246	568
827.644	547.8
828.043	568.7
828.463	560.4
828.862	564.1
829.261	566.6
829.682	554.5
830.081	572.6
830.502	559.4
830.901	564.3
831.301	559.3
831.722	548.3
832.121	562.6
832.521	554.1
832.943	557
833.342	558.1
833.742	554.6
834.164	557.4
834.564	553.6
834.965	567.7
835.386	564
835.787	555.9
836.188	557.1
836.588	556.2
837.01	562.9
837.411	553.8
837.812	563.7
838.213	564.1
838.636	555.9
839.037	623.7
839.438	564.3
839.84	564.2
840.263	570.8
840.664	562.9
841.066	557.5
841.468	563.8
841.891	554.8
842.293	568.7
842.695	566.4
843.098	564.2
843.5	560
