#lambda/nm	C1
208.295	484.5
208.67	448
209.045	410.6
209.419	413
209.794	595.3
210.169	575.6
210.544	690.5
210.919	589.2
211.295	582.3
211.67	585.7
212.045	584.1
212.421	580.9
212.796	619.2
213.172	580.6
213.547	583.7
213.923	583
214.299	579
214.675	590.8
215.051	585.4
215.427	589.5
215.803	610.2
216.179	599
216.555	586.7
216.932	596.8
217.308	587.7
217.684	585.4
218.061	593.3
218.438	587.3
218.814	585.2
219.191	601
219.568	578.5
219.945	583.6
220.322	597.7
220.699	595.7
221.076	599.4
221.453	591.1
221.83	581.8
222.208	582.2
222.585	582.5
222.962	586.3
223.34	592.6
223.717	589.3
224.095	586.5
224.473	590
224.851	580.4
225.229	582.4
225.607	602.5
225.985	574.8
226.363	584.3
226.741	588.6
227.119	589.5
227.497	602.7
227.876	580
228.254	595.2
228.633	591.5
229.011	589.8
229.39	596.9
229.769	590.1
230.148	588.8
230.527	607.7
230.905	592.5
231.284	593.9
231.664	581.4
232.043	601.7
232.422	596.5
232.801	584.6
233.181	589.8
233.56	586.8
233.94	586.4
234.319	571.7
234.699	585.1
235.079	624.7
235.458	618.7
235.838	609.5
236.218	577.2
236.598	577.5
236.978	581.2
237.358	582
237.738	573.7
238.119	592.2
238.499	575
238.88	579.9
239.26	602.9
239.641	576
240.021	585.8
240.402	587.8
240.783	585.3
241.163	581.1
241.544	586.4
241.925	586.9
242.306	598.1
242.687	583.5
243.069	586.1
243.45	594.7
243.831	577
244.212	583.6
244.594	615.1
244.975	596.4
245.357	592.4
245.739	581.9
246.12	589.6
246.502	599.5
246.884	587.2
247.266	580.5
247.648	589.6
248.03	605
248.412	592.9
248.794	595.1
249.176	584.7
249.559	596.1
249.941	585.8
250.323	579.3
250.706	580
251.089	590.2
251.471	592.2
251.854	588.7
252.237	589.1
252.62	595.8
253.002	585.7
253.385	583.9
253.769	604
254.152	587.6
254.535	592.2
254.918	585.3
255.301	586.7
255.685	590.8
256.068	587.6
256.452	613.4
256.835	593.7
257.219	597.6
257.603	604
257.986	582.3
258.37	598.2
258.754	579.5
259.138	590.7
259.522	596.5
259.906	588.7
260.29	592.4
260.675	585.9
261.059	588
261.443	582.7
261.828	591.5
262.212	594.9
262.597	574.2
262.981	582.7
263.366	591.2
263.751	589.9
264.136	581.5
264.521	583.1
264.906	582.9
265.291	596.7
265.676	582.9
266.061	593
266.446	607.7
266.831	591
267.217	610.6
267.602	591.2
267.987	594.1
268.373	586.9
268.759	596.3
269.144	594.2
269.53	586.1
269.916	582.4
270.302	587.2
270.688	593.9
271.074	592.4
271.46	599.7
271.846	622.7
272.232	588.3
272.618	586.5
273.004	589.1
273.391	592.1
273.777	607.8
274.164	595.3
274.55	606.2
274.937	590
275.324	584.3
275.71	592.2
276.097	598
276.484	579.8
276.871	589.4
277.258	596.2
277.645	577.9
278.032	585.7
278.419	585.5
278.807	597.2
279.194	583.7
279.581	584.6
279.969	594.3
280.356	592.2
280.744	594.3
281.131	616.5
281.519	599.1
281.907	581.7
282.295	582.8
282.682	594.7
283.07	591.6
283.458	595.7
283.846	601.2
284.235	599
284.623	596.4
285.011	583.7
285.399	590.6
285.788	588.9
286.176	573.9
286.565	600
286.953	583.9
287.342	580.8
287.731	580
288.119	580.5
288.508	586.3
288.897	588.1
289.286	574
289.675	585.6
290.064	596.7
290.453	582.1
290.821	589.4
291.21	608
291.599	584.7
291.989	590.5
292.378	595.7
292.768	606
293.157	590.6
293.547	593.9
293.936	587.2
294.326	577.3
294.716	587.1
295.106	587.2
295.496	598
295.886	598.1
296.276	583.9
296.666	583.7
297.056	583.2
297.446	574.6
297.836	601.2
298.227	581
298.617	592.7
299.008	597.3
299.398	587.9
299.789	582.9
300.179	591
300.57	601.5
300.961	584.3
301.352	590.3
301.742	606.6
302.133	592.8
302.524	586.6
302.915	593.7
303.307	586
303.698	601.4
304.089	594.6
304.48	585.7
304.872	589.9
305.263	593.6
305.655	581.4
306.046	592.8
306.438	596.2
306.829	584.1
307.221	600.9
307.613	598.1
308.005	600.1
308.397	596.8
308.789	614.7
309.181	616.4
309.573	610.5
309.965	610.3
310.357	586.5
310.749	592.2
311.142	583.2
311.534	585.5
311.926	593.4
312.319	585.3
312.711	585
313.104	607.1
313.497	591.2
313.889	627.6
314.282	607.6
314.675	615.2
315.068	596.1
315.461	601.2
315.854	616.1
316.247	598.1
316.64	591.4
317.033	592.9
317.405	601.7
317.798	593.2
318.192	593.1
318.585	580.7
318.979	598.8
319.372	583.5
319.766	590.8
320.16	599
320.553	601.1
320.947	615.8
321.341	587
321.735	591.5
322.129	578.8
322.523	618.7
322.917	582.6
323.311	600.8
323.705	600.4
324.099	597.8
324.494	609.8
324.888	602.1
325.282	589.1
325.677	595.7
326.071	596.1
326.466	597.9
326.861	594
327.255	600.3
327.65	604
328.045	601.6
328.44	589.8
328.835	587.3
329.23	585.6
329.625	611.8
330.02	581.3
330.415	607.7
330.81	592.9
331.206	595.9
331.601	587.9
331.996	594.4
332.37	600.3
332.766	583.1
333.161	602.4
333.557	584
333.953	582.9
334.348	957.6
334.744	589.9
335.14	583.3
335.536	586.1
335.932	595
336.328	588.5
336.724	589.4
337.12	585.9
337.516	592.7
337.913	586.6
338.309	604.6
338.705	583.3
339.102	599
339.498	581.8
339.895	606.7
340.291	588.4
340.688	596.8
341.085	582.3
341.481	591.7
341.878	592.5
342.275	610.9
342.672	584.1
343.069	582.2
343.466	572.2
343.842	603.1
344.239	583.6
344.636	589.8
345.033	579.7
345.431	584.3
345.828	591.7
346.225	577.7
346.623	600.9
347.02	588.9
347.418	598.4
347.816	592.9
348.213	578.3
348.611	595.8
349.009	587.7
349.407	593.7
349.805	581.3
350.203	573.4
350.601	596
350.999	584.2
351.397	581.3
351.795	586.5
352.193	600.9
352.57	595.8
352.969	596.1
353.367	583.6
353.766	582.7
354.164	584
354.563	595.1
354.961	587.6
355.36	588.1
355.759	586
356.158	579.3
356.557	576.5
356.956	580.1
357.355	568.7
357.754	585.9
358.153	594.2
358.552	609.9
358.951	586.7
359.35	597.2
359.75	583.1
360.149	576.3
360.527	577.3
360.926	573.8
361.326	584
361.726	586.9
362.125	577.7
362.525	591.4
362.925	584.3
363.325	587
363.724	587.9
364.124	580.4
364.524	586.9
364.924	580
365.324	593.5
365.725	572.5
366.125	589.3
366.525	585.7
366.904	582.5
367.304	572.1
367.705	599.1
368.105	597.1
368.506	583.8
368.906	584.5
369.307	584.8
369.708	589
370.108	570.3
370.509	595.6
370.91	582.7
371.311	587
371.712	589
372.113	582.1
372.514	568.4
372.894	578.2
373.295	579.6
373.696	592.5
374.097	589.9
374.499	611
374.9	586.6
375.301	578.8
375.703	589
376.105	580
376.506	594.2
376.908	589.4
377.309	582.4
377.711	583.7
378.113	579.2
378.493	581.8
378.895	578
379.297	589.1
379.699	577
380.102	586.8
380.504	583.3
380.906	582.7
381.308	607.3
381.71	584.9
382.113	589.6
382.515	582.6
382.918	582.2
383.299	582.5
383.701	594
384.104	582.8
384.507	563.9
384.909	578
385.312	562.5
385.715	567.9
386.118	580.6
386.521	565.9
386.924	586.7
387.327	575.2
387.709	569.7
388.112	567.1
388.515	579.1
388.918	575.4
389.322	576.8
389.725	578.9
390.129	602
390.532	584.5
390.936	574.6
391.339	572
391.743	584.5
392.125	574.1
392.529	592.3
392.933	595.6
393.337	582.2
393.74	580.3
394.144	585.5
394.548	576.5
394.953	571.7
395.357	581.1
395.761	572.4
396.144	585.9
396.548	583.5
396.952	584.1
397.357	584.5
397.761	575
398.166	576
398.57	581.2
398.975	568.8
399.379	588.1
399.763	632.8
400.168	584.4
400.572	579.3
400.977	577.7
401.382	595
401.787	589.2
402.192	595.4
402.597	595.5
403.002	569.7
403.386	591.1
403.791	599.5
404.197	583.3
404.602	584.2
405.007	588.2
405.413	581.5
405.818	573.4
406.224	576
406.608	579.9
407.014	576
407.42	601.2
407.825	580.8
408.231	598.5
408.637	579
409.043	594.5
409.449	579.7
409.834	579.4
410.24	585.8
410.646	598.6
411.052	594.4
411.458	584.2
411.865	592.8
412.271	588.1
412.677	582.8
413.062	591.1
413.469	576.5
413.875	612.2
414.282	599.6
414.689	585.6
415.095	592.3
415.502	575.1
415.888	581.7
416.294	568.8
416.701	621.8
417.108	577
417.515	592
417.923	582.1
418.33	603
418.715	589.1
419.123	580.8
419.53	585.7
419.937	584.6
420.345	597
420.752	577.8
421.16	596.3
421.546	584.5
421.953	596.4
422.361	575.6
422.769	582.9
423.177	580.5
423.585	615.5
423.992	596.9
424.379	596.1
424.787	595.9
425.195	605.1
425.603	583.1
426.011	591.9
426.419	598.7
426.806	587
427.214	589.1
427.623	594
428.031	599.1
428.44	588.9
428.848	599.2
429.235	607.4
429.644	594
430.053	598.7
430.461	609.4
430.87	618.8
431.279	616.3
431.666	608.9
432.075	620.2
432.484	637.4
432.893	641.2
433.302	672.4
433.711	710.6
434.099	690.7
434.508	696.1
434.918	710.9
435.327	737.2
435.737	762.8
436.125	774.6
436.534	796.2
436.944	820.6
437.353	843.6
437.763	878.9
438.173	881.5
438.561	918.9
438.971	916.3
439.381	952.5
439.791	979.5
440.201	993
440.589	1030.4
440.999	1060.7
441.409	1081.2
441.819	1089.6
442.23	1128.8
442.619	1146.1
443.029	1154.1
443.439	1177.4
443.85	1204.1
444.26	1230.5
444.649	1250.7
445.06	1260.5
445.471	1264.6
445.881	1281
446.292	1305.8
446.682	1342.7
447.092	1316.4
447.503	1391.1
447.914	1356.3
448.325	1360.8
448.715	1364.7
449.126	1383.9
449.537	1400
449.948	1397.8
450.338	1414.6
450.75	1440
451.161	1435.5
451.572	1435.5
451.984	1430.4
452.374	1428
452.786	1463.9
453.197	1466.3
453.609	1473.8
453.999	1467.5
454.411	1473.5
454.823	1489.9
455.235	1497.5
455.647	1493.2
456.037	1513.2
456.449	1492.4
456.862	1503.8
457.274	1515
457.665	1505.1
458.077	1516.2
458.489	1516.4
458.902	1509.5
459.293	1511.3
459.705	1515.3
460.118	1505
460.53	1530.4
460.921	1528.2
461.334	1515.8
461.747	1511.7
462.16	1518.4
462.551	1525.4
462.964	1502.1
463.377	1483.7
463.79	1494.8
464.182	1496.6
464.595	1491.5
465.008	1484.3
465.421	1487.1
465.813	1489.7
466.226	1490.3
466.64	1489.9
467.053	1536.9
467.445	1488.3
467.859	1485.1
468.272	1494.3
468.686	1495.1
469.078	1482
469.492	1459.1
469.906	1472.6
470.298	1475.3
470.712	1459.5
471.126	1498.8
471.54	1447.6
471.933	1449.7
472.347	1447.5
472.761	1456.7
473.175	1432.7
473.568	1444
473.982	1429.6
474.397	1431
474.79	1424
475.204	1429.6
475.619	1419.6
476.033	1414.7
476.426	1403.1
476.841	1404.1
477.256	1411.6
477.649	1377.9
478.064	1382.9
478.479	1375.7
478.872	1375.9
479.287	1362.7
479.702	1358.4
480.118	1368.7
480.511	1358.2
480.927	1354.1
481.342	1342.7
481.736	1348.2
482.151	1338.2
482.566	1352.4
482.96	1341.2
483.376	1341.8
483.792	1331.3
484.186	1337.6
484.602	1328.2
485.017	1321.3
485.412	1329.5
485.827	1327.4
486.243	1313.4
486.638	1336.2
487.054	1307.4
487.47	1320.9
487.865	1293.4
488.281	1290.2
488.697	1287.1
489.092	1281.2
489.508	1255.6
489.925	1281.6
490.32	1259.1
490.736	1262.7
491.153	1268.8
491.548	1252.7
491.964	1247.2
492.381	1219.7
492.776	1231.2
493.193	1228.7
493.61	1235.2
494.006	1205.5
494.422	1216.5
494.84	1210.3
495.235	1209.2
495.652	1203.4
496.069	1196.9
496.465	1174.1
496.883	1184.5
497.3	1198.4
497.696	1159.6
498.113	1185.8
498.509	1140.7
498.927	1139.5
499.344	1148.8
499.741	1139.5
500.158	1143.6
500.576	1146.2
500.973	1129.4
501.39	1123.8
501.787	1109.2
502.205	1111.4
502.623	1095.3
503.02	1096.4
503.438	1083.9
503.856	1095.5
504.253	1089.2
504.671	1081.6
505.068	1075.7
505.486	1072.8
505.905	1091.5
506.302	1068.2
506.72	1076.9
507.118	1049
507.536	1049.2
507.955	1038.5
508.352	1050.7
508.771	1041.1
509.169	1038.3
509.587	1014.6
510.006	1022.9
510.404	1008.2
510.823	1012.4
511.221	1002.6
511.64	1000.7
512.038	1006.4
512.457	994.6
512.877	986.3
513.275	974.6
513.694	980.5
514.092	964.6
514.512	970.8
514.91	966.4
515.33	956.8
515.749	954.3
516.148	959.6
516.568	951.8
516.966	946.7
517.386	931.7
517.785	941.9
518.205	931.3
518.603	929.9
519.024	926.4
519.444	932.2
519.843	934.5
520.263	919.5
520.662	913.2
521.082	906.5
521.481	907.1
521.902	902.6
522.301	898.8
522.722	896
523.121	892.1
523.542	884.5
523.963	878.8
524.362	877.8
524.783	870.3
525.183	864.9
525.604	869.8
526.003	853.7
526.425	857.7
526.824	860.5
527.246	858.6
527.646	859
528.067	846.7
528.467	847.2
528.888	843.2
529.289	835.6
529.71	835.3
530.11	824.7
530.532	833.6
530.932	816.8
531.354	814.7
531.755	845.9
532.176	824
532.577	812.4
532.999	801.6
533.4	803.5
533.822	816.7
534.223	795.2
534.645	798.4
535.046	796.1
535.468	794.9
535.869	802.8
536.292	790.6
536.693	789.5
537.115	788
537.516	775.5
537.939	780.1
538.34	796.7
538.742	796.4
539.165	779.2
539.566	770.8
539.989	769.7
540.391	769.5
540.814	771.6
541.216	776.9
541.639	768.1
542.041	782
542.464	761.7
542.866	754.4
543.268	756.4
543.691	768.7
544.093	769.1
544.517	772.3
544.919	750.4
545.343	773.6
545.745	740.1
546.147	745.7
546.571	747
546.974	736.7
547.398	740.5
547.8	753.2
548.224	740.5
548.627	730
549.03	742.2
549.454	728.1
549.857	727.6
550.281	721
550.684	722.7
551.087	736
551.512	734.3
551.915	723.5
552.34	713.5
552.743	715.5
553.146	716.1
553.571	711.9
553.975	729.7
554.399	706.3
554.803	750.9
555.207	706.3
555.632	698.7
556.036	709
556.461	696
556.865	699.5
557.268	688.6
557.694	697.3
558.098	692.1
558.502	697
558.927	687.7
559.332	685.8
559.736	687.4
560.162	695
560.566	678.4
560.992	692.7
561.396	679.2
561.801	676
562.227	681.7
562.631	680.5
563.036	677.3
563.462	684.5
563.867	682.3
564.272	663.4
564.698	675.3
565.103	657.1
565.508	684.4
565.935	670.4
566.34	667.2
566.745	675.8
567.172	662.5
567.577	680.5
567.982	674.8
568.409	666.6
568.815	653.4
569.22	662.2
569.626	670.7
570.053	641.2
570.459	657.6
570.865	653.9
571.292	658.9
571.698	657.4
572.104	634.9
572.531	641.6
572.937	650.8
573.343	643.8
573.75	643.3
574.177	646.9
574.583	655
574.99	641.2
575.396	644.3
575.824	637.1
576.231	640.1
576.637	641
577.065	663.6
577.472	628.2
577.879	631.6
578.286	646
578.714	626.8
579.121	628.9
579.528	638.5
579.935	634.3
580.364	628.7
580.771	619.3
581.178	626.6
581.585	636
582.014	635
582.421	622.5
582.829	620
583.236	633
583.644	627
584.073	626.9
584.481	621.4
584.889	621.8
585.296	624.5
585.726	625.3
586.134	615.5
586.542	615.3
586.95	640.8
587.358	611.4
587.787	619.9
588.196	611.7
588.604	607.3
589.012	615.8
589.421	607.6
589.851	613.8
590.259	623.9
590.668	615.4
591.076	650.2
591.485	603.1
591.894	612.8
592.324	625.3
592.733	618.2
593.142	598.2
593.551	604.2
593.96	638.6
594.369	600.4
594.8	606.1
595.209	609.2
595.618	591.4
596.028	605.6
596.437	598.3
596.847	604
597.256	607.4
597.687	606.4
598.097	600.2
598.507	593.1
598.917	607.2
599.327	608.5
599.736	606.7
600.146	605.5
600.556	601.2
600.988	609.7
601.398	596.1
601.808	604.7
602.219	580.3
602.629	593.1
603.039	592.8
603.45	616.2
603.86	593.8
604.271	611.3
604.703	587.8
605.114	592
605.525	591.3
605.935	595.9
606.346	611.9
606.757	593.9
607.168	589
607.579	583.7
607.99	596.1
608.402	587.4
608.813	590.9
609.224	588.8
609.636	580.3
610.047	577.5
610.48	588.4
610.892	594.8
611.303	594.8
611.715	583.2
612.127	580.8
612.539	585.5
612.95	588.1
613.362	585.2
613.774	573.2
614.186	579.1
614.599	582.2
615.011	595
615.423	577.9
615.835	580.6
616.248	573.2
616.66	589.4
617.073	576.4
617.485	580.7
617.898	591.6
618.311	586.7
618.723	579.2
619.136	605.8
619.549	588.4
619.962	605.8
620.375	578.8
620.788	585.4
621.201	580.3
621.614	587.4
622.028	578
622.441	582.9
622.854	593.5
623.268	581.9
623.681	586.3
624.095	580.5
624.509	589.1
624.922	588.7
625.336	568.9
625.728	581.6
626.142	590.7
626.556	594.6
626.97	592
627.384	574.2
627.799	579.7
628.213	589.6
628.627	581.8
629.041	575.5
629.456	576
629.87	580.8
630.285	587.9
630.699	586
631.093	579.7
631.507	585.4
631.922	586.1
632.337	590.4
632.752	570.6
633.167	578.6
633.582	576.4
633.997	567.5
634.412	572.4
634.806	582.3
635.221	571.9
635.637	589.9
636.052	570.2
636.468	584.2
636.883	596.1
637.299	577.9
637.715	566.8
638.109	572.5
638.525	564.8
638.941	593.8
639.357	581.1
639.773	583.5
640.189	574.2
640.584	570.9
641	573.7
641.416	564
641.832	573.7
642.249	569.4
642.665	574.6
643.06	574.9
643.477	587.2
643.894	567.5
644.31	571.2
644.727	575.1
645.123	578.3
645.54	567.7
645.957	578
646.374	579.4
646.77	569.5
647.187	597.1
647.604	570.7
648.021	560.5
648.439	559.5
648.835	571.5
649.252	572.8
649.67	572.4
650.088	574.1
650.484	575.8
650.902	578.5
651.32	581.4
651.738	572.5
652.134	576
652.552	593
652.971	576.9
653.389	573.3
653.786	585.7
654.204	573.8
654.622	566.4
655.019	570
655.438	577.6
655.857	574
656.275	575.7
656.673	561.1
657.091	637.3
657.51	563.8
657.908	575.5
658.327	583.8
658.746	563.4
659.144	570
659.563	581.3
659.982	576.5
660.38	561.8
660.8	570.7
661.219	584.2
661.617	574.4
662.037	569.2
662.457	579.6
662.855	560.4
663.275	602.2
663.695	568
664.094	569.3
664.514	573.3
664.934	566.3
665.333	579.7
665.753	560.9
666.152	562
666.572	560.5
666.993	580.6
667.392	566.8
667.812	565
668.212	563.8
668.632	584.2
669.053	562.4
669.453	568.3
669.874	570.6
670.273	566.3
670.694	558.6
671.116	580
671.515	572.2
671.937	561.4
672.337	561.3
672.758	560.4
673.158	574.8
673.58	558.2
673.98	564
674.402	579.4
674.824	565
675.224	561.5
675.646	558.1
676.047	561.2
676.469	562.9
676.869	571.3
677.292	568.8
677.693	565.2
678.115	558
678.516	573.6
678.939	569.3
679.34	567.2
679.762	578
680.164	566
680.586	558.7
680.988	573.8
681.411	591.7
681.812	561.2
682.236	561.2
682.637	560.1
683.061	554.9
683.462	568.8
683.864	560.6
684.288	567
684.69	557.5
685.114	576.5
685.516	577.5
685.94	557.4
686.342	571.9
686.766	564.9
687.168	563.7
687.571	585.1
687.995	568
688.398	559.3
688.822	564.5
689.225	581.3
689.628	579.6
690.052	561.6
690.456	570.5
690.88	564.6
691.284	554.5
691.687	572.7
692.112	559.4
692.515	558.1
692.919	564.9
693.344	567
693.747	561.4
694.173	560.3
694.577	572.4
694.98	568.6
695.406	560.2
695.81	573.9
696.214	569.9
696.64	567.4
697.044	563.2
697.448	578.1
697.874	558.8
698.279	561.9
698.684	558
699.11	553.6
699.514	562.5
699.919	556.8
700.324	553.1
700.75	564.7
701.156	561.8
701.561	572.6
701.987	565.9
702.393	575.2
702.798	571
703.203	562.9
703.63	560.1
704.036	559.3
704.442	562.1
704.847	553.1
705.274	558.6
705.68	561.3
706.086	571.9
706.492	550.2
706.92	558.6
707.326	563.4
707.732	557.4
708.139	554
708.545	547.9
708.973	557.6
709.38	561.5
709.786	554
710.193	580.3
710.6	559.3
711.028	553.3
711.435	559
711.842	562.4
712.249	557.5
712.656	563
713.064	573.4
713.492	550.7
713.9	556.7
714.307	567.8
714.715	562.1
715.123	558.5
715.53	557.2
715.938	568.3
716.367	558
716.775	553.4
717.184	553.3
717.592	558.8
718	565.3
718.408	590.8
718.816	597.4
719.225	561.7
719.633	559.9
720.042	552
720.472	557.6
720.881	580.1
721.29	569.8
721.699	549.9
722.108	565.1
722.517	564.4
722.926	565.3
723.335	571.3
723.744	563.8
724.154	563.1
724.563	569.4
724.973	564.3
725.382	560.2
725.792	562.6
726.202	554
726.612	569
727.022	564.1
727.432	561.1
779.813	556.8
780.223	601.8
780.634	561.1
781.044	558.1
781.454	564.5
781.865	573.4
782.276	554
782.686	565.3
783.097	561.4
783.508	556.8
783.919	565.9
784.33	571.5
784.741	579.4
785.152	556.2
785.563	549.8
785.974	554.9
786.386	573.8
786.776	554.9
787.188	560.7
787.599	552.8
788.011	567.9
788.423	562.7
788.835	553.4
789.247	545.5
789.659	557.4
790.071	551.9
790.483	597.6
790.874	556.1
791.286	572.9
791.699	552.7
792.111	560
792.524	560.7
792.937	561.8
793.349	550.5
793.741	554.6
794.154	556
794.567	575.5
794.98	561.6
795.393	543.2
795.785	575.6
796.198	557.7
796.612	555.3
797.026	563.3
797.439	543.5
797.831	557.9
798.245	546.9
798.659	555.8
799.073	553.2
799.487	552.1
799.88	559.2
800.294	556.6
800.708	563.8
801.123	558.8
801.516	573.2
801.93	553.4
802.345	548.8
802.76	559.4
803.153	567.2
803.568	570.5
803.983	569.1
804.377	565.3
804.792	548.8
805.207	545.2
805.601	556.2
806.016	586.8
806.432	549.7
806.826	584.3
807.242	572.3
807.658	564
808.052	553.7
808.468	554.5
808.884	557.6
809.279	558.8
809.695	566.8
810.111	583.7
810.506	564.2
810.922	579
811.339	554.1
811.734	563.3
812.151	552.6
812.546	550.3
812.963	552
813.38	559.6
813.776	552
814.193	573.2
814.589	547.7
815.006	550.6
815.402	541.7
815.82	549.2
816.237	552.6
816.633	555.2
817.051	550.5
817.448	563
817.866	545
818.262	571.7
818.68	547.8
819.077	551.8
819.495	554.3
819.892	595.5
820.311	549.1
820.708	547.6
821.127	550.8
821.524	565.9
821.943	558.4
822.34	572.9
822.759	556.9
823.157	554.1
823.576	565.7
823.974	561
824.393	565.2
824.791	552.4
825.189	548.4
825.609	560.7
826.007	559.4
826.427	547.5
826.826	556.8
827.246	560.5
827.644	545.7
828.043	562.9
828.463	549.1
828.862	572
829.261	560.8
829.682	548.9
830.081	567.1
830.502	552.4
830.901	564.2
831.301	548.3
831.722	550.5
832.121	555.4
832.521	558.3
832.943	557.4
833.342	550
833.742	550.7
834.164	552.2
834.564	549.2
834.965	559.5
835.386	554.8
835.787	560.3
836.188	553.6
836.588	552.6
837.01	560.9
837.411	547.3
837.812	565.8
838.213	558.3
838.636	550.3
839.037	623
839.438	553.2
839.84	556.5
840.263	564.4
840.664	560.1
841.066	555.2
841.468	563.7
841.891	552.9
842.293	568
842.695	560.1
843.098	565
843.5	552
