#lambda/nm	C1
208.295	481.3
208.67	444.7
209.045	409.5
209.419	414.2
209.794	592.6
210.169	573.8
210.544	690.3
210.919	595.1
211.295	579.2
211.67	587.4
212.045	583
212.421	582
212.796	620.2
213.172	582.4
213.547	579.7
213.923	582.9
214.299	582
214.675	601.3
215.051	586
215.427	592.2
215.803	600
216.179	587.7
216.555	576.6
216.932	593.3
217.308	587.8
217.684	585.9
218.061	592.2
218.438	577.4
218.814	575.4
219.191	593.8
219.568	573.6
219.945	576.9
220.322	588.9
220.699	583.1
221.076	593.8
221.453	589.2
221.83	580
222.208	577.6
222.585	580.8
222.962	585.8
223.34	593.2
223.717	588.9
224.095	581.4
224.473	585
224.851	579.2
225.229	573
225.607	600.2
225.985	574.7
226.363	589.3
226.741	585.2
227.119	581.1
227.497	598.7
227.876	572
228.254	591.4
228.633	585
229.011	587.2
229.39	589.2
229.769	589.1
230.148	589.2
230.527	604.4
230.905	584.3
231.284	585.7
231.664	581
232.043	594.6
232.422	597.1
232.801	581.4
233.181	590.6
233.56	583.4
233.94	584
234.319	576.4
234.699	583.1
235.079	622.7
235.458	624.3
235.838	601.9
236.218	577.3
236.598	574.5
236.978	575.1
237.358	574.6
237.738	583.2
238.119	590.4
238.499	572.8
238.88	584.2
239.26	597
239.641	570.9
240.021	578.8
240.402	577.7
240.783	581.4
241.163	582.4
241.544	587.5
241.925	580.3
242.306	591.9
242.687	577
243.069	582
243.45	592.2
243.831	579.5
244.212	579.1
244.594	621
244.975	598.6
245.357	589.8
245.739	576.8
246.12	586.9
246.502	597.5
246.884	582.9
247.266	582.9
247.648	584.1
248.03	605.1
248.412	587.6
248.794	593
249.176	588.1
249.559	596.5
249.941	575.7
250.323	574.9
250.706	576.6
251.089	585.1
251.471	588.8
251.854	596.4
252.237	593.7
252.62	597.9
253.002	586.3
253.385	585.8
253.769	600.7
254.152	585.7
254.535	594.1
254.918	584.3
255.301	582
255.685	584.4
256.068	577.3
256.452	607.6
256.835	590.7
257.219	589.1
257.603	600.4
257.986	581.8
258.37	591.6
258.754	573.4
259.138	594.2
259.522	595.3
259.906	580.8
260.29	594
260.675	585.4
261.059	585.5
261.443	578.7
261.828	588.3
262.212	590.5
262.597	578.2
262.981	580.2
263.366	592.6
263.751	590
264.136	587.2
264.521	581.3
264.906	578.3
265.291	593.2
265.676	581
266.061	591.4
266.446	604.7
266.831	592.3
267.217	609.4
267.602	590.2
267.987	587.2
268.373	581.4
268.759	594.4
269.144	589.4
269.53	584.1
269.916	580
270.302	584
270.688	597.1
271.074	589.1
271.46	594.6
271.846	616.9
272.232	585.1
272.618	583.2
273.004	577.6
273.391	597.2
273.777	595.5
274.164	586.5
274.55	601.7
274.937	593.2
275.324	583.5
275.71	594.5
276.097	597.4
276.484	585.9
276.871	590.8
277.258	591.6
277.645	575.7
278.032	585.9
278.419	581
278.807	588.4
279.194	583.1
279.581	580.2
279.969	587.7
280.356	584.8
280.744	588.4
281.131	611
281.519	596.5
281.907	583.2
282.295	581.7
282.682	598.8
283.07	588.4
283.458	600.5
283.846	601.7
284.235	598.8
284.623	599.1
285.011	578.4
285.399	591.3
285.788	586
286.176	579.6
286.565	603.8
286.953	584.7
287.342	588.3
287.731	577.6
288.119	585.7
288.508	585.9
288.897	588.7
289.286	572.6
289.675	583.1
290.064	595.7
290.453	584.7
290.821	586.2
291.21	605
291.599	584.5
291.989	589.7
292.378	602.4
292.768	600.3
293.157	591.1
293.547	590.4
293.936	588.9
294.326	586.5
294.716	593.2
295.106	584
295.496	595.1
295.886	594.6
296.276	581.8
296.666	582.3
297.056	578.3
297.446	577.2
297.836	603.9
298.227	586
298.617	590.5
299.008	595
299.398	588.2
299.789	582.9
300.179	588.4
300.57	599.7
300.961	576.4
301.352	581.5
301.742	593.2
302.133	586
302.524	589.5
302.915	586.4
303.307	579.4
303.698	596
304.089	593.2
304.48	588.1
304.872	590.7
305.263	588.8
305.655	581.9
306.046	591
306.438	589.1
306.829	584.9
307.221	599.6
307.613	594.6
308.005	601.6
308.397	598.7
308.789	608.8
309.181	612.3
309.573	605.1
309.965	599.9
310.357	582
310.749	594
311.142	580.5
311.534	588.2
311.926	596.2
312.319	588.8
312.711	582.4
313.104	597.2
313.497	586.8
313.889	623.7
314.282	602.2
314.675	612.8
315.068	585.7
315.461	592.9
315.854	614.3
316.247	591
316.64	584.9
317.033	588.2
317.405	595.8
317.798	583.6
318.192	588
318.585	582.6
318.979	591.5
319.372	577.5
319.766	584.2
320.16	598.9
320.553	601.5
320.947	606.4
321.341	577.8
321.735	580.4
322.129	573.7
322.523	607.2
322.917	582.9
323.311	598.2
323.705	590.1
324.099	591
324.494	604.6
324.888	590.4
325.282	585.7
325.677	593.2
326.071	593.6
326.466	595.6
326.861	592.7
327.255	598.7
327.65	601.5
328.045	606.5
328.44	589.8
328.835	589.2
329.23	583.4
329.625	610.9
330.02	584.7
330.415	608.7
330.81	591.7
331.206	589.1
331.601	588.5
331.996	592.8
332.37	602.3
332.766	581.1
333.161	608.3
333.557	583.9
333.953	588.9
334.348	830.5
334.744	590.4
335.14	582.3
335.536	582.5
335.932	603.6
336.328	584.6
336.724	589.2
337.12	583.8
337.516	587.2
337.913	585.2
338.309	598.6
338.705	589.1
339.102	594
339.498	579.3
339.895	603.4
340.291	583.4
340.688	594.1
341.085	584.1
341.481	585.7
341.878	581.1
342.275	604.2
342.672	584.6
343.069	585.3
343.466	570.1
343.842	596.7
344.239	583
344.636	587
345.033	584
345.431	581.7
345.828	592.5
346.225	582.4
346.623	593.5
347.02	583.6
347.418	590.4
347.816	601.4
348.213	582.6
348.611	585.9
349.009	582
349.407	599.8
349.805	568.8
350.203	573.3
350.601	599.2
350.999	583.3
351.397	579.7
351.795	579.6
352.193	598.2
352.57	595
352.969	600.3
353.367	572.7
353.766	581.8
354.164	586
354.563	590.1
354.961	589.2
355.36	582.1
355.759	583.2
356.158	572.7
356.557	577.5
356.956	577
357.355	571.2
357.754	589.4
358.153	588.6
358.552	608.2
358.951	577.7
359.35	593.9
359.75	583.8
360.149	571.5
360.527	574.8
360.926	576.3
361.326	584.7
361.726	585.2
362.125	579.5
362.525	590.5
362.925	584.4
363.325	581.5
363.724	588.6
364.124	577.9
364.524	577.3
364.924	577.9
365.324	594.9
365.725	571.3
366.125	586.5
366.525	582.1
366.904	572.9
367.304	563.3
367.705	597
368.105	597.7
368.506	576.1
368.906	585.6
369.307	582.7
369.708	587.1
370.108	570.6
370.509	592.6
370.91	579.9
371.311	585
371.712	582.6
372.113	577.3
372.514	568.9
372.894	575.1
373.295	572.2
373.696	595.6
374.097	586.6
374.499	609.6
374.9	584.2
375.301	582.8
375.703	579.4
376.105	581.9
376.506	583.4
376.908	582.8
377.309	578.9
377.711	580
378.113	577.4
378.493	577.7
378.895	578.3
379.297	588.6
379.699	571.8
380.102	587.2
380.504	574.1
380.906	571.1
381.308	604.8
381.71	580.8
382.113	586.6
382.515	579.4
382.918	585.6
383.299	578.7
383.701	590.5
384.104	583.8
384.507	566.3
384.909	580.2
385.312	570
385.715	574.8
386.118	579.4
386.521	570.1
386.924	584.7
387.327	575.6
387.709	568.9
388.112	568.3
388.515	578.5
388.918	582.7
389.322	586.9
389.725	575.3
390.129	596.7
390.532	587.5
390.936	575.4
391.339	576.7
391.743	584.2
392.125	572.1
392.529	585.6
392.933	591
393.337	588.3
393.74	575.1
394.144	578.7
394.548	575.7
394.953	571.8
395.357	586.3
395.761	572.9
396.144	581.7
396.548	574.8
396.952	579.9
397.357	581.2
397.761	575.2
398.166	575
398.57	576.6
398.975	570.1
399.379	584.6
399.763	625.4
400.168	577.1
400.572	580.6
400.977	581.8
401.382	598.7
401.787	588.7
402.192	590.6
402.597	589.4
403.002	565.7
403.386	590.9
403.791	594
404.197	573.3
404.602	579.2
405.007	582.1
405.413	577.1
405.818	569.9
406.224	572.1
406.608	582
407.014	571.1
407.42	593.5
407.825	576
408.231	589.5
408.637	581.7
409.043	591.2
409.449	572.9
409.834	570.3
410.24	581.4
410.646	591.1
411.052	584.7
411.458	581.2
411.865	581.7
412.271	585.3
412.677	575.9
413.062	579.6
413.469	570.4
413.875	605.5
414.282	590.8
414.689	586.1
415.095	588.8
415.502	569.7
415.888	581.5
416.294	572.1
416.701	613.1
417.108	577
417.515	588.9
417.923	573.1
418.33	598.2
418.715	588.8
419.123	580.7
419.53	575.1
419.937	580.2
420.345	597.6
420.752	578.9
421.16	596
421.546	579.7
421.953	589.9
422.361	569
422.769	582.7
423.177	576.2
423.585	604.3
423.992	598.9
424.379	589.3
424.787	587
425.195	603.4
425.603	578.8
426.011	586.4
426.419	597.9
426.806	588.3
427.214	588
427.623	595.7
428.031	603.1
428.44	589.8
428.848	595.6
429.235	602.2
429.644	592.7
430.053	592.3
430.461	616
430.87	623.7
431.279	616.8
431.666	610
432.075	626.7
432.484	640.4
432.893	643.9
433.302	665.3
433.711	705.7
434.099	686.9
434.508	692.1
434.918	704
435.327	740.1
435.737	747
436.125	773.5
436.534	790.7
436.944	815.5
437.353	843.3
437.763	873.3
438.173	873.7
438.561	903.9
438.971	913.9
439.381	952.8
439.791	962.2
440.201	972
440.589	1014.9
440.999	1037.6
441.409	1056.5
441.819	1071.8
442.23	1113.3
442.619	1108.1
443.029	1134.4
443.439	1156.8
443.85	1182.1
444.26	1206.5
444.649	1199.7
445.06	1215
445.471	1239.5
445.881	1262.3
446.292	1291.3
446.682	1308.4
447.092	1272
447.503	1343.9
447.914	1323.3
448.325	1325
448.715	1347.8
449.126	1332.4
449.537	1344.4
449.948	1355.6
450.338	1362.1
450.75	1386.7
451.161	1385.1
451.572	1395.4
451.984	1395.9
452.374	1389.6
452.786	1413.5
453.197	1419.7
453.609	1430.1
453.999	1427.7
454.411	1420.6
454.823	1445.9
455.235	1447.6
455.647	1435.7
456.037	1443.9
456.449	1428
456.862	1466.9
457.274	1467.9
457.665	1461.5
458.077	1465.6
458.489	1471.5
458.902	1467.3
459.293	1460.8
459.705	1456.3
460.118	1439.5
460.53	1456.4
460.921	1457.3
461.334	1464.7
461.747	1460.1
462.16	1472.1
462.551	1478.7
462.964	1464.8
463.377	1445.7
463.79	1448.9
464.182	1450.2
464.595	1437.4
465.008	1443.3
465.421	1451.4
465.813	1429.5
466.226	1442.5
466.64	1428.4
467.053	1463.2
467.445	1432.6
467.859	1435.8
468.272	1441.2
468.686	1435
469.078	1423.3
469.492	1408.1
469.906	1421.4
470.298	1425.7
470.712	1404.3
471.126	1442.3
471.54	1394.7
471.933	1396.9
472.347	1411.9
472.761	1394
473.175	1389.1
473.568	1397.5
473.982	1386.7
474.397	1392
474.79	1390.9
475.204	1393.8
475.619	1382.2
476.033	1378.1
476.426	1363.4
476.841	1357.8
477.256	1377.6
477.649	1346.1
478.064	1346.9
478.479	1338.1
478.872	1333.8
479.287	1322.2
479.702	1318.5
480.118	1326.2
480.511	1325
480.927	1308.4
481.342	1319.4
481.736	1322.8
482.151	1300.7
482.566	1316.2
482.96	1305.9
483.376	1310.2
483.792	1293
484.186	1301.7
484.602	1291
485.017	1291.1
485.412	1280.6
485.827	1283
486.243	1275.4
486.638	1300.8
487.054	1276.6
487.47	1282.1
487.865	1259.3
488.281	1250.4
488.697	1242
489.092	1236.9
489.508	1220.5
489.925	1230.5
490.32	1211.4
490.736	1226.2
491.153	1215
491.548	1213.8
491.964	1223.5
492.381	1192.8
492.776	1189.6
493.193	1190.4
493.61	1189.9
494.006	1176.5
494.422	1183.8
494.84	1170.1
495.235	1175.1
495.652	1163.3
496.069	1161.5
496.465	1146
496.883	1146.2
497.3	1160.3
497.696	1135.9
498.113	1130
498.509	1117.5
498.927	1110.8
499.344	1105.8
499.741	1094.7
500.158	1109.5
500.576	1107.4
500.973	1097.2
501.39	1074
501.787	1076
502.205	1086.5
502.623	1072.6
503.02	1055.3
503.438	1055.7
503.856	1063.2
504.253	1065.3
504.671	1050.6
505.068	1041.7
505.486	1034.7
505.905	1048.5
506.302	1040.3
506.72	1039
507.118	1012.6
507.536	1020.8
507.955	1015.4
508.352	1016.3
508.771	1006.1
509.169	1012.7
509.587	989
510.006	996.9
510.404	975.7
510.823	977.3
511.221	979.5
511.64	975.3
512.038	979.8
512.457	972.2
512.877	962.1
513.275	953.6
513.694	953.5
514.092	948.3
514.512	949.8
514.91	933.1
515.33	937.5
515.749	939
516.148	943.7
516.568	933.4
516.966	928.4
517.386	913.7
517.785	918.1
518.205	917.6
518.603	900.4
519.024	901.2
519.444	901.7
519.843	911.9
520.263	900.3
520.662	898.7
521.082	887.3
521.481	891.2
521.902	886.6
522.301	884.9
522.722	886.5
523.121	869.2
523.542	860.8
523.963	855.6
524.362	857.3
524.783	858.3
525.183	853.6
525.604	853.4
526.003	839
526.425	839.9
526.824	843.6
527.246	851.7
527.646	840.7
528.067	831.7
528.467	822.4
528.888	829.7
529.289	821.2
529.71	815.7
530.11	812.3
530.532	813.4
530.932	802.9
531.354	791.7
531.755	835
532.176	810.5
532.577	797.6
532.999	794.8
533.4	789.9
533.822	799.9
534.223	787.5
534.645	789.3
535.046	787.8
535.468	782.2
535.869	792.6
536.292	773.2
536.693	775.6
537.115	780.8
537.516	770.3
537.939	771
538.34	779.9
538.742	777.1
539.165	767
539.566	769.6
539.989	757.6
540.391	756.5
540.814	758.3
541.216	763.3
541.639	761.4
542.041	759.9
542.464	757.3
542.866	748.8
543.268	745.6
543.691	753.2
544.093	747.8
544.517	758
544.919	730.2
545.343	762.8
545.745	732.6
546.147	730.1
546.571	734.2
546.974	722.6
547.398	738.1
547.8	738.5
548.224	721.9
548.627	717.6
549.03	725.5
549.454	709.5
549.857	702
550.281	714.5
550.684	711.9
551.087	722.8
551.512	715.6
551.915	721.5
552.34	714.1
552.743	707.4
553.146	707.2
553.571	704.6
553.975	720.9
554.399	691.2
554.803	748.3
555.207	690.7
555.632	688.7
556.036	688.2
556.461	685.6
556.865	692.6
557.268	678
557.694	685.8
558.098	690.5
558.502	689.8
558.927	680.8
559.332	676.6
559.736	683.5
560.162	685.1
560.566	676.4
560.992	682.4
561.396	678.5
561.801	672.9
562.227	672.4
562.631	666.4
563.036	670.3
563.462	675.3
563.867	670.4
564.272	655.1
564.698	665.2
565.103	658.6
565.508	681
565.935	657.5
566.34	658.4
566.745	675.2
567.172	653.7
567.577	675.9
567.982	663.1
568.409	662.6
568.815	638.6
569.22	652.5
569.626	663.9
570.053	643.9
570.459	651.6
570.865	654.6
571.292	656.2
571.698	650.4
572.104	631.4
572.531	640.5
572.937	655.2
573.343	639.5
573.75	635.6
574.177	641.9
574.583	645.4
574.99	638.9
575.396	642.3
575.824	635.1
576.231	640
576.637	631.5
577.065	655.8
577.472	632.8
577.879	630.2
578.286	644.9
578.714	625.3
579.121	627.3
579.528	629.1
579.935	642.5
580.364	625.9
580.771	611.4
581.178	623.1
581.585	628.8
582.014	632.4
582.421	617
582.829	616.1
583.236	633
583.644	611.9
584.073	612.5
584.481	621.1
584.889	611.5
585.296	622.4
585.726	619.3
586.134	611.6
586.542	616.9
586.95	631.3
587.358	606.3
587.787	615.1
588.196	607.6
588.604	612.8
589.012	612.5
589.421	604.5
589.851	602.6
590.259	614.1
590.668	612.7
591.076	640.3
591.485	599.2
591.894	606.5
592.324	616.1
592.733	615.9
593.142	600.2
593.551	599.6
593.96	636.8
594.369	594.9
594.8	595.6
595.209	598.9
595.618	591.8
596.028	594.6
596.437	593.5
596.847	595.2
597.256	599.7
597.687	602.4
598.097	598.2
598.507	588
598.917	596.8
599.327	595.8
599.736	601.7
600.146	599.7
600.556	584.9
600.988	599.4
601.398	587.9
601.808	599.4
602.219	578.8
602.629	587.4
603.039	588.5
603.45	609.3
603.86	590.4
604.271	605.5
604.703	585.7
605.114	586.4
605.525	590.5
605.935	592.2
606.346	606.1
606.757	594.5
607.168	583.3
607.579	574.2
607.99	597
608.402	582.5
608.813	588
609.224	575.7
609.636	576.3
610.047	576.1
610.48	578.9
610.892	586.3
611.303	595.2
611.715	584.8
612.127	569.3
612.539	577.9
612.95	581.9
613.362	574.6
613.774	569.4
614.186	576.4
614.599	583.9
615.011	588.4
615.423	573.5
615.835	575.4
616.248	573.3
616.66	585.7
617.073	574.9
617.485	579.4
617.898	586.2
618.311	585.5
618.723	576.9
619.136	607.7
619.549	593.7
619.962	603.1
620.375	575.7
620.788	583
621.201	576.9
621.614	582.8
622.028	579.3
622.441	584.4
622.854	590.4
623.268	574.2
623.681	584.3
624.095	576.9
624.509	587.5
624.922	583
625.336	564.8
625.728	576.8
626.142	588.2
626.556	593.1
626.97	583.3
627.384	573
627.799	574.2
628.213	584.4
628.627	579.5
629.041	571.6
629.456	573.3
629.87	580.9
630.285	583.6
630.699	587
631.093	580.5
631.507	579.7
631.922	580.8
632.337	589.8
632.752	568.8
633.167	575.8
633.582	573.9
633.997	566.3
634.412	570.1
634.806	573.2
635.221	563
635.637	584.3
636.052	567
636.468	575.5
636.883	591.5
637.299	573.1
637.715	563.6
638.109	573.2
638.525	559.3
638.941	588.2
639.357	578.7
639.773	585
640.189	569.7
640.584	565.1
641	574.1
641.416	558.3
641.832	564.4
642.249	576.6
642.665	567.9
643.06	578.8
643.477	580.7
643.894	556.6
644.31	570.9
644.727	572
645.123	572.6
645.54	567.4
645.957	569
646.374	577.2
646.77	573.6
647.187	598.5
647.604	567.4
648.021	553.2
648.439	564.7
648.835	573
649.252	571.6
649.67	566.7
650.088	568.2
650.484	575.6
650.902	574.4
651.32	575.7
651.738	565
652.134	572.3
652.552	585.9
652.971	573
653.389	568.3
653.786	577.3
654.204	565.8
654.622	560.6
655.019	562
655.438	575
655.857	567.8
656.275	570.9
656.673	563
657.091	628
657.51	562.4
657.908	577.8
658.327	584.4
658.746	556
659.144	569.1
659.563	584.5
659.982	575.2
660.38	556.7
660.8	566.6
661.219	577.3
661.617	573.9
662.037	562.5
662.457	576.4
662.855	556.3
663.275	601.9
663.695	567.3
664.094	565.4
664.514	566.8
664.934	566.1
665.333	572.1
665.753	561.9
666.152	555
666.572	565
666.993	574.5
667.392	563.3
667.812	563.7
668.212	559.7
668.632	578.3
669.053	562.1
669.453	573.6
669.874	570.1
670.273	566.9
670.694	560.8
671.116	579.5
671.515	577.5
671.937	562.6
672.337	559.6
672.758	563.6
673.158	574.2
673.58	559.9
673.98	570.1
674.402	570.5
674.824	566.7
675.224	556.1
675.646	554.5
676.047	556.9
676.469	564.1
676.869	565
677.292	571.6
677.693	562.2
678.115	559.1
678.516	572.7
678.939	563.8
679.34	562.9
679.762	576.4
680.164	561.8
680.586	559.8
680.988	567.1
681.411	582.2
681.812	565.8
682.236	556.3
682.637	555.4
683.061	553.6
683.462	560.9
683.864	554.2
684.288	569.4
684.69	556.1
685.114	573.1
685.516	571.5
685.94	553.7
686.342	566.8
686.766	557.1
687.168	558.7
687.571	579.9
687.995	557.6
688.398	548.8
688.822	561.7
689.225	576.3
689.628	579.8
690.052	560.9
690.456	573.9
690.88	562.9
691.284	550.7
691.687	566.4
692.112	552.8
692.515	553.1
692.919	563.7
693.344	563.8
693.747	559.4
694.173	552.4
694.577	569.6
694.98	558.2
695.406	555.4
695.81	557.9
696.214	557.4
696.64	560.8
697.044	562
697.448	565.8
697.874	557.3
698.279	559.2
698.684	552.4
699.11	548.3
699.514	553.2
699.919	557.3
700.324	548
700.75	551.7
701.156	561.2
701.561	568
701.987	564.3
702.393	569.5
702.798	569.6
703.203	563.4
703.63	555
704.036	559.8
704.442	555.5
704.847	551
705.274	556
705.68	563.6
706.086	567.2
706.492	552.2
706.92	555.9
707.326	566.6
707.732	556.6
708.139	551.4
708.545	551.4
708.973	553.4
709.38	555.9
709.786	550
710.193	571.2
710.6	563.5
711.028	550.7
711.435	559.9
711.842	559.4
712.249	556.1
712.656	556.3
713.064	565.6
713.492	553.4
713.9	555.7
714.307	562.9
714.715	557.7
715.123	560.7
715.53	559.2
715.938	558.6
716.367	561.8
716.775	558.5
717.184	552.6
717.592	557.4
718	567.5
718.408	587.9
718.816	600.8
719.225	558.6
719.633	560.3
720.042	547.8
720.472	551.7
720.881	572.9
721.29	563.6
721.699	547.9
722.108	565.2
722.517	559.7
722.926	558.6
723.335	565.6
723.744	555
724.154	560.1
724.563	560.6
724.973	564.1
725.382	559.1
725.792	559.7
726.202	551.5
726.612	572.4
727.022	560.4
727.432	552.5
779.813	556.5
780.223	603.2
780.634	550.6
781.044	554.2
781.454	556.6
781.865	570.8
782.276	544.5
782.686	569.4
783.097	558.4
783.508	558.5
783.919	557.7
784.33	570.9
784.741	567.3
785.152	556
785.563	544
785.974	555.7
786.386	572.9
786.776	552.2
787.188	558.4
787.599	548.2
788.011	563.6
788.423	557.8
788.835	550.7
789.247	552.9
789.659	553.1
790.071	553.9
790.483	597.3
790.874	556.4
791.286	561.7
791.699	554.9
792.111	555.1
792.524	559.9
792.937	558
793.349	551.8
793.741	552.2
794.154	559
794.567	573.2
794.98	559.1
795.393	546.1
795.785	571.3
796.198	552.1
796.612	554.9
797.026	560.2
797.439	549
797.831	549.4
798.245	545.2
798.659	556.1
799.073	552.6
799.487	552.6
799.88	556.9
800.294	560.3
800.708	558.9
801.123	557.5
801.516	575.2
801.93	540.6
802.345	547.9
802.76	563.2
803.153	564.2
803.568	573.7
803.983	568.1
804.377	564.2
804.792	551
805.207	538.3
805.601	555.9
806.016	586.3
806.432	548.6
806.826	588.3
807.242	565.8
807.658	555.7
808.052	552.9
808.468	551.9
808.884	554.1
809.279	553.4
809.695	569.8
810.111	578.5
810.506	561.6
810.922	576.1
811.339	550.6
811.734	564.8
812.151	553.8
812.546	546.5
812.963	553.7
813.38	560.3
813.776	560.7
814.193	568.5
814.589	547.2
815.006	550.5
815.402	550.1
815.82	551.7
816.237	559.9
816.633	558.2
817.051	547.1
817.448	562
817.866	550.9
818.262	572.2
818.68	552.9
819.077	552.8
819.495	557
819.892	595.6
820.311	547.8
820.708	548.7
821.127	556.5
821.524	566.1
821.943	553.9
822.34	568.7
822.759	557.2
823.157	554.6
823.576	571.1
823.974	560.3
824.393	559.8
824.791	549
825.189	545.2
825.609	553.4
826.007	550.8
826.427	551.7
826.826	550.8
827.246	553.5
827.644	543.6
828.043	560.2
828.463	553.1
828.862	563
829.261	564.8
829.682	545.6
830.081	555
830.502	549.1
830.901	556.2
831.301	547.2
831.722	544.9
832.121	554.1
832.521	551.2
832.943	552.9
833.342	550.6
833.742	543.7
834.164	549.7
834.564	544.3
834.965	557
835.386	545.7
835.787	550.9
836.188	549.8
836.588	557
837.01	556.2
837.411	547.4
837.812	554.2
838.213	551.9
838.636	549.7
839.037	620.7
839.438	554.5
839.84	555.4
840.263	560.3
840.664	555.4
841.066	550.5
841.468	552.2
841.891	543.6
842.293	559.1
842.695	555.5
