#lambda/nm	C1
208.295	481.1
208.67	446.3
209.045	407.1
209.419	414.9
209.794	588
210.169	572.1
210.544	684.7
210.919	585.5
211.295	579.8
211.67	588.5
212.045	584.1
212.421	586.3
212.796	618
213.172	582.7
213.547	580.9
213.923	579.9
214.299	575.2
214.675	596.7
215.051	588.3
215.427	590.6
215.803	601.2
216.179	592
216.555	580
216.932	591.1
217.308	584.9
217.684	583.1
218.061	591.9
218.438	593.3
218.814	583.3
219.191	594.8
219.568	582.2
219.945	590.4
220.322	592.9
220.699	588.6
221.076	595.6
221.453	588.2
221.83	579.6
222.208	583.1
222.585	583.7
222.962	589.2
223.34	590.7
223.717	587.5
224.095	586.2
224.473	588.7
224.851	578.2
225.229	579
225.607	601.2
225.985	578.4
226.363	588.2
226.741	583.4
227.119	587.9
227.497	596.7
227.876	577.6
228.254	592
228.633	592
229.011	583.4
229.39	595.5
229.769	593.1
230.148	595.8
230.527	602.2
230.905	587.8
231.284	589.8
231.664	580.4
232.043	604.5
232.422	588.9
232.801	582.5
233.181	586.3
233.56	579.7
233.94	583.4
234.319	567.5
234.699	584.1
235.079	619
235.458	617.9
235.838	602.5
236.218	581.2
236.598	576.3
236.978	576.5
237.358	575.3
237.738	582.7
238.119	590.3
238.499	576
238.88	586.4
239.26	598.8
239.641	575.4
240.021	579
240.402	586.7
240.783	581
241.163	579.1
241.544	586.4
241.925	586.8
242.306	598.5
242.687	580.7
243.069	582.7
243.45	594.5
243.831	583.2
244.212	585.9
244.594	618
244.975	593.1
245.357	582.9
245.739	583.6
246.12	581.2
246.502	594.8
246.884	582.4
247.266	573.8
247.648	583.1
248.03	601.2
248.412	588.6
248.794	590.6
249.176	578.2
249.559	594.7
249.941	578.2
250.323	576.6
250.706	576.7
251.089	586.3
251.471	590.4
251.854	583.6
252.237	587.3
252.62	589.8
253.002	586
253.385	584.9
253.769	593.2
254.152	587.2
254.535	597.2
254.918	579.2
255.301	582.6
255.685	585.2
256.068	579.2
256.452	606.3
256.835	590.8
257.219	593
257.603	599.3
257.986	575.6
258.37	593.2
258.754	578.5
259.138	592.1
259.522	592.2
259.906	579.9
260.29	590
260.675	585.9
261.059	587.4
261.443	574.3
261.828	587.4
262.212	595
262.597	575.7
262.981	588.7
263.366	593.1
263.751	592.6
264.136	576.2
264.521	584.5
264.906	575.6
265.291	599
265.676	585.9
266.061	587.6
266.446	606.9
266.831	585.6
267.217	611.8
267.602	592.6
267.987	582.1
268.373	584.9
268.759	592.4
269.144	592.6
269.53	586.6
269.916	581
270.302	584.3
270.688	592.3
271.074	591.4
271.46	598.1
271.846	615.7
272.232	587.3
272.618	577.8
273.004	590.2
273.391	596.5
273.777	601.9
274.164	591.4
274.55	599.7
274.937	594.5
275.324	585.7
275.71	598.5
276.097	595.5
276.484	580
276.871	595.8
277.258	591.9
277.645	575.8
278.032	577.9
278.419	586.1
278.807	589.3
279.194	585.7
279.581	579.2
279.969	594
280.356	585.2
280.744	585.3
281.131	608.6
281.519	600.3
281.907	588.8
282.295	584.6
282.682	601.2
283.07	588.4
283.458	600.3
283.846	598.3
284.235	599.6
284.623	595.1
285.011	579.3
285.399	586.1
285.788	584.7
286.176	580.7
286.565	598.9
286.953	582.2
287.342	587.2
287.731	584.1
288.119	578.6
288.508	589.2
288.897	584.6
289.286	572.7
289.675	588.7
290.064	596.9
290.453	585.3
290.821	585.5
291.21	599.7
291.599	580.5
291.989	590
292.378	588.2
292.768	603.6
293.157	588.8
293.547	586.8
293.936	586.9
294.326	575.1
294.716	590
295.106	585.8
295.496	591.8
295.886	593.6
296.276	584.7
296.666	581.7
297.056	582.8
297.446	581
297.836	607.4
298.227	585.9
298.617	591.8
299.008	596.6
299.398	581.2
299.789	586.8
300.179	590.9
300.57	599.8
300.961	583
301.352	579.4
301.742	599
302.133	589.7
302.524	590.7
302.915	587.8
303.307	580.4
303.698	594.6
304.089	596.1
304.48	587.7
304.872	589.3
305.263	593.2
305.655	578.8
306.046	589
306.438	593.1
306.829	583.8
307.221	601.3
307.613	592.7
308.005	596.9
308.397	601.1
308.789	609.4
309.181	608.8
309.573	602.1
309.965	599.4
310.357	588.3
310.749	587.6
311.142	584
311.534	578.9
311.926	593.7
312.319	587
312.711	579.9
313.104	602.3
313.497	591.5
313.889	621.6
314.282	598.7
314.675	611.4
315.068	588.6
315.461	592.4
315.854	620.7
316.247	593.4
316.64	587.2
317.033	594
317.405	593.4
317.798	587.4
318.192	590.6
318.585	580.6
318.979	592.2
319.372	584.4
319.766	587.2
320.16	599.9
320.553	607.7
320.947	614
321.341	583.5
321.735	589
322.129	582.5
322.523	608.7
322.917	578.3
323.311	600
323.705	596.4
324.099	590.7
324.494	603.6
324.888	598
325.282	591.1
325.677	594.6
326.071	595.3
326.466	604.7
326.861	592.3
327.255	599.2
327.65	602.1
328.045	607.7
328.44	589.1
328.835	592.4
329.23	581.2
329.625	609.3
330.02	586.2
330.415	610.2
330.81	588.5
331.206	587.7
331.601	584.7
331.996	595.5
332.37	598.8
332.766	583.4
333.161	610.1
333.557	585.2
333.953	582.5
334.348	1016.2
334.744	587.1
335.14	581.4
335.536	584.7
335.932	600.8
336.328	582.8
336.724	597
337.12	588.1
337.516	591.8
337.913	589.4
338.309	597.2
338.705	588.4
339.102	596.2
339.498	586.3
339.895	599.9
340.291	578.2
340.688	593.5
341.085	582
341.481	585.1
341.878	587.9
342.275	607.9
342.672	581
343.069	580.9
343.466	576
343.842	592.2
344.239	578.7
344.636	578
345.033	581.6
345.431	577.1
345.828	586.5
346.225	576.7
346.623	595.1
347.02	584
347.418	591.2
347.816	599.6
348.213	575.4
348.611	592
349.009	573.8
349.407	600.4
349.805	575.5
350.203	573.6
350.601	602.6
350.999	582.3
351.397	577
351.795	583.3
352.193	590.2
352.57	590.2
352.969	596.1
353.367	581
353.766	576.9
354.164	583.4
354.563	595
354.961	584.1
355.36	584
355.759	582.7
356.158	580.8
356.557	578.9
356.956	579.1
357.355	573.4
357.754	589.8
358.153	585.5
358.552	607.4
358.951	580.4
359.35	589.3
359.75	579.7
360.149	577.8
360.527	568
360.926	576.5
361.326	583.4
361.726	580
362.125	580.4
362.525	591.4
362.925	581.7
363.325	586.6
363.724	583.2
364.124	573.3
364.524	577.9
364.924	579
365.324	596.1
365.725	568
366.125	582.8
366.525	578.2
366.904	578.4
367.304	566.3
367.705	603.1
368.105	593.2
368.506	580.7
368.906	582.4
369.307	580.4
369.708	585.8
370.108	570.1
370.509	593.2
370.91	578.3
371.311	585.8
371.712	585.5
372.113	584.3
372.514	565.8
372.894	581.5
373.295	576.7
373.696	594.5
374.097	593.2
374.499	613.7
374.9	586
375.301	577.6
375.703	585.4
376.105	577.6
376.506	585.2
376.908	585.9
377.309	581.2
377.711	581.9
378.113	578.5
378.493	582.3
378.895	572.9
379.297	585.2
379.699	574.4
380.102	584.1
380.504	580.6
380.906	572.9
381.308	603.1
381.71	581.3
382.113	590
382.515	576.6
382.918	587.9
383.299	581.5
383.701	586.2
384.104	582.7
384.507	564.3
384.909	577.1
385.312	570.1
385.715	573.5
386.118	575
386.521	572
386.924	591.7
387.327	569.2
387.709	565.6
388.112	565
388.515	580.8
388.918	579.6
389.322	582.3
389.725	572.3
390.129	605.8
390.532	582.4
390.936	579.9
391.339	571.3
391.743	587.8
392.125	573.3
392.529	591.8
392.933	592.2
393.337	581.1
393.74	580.9
394.144	580.9
394.548	579.1
394.953	578.5
395.357	590.6
395.761	576.9
396.144	583.2
396.548	580
396.952	577.7
397.357	580.3
397.761	579.3
398.166	579.2
398.57	578.8
398.975	570.4
399.379	579.9
399.763	625.5
400.168	583.4
400.572	582.7
400.977	576.4
401.382	594.3
401.787	588.8
402.192	595.6
402.597	591.7
403.002	564
403.386	590.9
403.791	594.5
404.197	573.2
404.602	576.2
405.007	583.5
405.413	579.4
405.818	573.1
406.224	572.4
406.608	575.6
407.014	573.6
407.42	597.3
407.825	578.9
408.231	589.9
408.637	585
409.043	589.9
409.449	576.8
409.834	578.2
410.24	580.3
410.646	590
411.052	584.8
411.458	581.5
411.865	589.6
412.271	592.2
412.677	582.7
413.062	586.2
413.469	572.5
413.875	609.1
414.282	595.7
414.689	580.4
415.095	587.4
415.502	574.1
415.888	581.8
416.294	566
416.701	619.1
417.108	579
417.515	588.9
417.923	573.5
418.33	596.7
418.715	594.9
419.123	582.2
419.53	574.1
419.937	581.1
420.345	599.5
420.752	578.6
421.16	597.6
421.546	583.6
421.953	588.5
422.361	573.5
422.769	581.4
423.177	572.6
423.585	607.4
423.992	601.3
424.379	589.5
424.787	593.3
425.195	599.8
425.603	585.8
426.011	593.5
426.419	591.9
426.806	580.9
427.214	586.1
427.623	595.8
428.031	596
428.44	575.5
428.848	593.4
429.235	600.5
429.644	584.4
430.053	584.1
430.461	598
430.87	606.8
431.279	594.2
431.666	575.6
432.075	584.3
432.484	591.2
432.893	583.3
433.302	603.4
433.711	622.7
434.099	590.8
434.508	586.5
434.918	584
435.327	597.7
435.737	597.8
436.125	593.3
436.534	597.9
436.944	603.2
437.353	600.9
437.763	619.1
438.173	586.6
438.561	608.6
438.971	589.3
439.381	599.9
439.791	607.9
440.201	583.9
440.589	609.5
440.999	612.9
441.409	610.7
441.819	603.9
442.23	616.9
442.619	620.8
443.029	615.3
443.439	618.4
443.85	628.3
444.26	634.5
444.649	629.6
445.06	623.5
445.471	608.1
445.881	619.7
446.292	636.9
446.682	641
447.092	605.8
447.503	670.9
447.914	627.2
448.325	622.6
448.715	625.5
449.126	623.8
449.537	624.5
449.948	629.9
450.338	631
450.75	634.4
451.161	634.8
451.572	633.1
451.984	623.7
452.374	619.5
452.786	626.4
453.197	630.9
453.609	635.4
453.999	620.4
454.411	622.8
454.823	638.2
455.235	634
455.647	627.2
456.037	634.6
456.449	616.7
456.862	629.8
457.274	631
457.665	626.5
458.077	639
458.489	639.3
458.902	631.4
459.293	637
459.705	628.3
460.118	632.2
460.53	632
460.921	636.3
461.334	636.4
461.747	636
462.16	643.5
462.551	647.8
462.964	641.1
463.377	621.6
463.79	631
464.182	636.8
464.595	624.6
465.008	644.9
465.421	637.7
465.813	629.3
466.226	635
466.64	629
467.053	675
467.445	645.7
467.859	628.9
468.272	632.3
468.686	639.5
469.078	623.6
469.492	620.4
469.906	633.2
470.298	636.9
470.712	623.4
471.126	659.1
471.54	617.7
471.933	630.9
472.347	626.5
472.761	623.1
473.175	614.2
473.568	626.1
473.982	615.2
474.397	629.1
474.79	624.5
475.204	627.7
475.619	622.2
476.033	626
476.426	626.2
476.841	619.2
477.256	646.9
477.649	622.3
478.064	614.8
478.479	619.5
478.872	612.6
479.287	604.8
479.702	612.8
480.118	623.2
480.511	620.5
480.927	610.5
481.342	614.3
481.736	618.7
482.151	616.7
482.566	635.2
482.96	617.7
483.376	627.7
483.792	612.5
484.186	620.8
484.602	615.4
485.017	614.1
485.412	617.3
485.827	619.8
486.243	619.3
486.638	639.5
487.054	623.9
487.47	633.2
487.865	614.2
488.281	613.4
488.697	611.5
489.092	616.1
489.508	606.1
489.925	626.5
490.32	609.2
490.736	619.4
491.153	617.7
491.548	617.4
491.964	626.6
492.381	593.4
492.776	622.7
493.193	611.1
493.61	622.6
494.006	615.9
494.422	617.3
494.84	602.7
495.235	617.2
495.652	619.6
496.069	610.6
496.465	596.8
496.883	609.7
497.3	631.1
497.696	609
498.113	614.3
498.509	598.4
498.927	600.2
499.344	606.4
499.741	597.6
500.158	620
500.576	617.8
500.973	607.8
501.39	600.4
501.787	593.5
502.205	610
502.623	600.8
503.02	594.9
503.438	595.3
503.856	603.9
504.253	608.2
504.671	603.5
505.068	600.7
505.486	601.9
505.905	621.2
506.302	607.1
506.72	615.9
507.118	594.1
507.536	603
507.955	592.5
508.352	603.2
508.771	606.9
509.169	602.2
509.587	592.1
510.006	605.6
510.404	590.1
510.823	601.2
511.221	597
511.64	593.9
512.038	608.6
512.457	603.3
512.877	596.8
513.275	598.1
513.694	597.1
514.092	591.9
514.512	600.4
514.91	593.2
515.33	597.4
515.749	603.6
516.148	592.6
516.568	594.3
516.966	592.5
517.386	594.4
517.785	592.9
518.205	589.4
518.603	587.9
519.024	585.9
519.444	594.3
519.843	597.8
520.263	595.6
520.662	598.8
521.082	586.2
521.481	596.5
521.902	592.9
522.301	595.3
522.722	591.4
523.121	590.1
523.542	586.4
523.963	588.8
524.362	587.3
524.783	589.7
525.183	586.1
525.604	587.9
526.003	584.3
526.425	576.4
526.824	588.8
527.246	595.8
527.646	597.1
528.067	583.4
528.467	582.3
528.888	585.1
529.289	583.9
529.71	584.8
530.11	580.7
530.532	588.6
530.932	576.5
531.354	578.4
531.755	615
532.176	591.4
532.577	584.7
532.999	585
533.4	575.4
533.822	587.1
534.223	578
534.645	583.3
535.046	579.7
535.468	580.2
535.869	595.9
536.292	577.1
536.693	582.6
537.115	575.5
537.516	574.5
537.939	579.6
538.34	594.6
538.742	590
539.165	582.3
539.566	582
539.989	579.9
540.391	575.6
540.814	581.3
541.216	581.5
541.639	582.2
542.041	588.4
542.464	571.8
542.866	570.7
543.268	567.6
543.691	581.5
544.093	590.6
544.517	599
544.919	569.2
545.343	606.8
545.745	571.9
546.147	581.3
546.571	575.2
546.974	566.1
547.398	579
547.8	593.6
548.224	573.4
548.627	566.5
549.03	578.8
549.454	570
549.857	564.9
550.281	577
550.684	569.7
551.087	588.8
551.512	582.4
551.915	580.1
552.34	579.8
552.743	572.1
553.146	579.6
553.571	573.2
553.975	594.2
554.399	570.3
554.803	624.2
555.207	577.3
555.632	571.2
556.036	578.8
556.461	564.7
556.865	575.5
557.268	563
557.694	568.4
558.098	576.6
558.502	582.6
558.927	569.4
559.332	574.4
559.736	576.6
560.162	584.2
560.566	573.1
560.992	581.9
561.396	577.5
561.801	573.4
562.227	573.8
562.631	573.4
563.036	574
563.462	582.2
563.867	574
564.272	563.4
564.698	577.5
565.103	567.3
565.508	591.4
565.935	573.7
566.34	574.8
566.745	586.5
567.172	567.3
567.577	590.2
567.982	580.8
568.409	573.8
568.815	566.1
569.22	573.9
569.626	583.3
570.053	560.3
570.459	574.4
570.865	576
571.292	579.1
571.698	577.9
572.104	558
572.531	566.8
572.937	576.3
573.343	570.7
573.75	567.8
574.177	572.9
574.583	578.7
574.99	568.4
575.396	572.5
575.824	573.7
576.231	568.3
576.637	568.1
577.065	591.6
577.472	561.1
577.879	564.8
578.286	585.8
578.714	561.7
579.121	570.2
579.528	575.1
579.935	580.1
580.364	568
580.771	556.8
581.178	561.2
581.585	573.3
582.014	575.1
582.421	567.8
582.829	565.2
583.236	579.9
583.644	561.5
584.073	572.4
584.481	567.5
584.889	567
585.296	571.7
585.726	571.4
586.134	561.8
586.542	561.6
586.95	580.5
587.358	560.1
587.787	566.7
588.196	557.3
588.604	569.1
589.012	569
589.421	557.3
589.851	564.9
590.259	571.4
590.668	566.2
591.076	599.3
591.485	557.5
591.894	565.8
592.324	572.3
592.733	576.6
593.142	555.3
593.551	566.6
593.96	573.9
594.369	562.2
594.8	557.9
595.209	558.5
595.618	547
596.028	558.7
596.437	563.1
596.847	564.5
597.256	567.2
597.687	571
598.097	565.6
598.507	553
598.917	565.1
599.327	571.5
599.736	567.8
600.146	579.1
600.556	570.7
600.988	575.1
601.398	561
601.808	580.4
602.219	552.7
602.629	569.6
603.039	571.1
603.45	593.7
603.86	570.8
604.271	578.8
604.703	568.7
605.114	565.1
605.525	572.1
605.935	574.3
606.346	588.9
606.757	571.6
607.168	565.9
607.579	562.1
607.99	574.5
608.402	567.9
608.813	566.4
609.224	566.9
609.636	558.3
610.047	556.5
610.48	568.8
610.892	572.6
611.303	575.6
611.715	566.1
612.127	559.2
612.539	564.2
612.95	565.4
613.362	557.3
613.774	558.6
614.186	557.8
614.599	558.6
615.011	570.3
615.423	549.4
615.835	556.8
616.248	555
616.66	569.5
617.073	555
617.485	562.9
617.898	570.4
618.311	562.1
618.723	564.5
619.136	591.4
619.549	574.1
619.962	580.9
620.375	561.4
620.788	562.4
621.201	558.3
621.614	572.4
622.028	559.9
622.441	567.4
622.854	576.8
623.268	558.1
623.681	563.2
624.095	562.4
624.509	572.7
624.922	570.2
625.336	553.7
625.728	569.1
626.142	571.7
626.556	575.6
626.97	563.9
627.384	557.6
627.799	559.2
628.213	577.7
628.627	560.8
629.041	555.7
629.456	561.1
629.87	559.4
630.285	569.8
630.699	565.7
631.093	561.1
631.507	564.7
631.922	565.2
632.337	572.4
632.752	553.5
633.167	563.5
633.582	555.4
633.997	552.5
634.412	549.6
634.806	566.6
635.221	549
635.637	569.8
636.052	550.3
636.468	564.7
636.883	579.5
637.299	562.4
637.715	550.8
638.109	552.3
638.525	545.6
638.941	571.3
639.357	562.4
639.773	575
640.189	550.7
640.584	564.5
641	559.7
641.416	552.3
641.832	566.9
642.249	562
642.665	560.4
643.06	566.6
643.477	566.2
643.894	547.5
644.31	562.4
644.727	558
645.123	562.5
645.54	552.8
645.957	563.3
646.374	570.8
646.77	564
647.187	589.4
647.604	563.8
648.021	552.7
648.439	557.1
648.835	567.9
649.252	556.5
649.67	559.8
650.088	564.6
650.484	566.1
650.902	568.5
651.32	568.3
651.738	561.1
652.134	564.4
652.552	574.8
652.971	571.7
653.389	561.3
653.786	577.4
654.204	562.3
654.622	556.7
655.019	564.8
655.438	568.9
655.857	561.3
656.275	567.2
656.673	558
657.091	624
657.51	555.6
657.908	569.2
658.327	579.9
658.746	555.4
659.144	559.9
659.563	572.4
659.982	562.7
660.38	554.1
660.8	561.4
661.219	573.2
661.617	568.9
662.037	561
662.457	574.3
662.855	542.8
663.275	595.5
663.695	558.9
664.094	558.3
664.514	567.3
664.934	554
665.333	569.2
665.753	558.1
666.152	550.8
666.572	558.4
666.993	574.8
667.392	558
667.812	555.5
668.212	561
668.632	572.6
669.053	553.9
669.453	558.6
669.874	565.3
670.273	566.2
670.694	559.8
671.116	570
671.515	566.6
671.937	557.1
672.337	556.2
672.758	556.4
673.158	569
673.58	552.1
673.98	560.1
674.402	573.5
674.824	563.1
675.224	557.1
675.646	553.2
676.047	555
676.469	562
676.869	569.3
677.292	559.1
677.693	552.3
678.115	559.2
678.516	564.8
678.939	560.4
679.34	554.2
679.762	573.2
680.164	566.8
680.586	550.9
680.988	566.5
681.411	588
681.812	558.4
682.236	548.8
682.637	557.1
683.061	553.4
683.462	561.6
683.864	553.5
684.288	567
684.69	547.8
685.114	564.5
685.516	569.7
685.94	553.1
686.342	570.4
686.766	555.8
687.168	554.3
687.571	572.5
687.995	558.1
688.398	551.9
688.822	559.2
689.225	575.5
689.628	583.6
690.052	561.3
690.456	565.8
690.88	560.2
691.284	551.3
691.687	566.1
692.112	548.7
692.515	549.8
692.919	565.1
693.344	562.8
693.747	555
694.173	555.4
694.577	569.1
694.98	559.1
695.406	556.5
695.81	567.5
696.214	563.7
696.64	563.8
697.044	565.4
697.448	567.1
697.874	559.4
698.279	564.7
698.684	549.9
699.11	555.6
699.514	559.7
699.919	556.5
700.324	552.3
700.75	562.9
701.156	562.2
701.561	565.5
701.987	565.9
702.393	569.7
702.798	565.5
703.203	560.3
703.63	553
704.036	558.9
704.442	562.4
704.847	553
705.274	557.6
705.68	564.4
706.086	574.3
706.492	549
706.92	558.7
707.326	566.1
707.732	560.7
708.139	554.5
708.545	550
708.973	553.3
709.38	554.2
709.786	547.5
710.193	575.1
710.6	560.1
711.028	549.6
711.435	557.3
711.842	552.8
712.249	549.6
712.656	556.6
713.064	559.1
713.492	554.7
713.9	549.2
714.307	557.6
714.715	552.9
715.123	559.6
715.53	560.3
715.938	569.9
716.367	556.5
716.775	549.1
717.184	550.7
717.592	552.9
718	568.6
718.408	588.4
718.816	598.1
719.225	561.3
719.633	562.5
720.042	548.5
720.472	556.4
720.881	577.3
721.29	563.7
721.699	548.9
722.108	557.7
722.517	559.1
722.926	549
723.335	562.9
723.744	552.9
724.154	553.9
724.563	556.9
724.973	551.2
725.382	552.3
725.792	553.4
726.202	549.8
726.612	566.2
727.022	554.6
727.432	547.6
779.813	551.2
780.223	598
780.634	550.5
781.044	541.9
781.454	551.1
781.865	571.9
782.276	544.2
782.686	558.1
783.097	557.6
783.508	550.3
783.919	555.7
784.33	562.1
784.741	567.2
785.152	554.9
785.563	546.9
785.974	548.3
786.386	566.7
786.776	553.5
787.188	555
787.599	547.5
788.011	566.1
788.423	557.9
788.835	555.2
789.247	540.7
789.659	551.2
790.071	552.7
790.483	596.1
790.874	555.4
791.286	563.6
791.699	549.7
792.111	558.6
792.524	561.2
792.937	553.5
793.349	547.9
793.741	551.5
794.154	547.7
794.567	578.3
794.98	553
795.393	541.6
795.785	572
796.198	552.3
796.612	558.2
797.026	555.7
797.439	540.4
797.831	557.3
798.245	550.6
798.659	556.4
799.073	555.8
799.487	547.7
799.88	557.1
800.294	553.3
800.708	559.3
801.123	559.9
801.516	574.2
801.93	546.4
802.345	550.8
802.76	556.2
803.153	570.4
803.568	572.7
803.983	562.4
804.377	565.7
804.792	551.3
805.207	537.1
805.601	553.5
806.016	590.9
806.432	552.8
806.826	584.5
807.242	570
807.658	559.6
808.052	552.6
808.468	557.6
808.884	548.1
809.279	555.6
809.695	560.1
810.111	570.3
810.506	563.1
810.922	577.2
811.339	548.6
811.734	565.3
812.151	547.7
812.546	555.5
812.963	552.1
813.38	559.9
813.776	557.6
814.193	572.2
814.589	547.7
815.006	547.1
815.402	549.4
815.82	552.6
816.237	559
816.633	563.1
817.051	546.1
817.448	561.5
817.866	545.4
818.262	573.7
818.68	557.4
819.077	551.2
819.495	556.3
819.892	594.4
820.311	548.6
820.708	546.1
821.127	548.1
821.524	559.8
821.943	557.1
822.34	575
822.759	550.9
823.157	558
823.576	566.2
823.974	563.7
824.393	568.1
824.791	557.4
825.189	551.4
825.609	551.7
826.007	553.1
826.427	546.8
826.826	557.6
827.246	565
827.644	542
828.043	562.6
828.463	549.5
828.862	560
829.261	558.9
829.682	547.1
830.081	567.4
830.502	547.6
830.901	561.2
831.301	550.9
831.722	545.1
832.121	552.5
832.521	543
832.943	551
833.342	554.1
833.742	546.9
834.164	554.5
834.564	542
834.965	551.9
835.386	554.8
835.787	548.6
836.188	553
836.588	559
837.01	554.4
837.411	546.1
837.812	558.6
838.213	555.1
838.636	551.1
839.037	613.3
839.438	556.8
839.84	557.5
840.263	558.3
840.664	558.6
841.066	553
841.468	557.7
841.891	549.8
842.293	564.9
842.695	557.9
843.098	564.6
843.5	547.7
843.902	563.8
844.326	559.2
844.729	556.5
845.131	555.5
845.534	551.9
845.937	566.4
846.34	567.5
846.764	550.1
847.167	554.6
847.571	546
847.974	556.4
