#lambda/nm	C1
208.295	484.1
208.67	444.7
209.045	411.3
209.419	413.8
209.794	596.7
210.169	583.2
210.544	697.6
210.919	596.6
211.295	582.8
211.67	592.8
212.045	584.4
212.421	592.8
212.796	627
213.172	586.4
213.547	594.1
213.923	591.3
214.299	582.8
214.675	600.8
215.051	591.7
215.427	601.2
215.803	612.6
216.179	599.9
216.555	587
216.932	598.7
217.308	588.9
217.684	599.9
218.061	603.7
218.438	593.7
218.814	582.6
219.191	601
219.568	582.5
219.945	591.5
220.322	594.4
220.699	591.5
221.076	601.1
221.453	596.3
221.83	585.9
222.208	586.3
222.585	582.2
222.962	590.1
223.34	593.1
223.717	593
224.095	588.5
224.473	592.7
224.851	583.8
225.229	581
225.607	612.4
225.985	581.8
226.363	591
226.741	595.5
227.119	588.4
227.497	603.7
227.876	581.6
228.254	604.2
228.633	594.8
229.011	595.1
229.39	593.3
229.769	588.9
230.148	599.3
230.527	609.8
230.905	594.1
231.284	590.3
231.664	588.5
232.043	604.2
232.422	597.5
232.801	585.2
233.181	587.7
233.56	589.3
233.94	594.1
234.319	578.6
234.699	590.8
235.079	624.3
235.458	628.2
235.838	606.1
236.218	589.9
236.598	577
236.978	583.7
237.358	591.6
237.738	588.5
238.119	594.2
238.499	581.6
238.88	585.6
239.26	614.1
239.641	584.4
240.021	587.2
240.402	585.6
240.783	586.7
241.163	593.5
241.544	594.5
241.925	588.2
242.306	606.5
242.687	582.9
243.069	596.1
243.45	600.4
243.831	586
244.212	589.4
244.594	626.5
244.975	600.2
245.357	593.4
245.739	585
246.12	591.8
246.502	603.2
246.884	591.1
247.266	586.6
247.648	592.7
248.03	612.2
248.412	595.4
248.794	594.3
249.176	592.4
249.559	597.9
249.941	583.5
250.323	587.1
250.706	584.3
251.089	590.7
251.471	597.9
251.854	588.7
252.237	591.3
252.62	599.9
253.002	589.6
253.385	595.6
253.769	606.7
254.152	593.7
254.535	598.4
254.918	590
255.301	587.4
255.685	593.1
256.068	590.1
256.452	614
256.835	604.6
257.219	601.8
257.603	607.3
257.986	589.8
258.37	597.5
258.754	583.4
259.138	600.8
259.522	600.7
259.906	591.4
260.29	596.3
260.675	586.3
261.059	592.8
261.443	587.4
261.828	601.2
262.212	595.1
262.597	590.8
262.981	589.2
263.366	593.4
263.751	595.7
264.136	585.9
264.521	585.8
264.906	584.5
265.291	599.9
265.676	592.7
266.061	596.6
266.446	608.8
266.831	593.1
267.217	615
267.602	595.6
267.987	599.9
268.373	591.9
268.759	604.2
269.144	598.1
269.53	592
269.916	590.9
270.302	591.8
270.688	599.1
271.074	594.6
271.46	604.4
271.846	623.5
272.232	594.4
272.618	590.3
273.004	590.3
273.391	601.2
273.777	599.4
274.164	596.3
274.55	607.8
274.937	596.3
275.324	590.5
275.71	601.9
276.097	602
276.484	590.2
276.871	598
277.258	595.4
277.645	580.4
278.032	589.2
278.419	595
278.807	598.9
279.194	586.8
279.581	588.9
279.969	600.3
280.356	594.7
280.744	597.5
281.131	619.8
281.519	600.3
281.907	590.6
282.295	596.1
282.682	603.1
283.07	602.6
283.458	601
283.846	607
284.235	606.5
284.623	605.6
285.011	581.4
285.399	595.1
285.788	595.9
286.176	583.9
286.565	605.6
286.953	584.4
287.342	589.9
287.731	586.5
288.119	587
288.508	590.3
288.897	592
289.286	578.4
289.675	592.5
290.064	603
290.453	591.6
290.821	589
291.21	610.9
291.599	588.1
291.989	595.8
292.378	599.6
292.768	611.4
293.157	599.4
293.547	601.3
293.936	590.1
294.326	588.8
294.716	599.4
295.106	589.7
295.496	598.3
295.886	599.1
296.276	599.5
296.666	591
297.056	587.3
297.446	582.7
297.836	610.3
298.227	592.7
298.617	593.9
299.008	607.7
299.398	593
299.789	592.3
300.179	600
300.57	600.1
300.961	589.5
301.352	595.5
301.742	603.7
302.133	592
302.524	591.7
302.915	596.6
303.307	578.3
303.698	610.6
304.089	597.2
304.48	592.7
304.872	600.6
305.263	595.8
305.655	593.9
306.046	596.9
306.438	594.3
306.829	593
307.221	606.5
307.613	597.7
308.005	608.6
308.397	606.4
308.789	621.6
309.181	618.7
309.573	616.8
309.965	604.7
310.357	592.7
310.749	597.5
311.142	587.8
311.534	590.6
311.926	603
312.319	602.9
312.711	591.1
313.104	604.1
313.497	594.4
313.889	637.4
314.282	613.6
314.675	620.6
315.068	595.3
315.461	603.9
315.854	625.8
316.247	604.7
316.64	594.8
317.033	595.2
317.405	606.4
317.798	597.6
318.192	600.1
318.585	587.4
318.979	607.6
319.372	592
319.766	592.4
320.16	610.6
320.553	610.7
320.947	617
321.341	594.2
321.735	596.2
322.129	586.3
322.523	619.2
322.917	589
323.311	604.3
323.705	602.8
324.099	601.1
324.494	604.9
324.888	600
325.282	593.3
325.677	603.2
326.071	599.4
326.466	605.5
326.861	597.4
327.255	601.1
327.65	605.8
328.045	603.2
328.44	594.1
328.835	590.9
329.23	587.4
329.625	623.3
330.02	588.2
330.415	610.2
330.81	592.5
331.206	602.5
331.601	588.3
331.996	603.3
332.37	602.2
332.766	581.5
333.161	616.9
333.557	589
333.953	591.7
334.348	968.2
334.744	593.3
335.14	589.1
335.536	587.3
335.932	605.2
336.328	593.4
336.724	605.5
337.12	596.6
337.516	598
337.913	599.7
338.309	608.3
338.705	592.1
339.102	603.7
339.498	588.3
339.895	608.5
340.291	583.1
340.688	597.9
341.085	586
341.481	589.8
341.878	590.6
342.275	608.5
342.672	588.4
343.069	588.2
343.466	576.5
343.842	599.1
344.239	589.1
344.636	588.4
345.033	584.8
345.431	585.5
345.828	591.4
346.225	584
346.623	599.3
347.02	600.5
347.418	600.3
347.816	603.6
348.213	586.1
348.611	604.6
349.009	585.5
349.407	607.1
349.805	580.9
350.203	581.8
350.601	606.4
350.999	589.3
351.397	585.7
351.795	592.9
352.193	604.6
352.57	596.8
352.969	601.2
353.367	588.1
353.766	584.7
354.164	593.3
354.563	599
354.961	595.1
355.36	587.9
355.759	584.4
356.158	585.8
356.557	586.3
356.956	583.9
357.355	576.9
357.754	594.3
358.153	596.2
358.552	614.5
358.951	590.3
359.35	600.6
359.75	586.7
360.149	584.8
360.527	577.1
360.926	576.3
361.326	589.3
361.726	588.4
362.125	579.8
362.525	598.7
362.925	582.2
363.325	582.7
363.724	593.5
364.124	590.7
364.524	586.2
364.924	587.7
365.324	598.7
365.725	582
366.125	589.9
366.525	591.9
366.904	585.5
367.304	574
367.705	603
368.105	603.9
368.506	589.2
368.906	587.4
369.307	590.4
369.708	591
370.108	575.3
370.509	596.5
370.91	585.2
371.311	595
371.712	591.9
372.113	581.8
372.514	581
372.894	587.7
373.295	585.5
373.696	594
374.097	596.6
374.499	613.4
374.9	590.1
375.301	580.7
375.703	592.5
376.105	581.5
376.506	590.2
376.908	597.1
377.309	587
377.711	588.4
378.113	580.5
378.493	588.6
378.895	585.3
379.297	594.9
379.699	574.9
380.102	587.5
380.504	586.8
380.906	577.7
381.308	612.9
381.71	591.4
382.113	592.6
382.515	583
382.918	588.2
383.299	581.8
383.701	594.6
384.104	588.2
384.507	570
384.909	583.6
385.312	574.9
385.715	577.6
386.118	581.4
386.521	578.5
386.924	601.2
387.327	579
387.709	576.8
388.112	574.5
388.515	584.5
388.918	584.1
389.322	585.7
389.725	584.8
390.129	607.2
390.532	589.5
390.936	580.8
391.339	579.4
391.743	590.5
392.125	577.7
392.529	596.6
392.933	596.1
393.337	588
393.74	580.6
394.144	586.6
394.548	585.3
394.953	581.2
395.357	586.3
395.761	585
396.144	587.9
396.548	585
396.952	584.3
397.357	585.6
397.761	581
398.166	581.4
398.57	582.1
398.975	577.7
399.379	591
399.763	628.3
400.168	591.8
400.572	588
400.977	581.7
401.382	605.2
401.787	595.4
402.192	601.6
402.597	601.9
403.002	573.8
403.386	594
403.791	602.7
404.197	590
404.602	581.7
405.007	589
405.413	581.8
405.818	575.9
406.224	583.3
406.608	587.1
407.014	578.3
407.42	599.3
407.825	586.7
408.231	592.6
408.637	587.8
409.043	602.7
409.449	584.8
409.834	578.3
410.24	588.9
410.646	601.3
411.052	596.1
411.458	590.9
411.865	595.5
412.271	595
412.677	586.4
413.062	589.9
413.469	582.2
413.875	606.1
414.282	601.4
414.689	592.5
415.095	594.3
415.502	578.5
415.888	584.9
416.294	570.1
416.701	627.9
417.108	586.6
417.515	597.8
417.923	584.8
418.33	605
418.715	595
419.123	580.6
419.53	581.6
419.937	594.2
420.345	598.5
420.752	588.9
421.16	596.2
421.546	586.3
421.953	595.6
422.361	577.5
422.769	583.1
423.177	578.1
423.585	608.9
423.992	603.5
424.379	598.3
424.787	595.8
425.195	605.3
425.603	590.6
426.011	594.1
426.419	605.4
426.806	586.9
427.214	595.2
427.623	596.3
428.031	610.4
428.44	600.5
428.848	598.3
429.235	608.8
429.644	598.7
430.053	594.2
430.461	613.6
430.87	623.9
431.279	616.3
431.666	599.3
432.075	615.6
432.484	633
432.893	626.8
433.302	661.2
433.711	684.1
434.099	667.3
434.508	665.3
434.918	676.6
435.327	699.9
435.737	716.8
436.125	725.1
436.534	739.1
436.944	761.9
437.353	779.9
437.763	824.7
438.173	811.8
438.561	850.7
438.971	842.1
439.381	866.7
439.791	889.9
440.201	890.1
440.589	932.6
440.999	947.6
441.409	967.3
441.819	972.8
442.23	1006.2
442.619	1019.7
443.029	1029.6
443.439	1052.2
443.85	1072.8
444.26	1089.2
444.649	1097.9
445.06	1104.5
445.471	1109.2
445.881	1132.3
446.292	1163.8
446.682	1183.7
447.092	1173.2
447.503	1236.5
447.914	1197.2
448.325	1207.3
448.715	1219.6
449.126	1223.5
449.537	1236.5
449.948	1239.9
450.338	1240.6
450.75	1242.7
451.161	1257.4
451.572	1278.8
451.984	1271.9
452.374	1260.1
452.786	1270.3
453.197	1285.5
453.609	1290.2
453.999	1278.3
454.411	1293
454.823	1312.7
455.235	1309
455.647	1299.9
456.037	1305.8
456.449	1298.2
456.862	1317.6
457.274	1305.7
457.665	1307.6
458.077	1315.5
458.489	1328.5
458.902	1324.9
459.293	1322.1
459.705	1320.2
460.118	1314
460.53	1320.4
460.921	1327.6
461.334	1328.6
461.747	1322.3
462.16	1336.5
462.551	1333.2
462.964	1335.7
463.377	1314.7
463.79	1323.4
464.182	1326.6
464.595	1323.9
465.008	1330.5
465.421	1327.7
465.813	1317.1
466.226	1324.3
466.64	1311.9
467.053	1362.9
467.445	1328.3
467.859	1328.8
468.272	1315.4
468.686	1330.2
469.078	1310.5
469.492	1303.4
469.906	1306.8
470.298	1312.5
470.712	1293.6
471.126	1334.1
471.54	1280.5
471.933	1278
472.347	1291.2
472.761	1277.4
473.175	1273.8
473.568	1282.2
473.982	1270.3
474.397	1281.3
474.79	1266.9
475.204	1276
475.619	1267.6
476.033	1267.6
476.426	1245.8
476.841	1251.7
477.256	1274.3
477.649	1231.1
478.064	1249.3
478.479	1237.1
478.872	1228
479.287	1228.5
479.702	1233.8
480.118	1236.7
480.511	1222.7
480.927	1216.3
481.342	1212
481.736	1221.1
482.151	1213.5
482.566	1219.6
482.96	1215
483.376	1215.8
483.792	1201
484.186	1215.1
484.602	1188.6
485.017	1191.8
485.412	1194.3
485.827	1197.7
486.243	1180.9
486.638	1200.8
487.054	1193
487.47	1193.8
487.865	1176.6
488.281	1166.6
488.697	1156.7
489.092	1152.6
489.508	1144.4
489.925	1157
490.32	1139.3
490.736	1143.1
491.153	1144.4
491.548	1136.4
491.964	1140.6
492.381	1119.1
492.776	1119.1
493.193	1118.4
493.61	1121.6
494.006	1110.2
494.422	1110.5
494.84	1093.5
495.235	1103.2
495.652	1092.3
496.069	1084.4
496.465	1070.3
496.883	1082.6
497.3	1107.9
497.696	1068.5
498.113	1064.9
498.509	1049.5
498.927	1055.9
499.344	1037.4
499.741	1049
500.158	1065.5
500.576	1057.1
500.973	1041.6
501.39	1019.5
501.787	1028.2
502.205	1027.7
502.623	1013.1
503.02	1011.5
503.438	1022.8
503.856	1016.3
504.253	1004.1
504.671	1001.7
505.068	987.2
505.486	995.4
505.905	1008.4
506.302	985.7
506.72	992.2
507.118	975.5
507.536	979.9
507.955	962.3
508.352	975.6
508.771	965.4
509.169	964.1
509.587	953.1
510.006	952.2
510.404	950.1
510.823	948.8
511.221	942.1
511.64	939.9
512.038	948.8
512.457	936.7
512.877	926.9
513.275	921.6
513.694	921.6
514.092	915.2
514.512	909.7
514.91	907.7
515.33	912.7
515.749	903.9
516.148	900.2
516.568	898.3
516.966	897.4
517.386	881.4
517.785	885.5
518.205	880.5
518.603	881.2
519.024	863.6
519.444	873.4
519.843	882.4
520.263	875.7
520.662	874.7
521.082	870.9
521.481	861.7
521.902	854.9
522.301	860.3
522.722	854.8
523.121	844.1
523.542	835.3
523.963	843
524.362	833.5
524.783	839.5
525.183	831.1
525.604	830.4
526.003	828.5
526.425	818.7
526.824	821.5
527.246	826.2
527.646	821.8
528.067	814.9
528.467	816.8
528.888	810.3
529.289	802.7
529.71	804.1
530.11	796.3
530.532	794.8
530.932	791.3
531.354	779.1
531.755	816.5
532.176	785.3
532.577	777.2
532.999	783.3
533.4	776.3
533.822	782
534.223	775.7
534.645	766.4
535.046	765.4
535.468	768.6
535.869	782.1
536.292	752.9
536.693	758.2
537.115	768.4
537.516	742.9
537.939	749.7
538.34	769.7
538.742	762.9
539.165	760.7
539.566	745.3
539.989	741.9
540.391	754
540.814	752.7
541.216	749.6
541.639	746.1
542.041	750.3
542.464	731.8
542.866	734.7
543.268	726.8
543.691	738.7
544.093	747.3
544.517	757.8
544.919	723.1
545.343	754.3
545.745	724.7
546.147	724.3
546.571	725.6
546.974	715.8
547.398	725.6
547.8	734.7
548.224	721.8
548.627	709.1
549.03	718.3
549.454	703.9
549.857	698
550.281	704
550.684	703.5
551.087	717.4
551.512	707.1
551.915	704.7
552.34	703.6
552.743	695.2
553.146	697.2
553.571	690.6
553.975	715.6
554.399	689.4
554.803	742.9
555.207	692.7
555.632	690.7
556.036	690.8
556.461	686
556.865	689.7
557.268	675.5
557.694	680.4
558.098	683.9
558.502	688.1
558.927	676.1
559.332	680.6
559.736	678.7
560.162	682.7
560.566	676.5
560.992	680.6
561.396	680.5
561.801	668
562.227	677.7
562.631	666.1
563.036	668.1
563.462	671.6
563.867	666.6
564.272	655.6
564.698	668.3
565.103	652.6
565.508	676.4
565.935	657
566.34	661.5
566.745	665.4
567.172	654.2
567.577	674.2
567.982	663.4
568.409	657.9
568.815	647.7
569.22	652.7
569.626	648
570.053	637
570.459	649.6
570.865	651.7
571.292	652.8
571.698	653.9
572.104	630.7
572.531	636.7
572.937	648.8
573.343	633.1
573.75	637.9
574.177	643.4
574.583	642.9
574.99	633.6
575.396	643.5
575.824	632.5
576.231	640.2
576.637	631.6
577.065	661.1
577.472	632.1
577.879	629.8
578.286	646.4
578.714	623.9
579.121	633.1
579.528	630.8
579.935	638.4
580.364	626.1
580.771	610.9
581.178	615.9
581.585	631.2
582.014	630.3
582.421	616.4
582.829	623.1
583.236	630
583.644	618.6
584.073	620.6
584.481	619.9
584.889	623
585.296	631.9
585.726	629.4
586.134	611.2
586.542	616.6
586.95	633.3
587.358	609.9
587.787	617.1
588.196	604.9
588.604	615.7
589.012	615
589.421	609
589.851	606.4
590.259	621.3
590.668	607.7
591.076	649.3
591.485	606.7
591.894	609.1
592.324	623.9
592.733	623.8
593.142	599.6
593.551	607.5
593.96	643.7
594.369	598.5
594.8	600.8
595.209	603.1
595.618	593.4
596.028	604.1
596.437	597.9
596.847	608.4
597.256	606.7
597.687	610.5
598.097	606.9
598.507	598.4
598.917	605.9
599.327	610.2
599.736	604.5
600.146	606
600.556	604
600.988	609.8
601.398	593.8
601.808	603.2
602.219	584.9
602.629	596.6
603.039	597.8
603.45	616.4
603.86	591.5
604.271	611.6
604.703	591.9
605.114	595.3
605.525	594.4
605.935	597.1
606.346	615.8
606.757	591.8
607.168	592.2
607.579	591.7
607.99	606.7
608.402	585.4
608.813	595.3
609.224	582.6
609.636	584.7
610.047	583.9
610.48	585.7
610.892	588.9
611.303	596.4
611.715	588.8
612.127	581.3
612.539	581.5
612.95	588.9
613.362	580
613.774	572.8
614.186	580.9
614.599	583.7
615.011	596.8
615.423	575.9
615.835	581.4
616.248	575.5
616.66	586.9
617.073	585.6
617.485	581.3
617.898	592.7
618.311	590.7
618.723	585.4
619.136	614.4
619.549	599.2
619.962	613.5
620.375	588.6
620.788	595
621.201	581.8
621.614	590
622.028	584
622.441	588
622.854	597.4
623.268	583.8
623.681	589.1
624.095	585.7
624.509	592.7
624.922	586.4
625.336	576.6
625.728	583
626.142	591.5
626.556	601.9
626.97	587.9
627.384	575.9
627.799	577
628.213	594.1
628.627	579.9
629.041	580.9
629.456	580.1
629.87	580
630.285	591.7
630.699	586.7
631.093	579.1
631.507	581
631.922	586.2
632.337	593.4
632.752	579.6
633.167	579.1
633.582	579.4
633.997	580.6
634.412	576.6
634.806	578.3
635.221	570.8
635.637	584.9
636.052	568.9
636.468	583.3
636.883	598.8
637.299	579.5
637.715	566
638.109	579.5
638.525	568.3
638.941	590.1
639.357	582
639.773	586.1
640.189	570.4
640.584	572.8
641	583.1
641.416	561.6
641.832	574.2
642.249	572.5
642.665	577.9
643.06	583.8
643.477	586.5
643.894	565.7
644.31	575.6
644.727	579.5
645.123	573
645.54	571.4
645.957	579.2
646.374	587.4
646.77	575.2
647.187	603
647.604	585.6
648.021	568
648.439	568.2
648.835	578.1
649.252	580.6
649.67	574.4
650.088	576.2
650.484	577.9
650.902	580.9
651.32	582.7
651.738	570.5
652.134	576.7
652.552	593
652.971	582.7
653.389	577
653.786	589.5
654.204	574.6
654.622	570.9
655.019	576.7
655.438	579.4
655.857	575.2
656.275	577.8
656.673	570.3
657.091	642.9
657.51	575.3
657.908	582.5
658.327	588.9
658.746	565.5
659.144	572.1
659.563	583.1
659.982	577.2
660.38	565.4
660.8	567.9
661.219	583
661.617	572.8
662.037	573.8
662.457	584.6
662.855	561.4
663.275	598.1
663.695	574.8
664.094	572.7
664.514	577.6
664.934	569.9
665.333	580.4
665.753	570.1
666.152	568.3
666.572	566.8
666.993	582.9
667.392	569.7
667.812	572.6
668.212	567.2
668.632	579.4
669.053	571.4
669.453	568.9
669.874	575
670.273	574.5
670.694	571.8
671.116	584.7
671.515	575.4
671.937	566.2
672.337	566
672.758	570.5
673.158	582.1
673.58	567.6
673.98	576
674.402	586.9
674.824	569.1
675.224	566.9
675.646	562.8
676.047	563.2
676.469	566.5
676.869	575
677.292	570.5
677.693	562.9
678.115	563.5
678.516	572.7
678.939	569
679.34	569.8
679.762	577.6
680.164	575.2
680.586	562.4
680.988	574.7
681.411	597
681.812	568.1
682.236	563.2
682.637	564.1
683.061	554.4
683.462	572.2
683.864	566.9
684.288	580.6
684.69	566.2
685.114	576.4
685.516	584.4
685.94	558.4
686.342	573.5
686.766	570.6
687.168	562.3
687.571	590
687.995	573.9
688.398	558.6
688.822	563.3
689.225	580.1
689.628	590.8
690.052	567.2
690.456	575.6
690.88	573.1
691.284	562.8
691.687	571.9
692.112	564
692.515	555.3
692.919	570.7
693.344	571.1
693.747	567.6
694.173	562.1
694.577	579.7
694.98	572.8
695.406	561.9
695.81	570
696.214	574.1
696.64	569.3
697.044	573.4
697.448	572.8
697.874	562.1
698.279	563.9
698.684	557.5
699.11	563.4
699.514	563.3
699.919	559.2
700.324	557.5
700.75	566.3
701.156	569.1
701.561	577.1
701.987	576.9
702.393	573.9
702.798	577.9
703.203	565.9
703.63	562.1
704.036	557.3
704.442	571
704.847	560
705.274	557.4
705.68	568.2
706.086	571.1
706.492	556.3
706.92	558.7
707.326	574.7
707.732	560.9
708.139	550.5
708.545	552.4
708.973	559.2
709.38	564.3
709.786	553.2
710.193	583.4
710.6	563.4
711.028	553.9
711.435	571.1
711.842	564
712.249	566.4
712.656	559.6
713.064	575.2
713.492	550.2
713.9	566.9
714.307	567.8
714.715	571.3
715.123	565.5
715.53	564.1
715.938	573.2
716.367	568.3
716.775	562.9
717.184	559.3
717.592	562.3
718	574.5
718.408	598.4
718.816	605.3
719.225	568.9
719.633	566.8
720.042	558.4
720.472	563.8
720.881	584.4
721.29	571.2
721.699	553.8
722.108	565
722.517	567.5
722.926	564.8
723.335	577.1
723.744	565.1
724.154	564.9
724.563	562.8
724.973	570.6
725.382	564.7
725.792	560.2
726.202	562.2
726.612	572.4
727.022	562.6
727.432	560.1
779.813	558.8
780.223	608.5
780.634	564.7
781.044	559.1
781.454	561.4
781.865	572.7
782.276	552.1
782.686	578.9
783.097	566.7
783.508	562.4
783.919	570.8
784.33	577.5
784.741	573.1
785.152	561.7
785.563	557.9
785.974	556.7
786.386	577.1
786.776	560.9
787.188	563.6
787.599	551.7
788.011	569.6
788.423	566.1
788.835	558.4
789.247	551.2
789.659	559.8
790.071	560.2
790.483	602.7
790.874	565.7
791.286	571
791.699	561.4
792.111	563.1
792.524	565.8
792.937	564.9
793.349	557.4
793.741	560
794.154	560.5
794.567	579.4
794.98	560.8
795.393	555.8
795.785	582.8
796.198	561.3
796.612	563.7
797.026	558.4
797.439	544.8
797.831	556
798.245	555.5
798.659	552
799.073	556.2
799.487	555.5
799.88	560.8
800.294	564.5
800.708	565.7
801.123	566.8
801.516	578.8
801.93	554.3
802.345	551.3
802.76	560.4
803.153	575.2
803.568	574.2
803.983	570.7
804.377	571.4
804.792	552.7
805.207	548.9
805.601	570.1
806.016	597.9
806.432	559.5
806.826	589.9
807.242	572.9
807.658	560.7
808.052	560.8
808.468	557.8
808.884	552.1
809.279	560.3
809.695	567.9
810.111	581.1
810.506	561.3
810.922	579.7
811.339	556.5
811.734	569.2
812.151	558.3
812.546	557.5
812.963	555.5
813.38	571
813.776	565.8
814.193	582.6
814.589	554.6
815.006	557.7
815.402	556.9
815.82	561.7
816.237	559.8
816.633	561.5
817.051	553.6
817.448	562.9
817.866	558.9
818.262	581.6
818.68	558.6
819.077	556.6
819.495	563.8
819.892	603.2
820.311	551.6
820.708	562.7
821.127	560.3
821.524	572.4
821.943	567.7
822.34	580.1
822.759	565.2
823.157	562.6
823.576	575.2
823.974	565.2
824.393	568.7
824.791	548.3
825.189	554.5
825.609	558.4
826.007	556.6
826.427	552.7
826.826	557.1
827.246	562.8
827.644	552.8
828.043	569.8
828.463	561.1
828.862	567.7
829.261	563.9
829.682	553.8
830.081	566.6
830.502	556.9
830.901	567.8
831.301	564
831.722	555.8
832.121	558.2
832.521	554.2
832.943	561.5
833.342	558.3
833.742	552.8
834.164	556.5
834.564	554.2
834.965	562.5
835.386	550.4
835.787	562.6
836.188	557.8
836.588	562
837.01	562.1
837.411	552.9
837.812	570.4
838.213	562.7
838.636	558.2
839.037	630.4
839.438	563.6
839.84	565
840.263	565.2
840.664	561.2
841.066	560.1
841.468	562.3
841.891	555.8
842.293	570.6
