#lambda/nm	C1
208.295	484.5
208.67	449.5
209.045	409.8
209.419	408.9
209.794	597.8
210.169	576.1
210.544	697.1
210.919	597.4
211.295	586
211.67	589.2
212.045	581.8
212.421	578.3
212.796	618.5
213.172	585.7
213.547	582.4
213.923	586
214.299	583.2
214.675	589.9
215.051	595.8
215.427	594.5
215.803	602.4
216.179	592.3
216.555	576.1
216.932	594.6
217.308	589.5
217.684	587.1
218.061	593.7
218.438	591.2
218.814	584.2
219.191	589.7
219.568	577.3
219.945	584.7
220.322	599.2
220.699	592
221.076	596.6
221.453	582.8
221.83	577.6
222.208	587
222.585	580.4
222.962	587.2
223.34	590.4
223.717	592.9
224.095	582.2
224.473	593.3
224.851	582.2
225.229	574.1
225.607	601.8
225.985	576.5
226.363	592
226.741	588.7
227.119	587.4
227.497	599.6
227.876	576.8
228.254	592.9
228.633	595
229.011	586.1
229.39	592
229.769	589.4
230.148	590.3
230.527	602.4
230.905	583.9
231.284	589.3
231.664	577.5
232.043	604.1
232.422	592.7
232.801	583.5
233.181	595
233.56	582.9
233.94	587.1
234.319	575.9
234.699	579.9
235.079	625.3
235.458	624.3
235.838	604.1
236.218	578.8
236.598	582.7
236.978	583.6
237.358	581.7
237.738	586.8
238.119	592.7
238.499	580.8
238.88	582.8
239.26	601.3
239.641	576.5
240.021	579.1
240.402	581.9
240.783	587
241.163	590.2
241.544	591.1
241.925	590.2
242.306	601.7
242.687	579.9
243.069	591.4
243.45	593.2
243.831	584.2
244.212	586.4
244.594	621.9
244.975	596.7
245.357	587.6
245.739	583.9
246.12	593.2
246.502	596
246.884	590.3
247.266	587.7
247.648	595.1
248.03	612.3
248.412	587.3
248.794	592.4
249.176	583.1
249.559	597.7
249.941	580.8
250.323	584.6
250.706	580.3
251.089	587
251.471	593.8
251.854	592
252.237	593.7
252.62	594.9
253.002	585
253.385	587.8
253.769	602.1
254.152	594
254.535	598.8
254.918	581.2
255.301	584.9
255.685	592.9
256.068	578.1
256.452	613.6
256.835	591.3
257.219	596.2
257.603	597.4
257.986	579.8
258.37	591
258.754	580.9
259.138	600.1
259.522	600.8
259.906	585.6
260.29	590
260.675	588.4
261.059	590.8
261.443	582.2
261.828	596.8
262.212	595.7
262.597	575.2
262.981	586.9
263.366	597.5
263.751	591.1
264.136	584.7
264.521	588.5
264.906	579.6
265.291	594.1
265.676	584.8
266.061	597.4
266.446	603.6
266.831	591.3
267.217	610.2
267.602	589.7
267.987	591.1
268.373	587.9
268.759	592.9
269.144	595.9
269.53	588
269.916	583.9
270.302	581.7
270.688	590.9
271.074	590.1
271.46	599.6
271.846	619
272.232	590.1
272.618	582
273.004	585.9
273.391	596.5
273.777	600.1
274.164	587.3
274.55	603.9
274.937	596
275.324	586.7
275.71	599.1
276.097	600.7
276.484	582.7
276.871	595.8
277.258	591.6
277.645	582.7
278.032	583.3
278.419	587.1
278.807	592.6
279.194	583.5
279.581	579.8
279.969	592.4
280.356	590.8
280.744	594.4
281.131	616.2
281.519	602.2
281.907	583.7
282.295	586.6
282.682	601.9
283.07	592.6
283.458	598.8
283.846	598.8
284.235	597.9
284.623	598.3
285.011	578.6
285.399	589.4
285.788	588.8
286.176	581.8
286.565	603.8
286.953	581.6
287.342	582.6
287.731	581
288.119	580.2
288.508	583.8
288.897	586
289.286	574.6
289.675	592.2
290.064	600.4
290.453	589.2
290.821	594.8
291.21	603.3
291.599	585.5
291.989	589.5
292.378	592
292.768	608.8
293.157	591.8
293.547	597.5
293.936	585.3
294.326	584.1
294.716	590.3
295.106	583.1
295.496	595.3
295.886	600.1
296.276	588.1
296.666	586.2
297.056	582.5
297.446	578.8
297.836	598.9
298.227	585.5
298.617	588.2
299.008	599.8
299.398	587
299.789	584.4
300.179	594.7
300.57	599.7
300.961	584.3
301.352	582.4
301.742	596.4
302.133	592.2
302.524	582.5
302.915	591.4
303.307	583.8
303.698	598.8
304.089	595.5
304.48	587.8
304.872	590.8
305.263	593.8
305.655	583.7
306.046	590.8
306.438	590.3
306.829	587.9
307.221	605.2
307.613	588.6
308.005	603
308.397	601.5
308.789	612.1
309.181	615.7
309.573	602.7
309.965	597.9
310.357	587.2
310.749	594.5
311.142	578.8
311.534	583.9
311.926	596.5
312.319	588.6
312.711	580.5
313.104	596.9
313.497	588.8
313.889	621.8
314.282	603.9
314.675	614.5
315.068	590.2
315.461	595.2
315.854	617.5
316.247	598.2
316.64	584.2
317.033	588.6
317.405	592.9
317.798	588.8
318.192	597.8
318.585	585
318.979	589.4
319.372	584.1
319.766	588.7
320.16	601.2
320.553	602.7
320.947	613.6
321.341	585.3
321.735	591.3
322.129	574.9
322.523	614.2
322.917	582.6
323.311	598.6
323.705	593.6
324.099	602
324.494	605.1
324.888	602.8
325.282	588.5
325.677	595
326.071	596.3
326.466	607.1
326.861	594.8
327.255	602.8
327.65	599.3
328.045	606.4
328.44	593.6
328.835	590.6
329.23	585.1
329.625	615.2
330.02	584.1
330.415	611
330.81	595.1
331.206	595.4
331.601	584.6
331.996	592.9
332.37	605.9
332.766	580.3
333.161	610.5
333.557	584.7
333.953	591.9
334.348	965
334.744	591.9
335.14	583.7
335.536	586.6
335.932	599.4
336.328	592
336.724	599.7
337.12	587.3
337.516	591.5
337.913	593.6
338.309	602.1
338.705	589.1
339.102	603.4
339.498	587.8
339.895	605.1
340.291	586.5
340.688	601.5
341.085	584.1
341.481	589.1
341.878	587.8
342.275	608.5
342.672	585.2
343.069	583.4
343.466	576.1
343.842	601.8
344.239	583.5
344.636	587.2
345.033	582.1
345.431	583.4
345.828	586.8
346.225	586.2
346.623	595.3
347.02	591.5
347.418	600
347.816	601.6
348.213	588.9
348.611	593
349.009	584.4
349.407	600.6
349.805	579
350.203	578.2
350.601	598.1
350.999	584.9
351.397	585
351.795	590.9
352.193	594.9
352.57	592.9
352.969	602.9
353.367	577.6
353.766	579.1
354.164	589.3
354.563	596.3
354.961	591.3
355.36	585.9
355.759	583.2
356.158	578.7
356.557	582.4
356.956	583.3
357.355	572.3
357.754	593.7
358.153	596.5
358.552	609.4
358.951	586.7
359.35	601.4
359.75	587.6
360.149	580.9
360.527	569.3
360.926	578.1
361.326	584.6
361.726	586.4
362.125	581.4
362.525	592.1
362.925	582.7
363.325	582.9
363.724	583.6
364.124	578.8
364.524	579.1
364.924	584.3
365.324	604.5
365.725	575.7
366.125	592
366.525	583
366.904	572.5
367.304	569.4
367.705	601.9
368.105	600.2
368.506	584.9
368.906	590.3
369.307	582
369.708	587.1
370.108	573.5
370.509	591.6
370.91	578.2
371.311	586.1
371.712	584.7
372.113	581.9
372.514	574.6
372.894	579
373.295	579.2
373.696	593.3
374.097	591.3
374.499	612.4
374.9	580.8
375.301	577.6
375.703	589
376.105	574.4
376.506	587.3
376.908	584
377.309	583.3
377.711	585.2
378.113	579.1
378.493	581.3
378.895	576.9
379.297	590.3
379.699	568.4
380.102	589.2
380.504	580.8
380.906	575.6
381.308	603.7
381.71	578.4
382.113	592.1
382.515	581.9
382.918	586.3
383.299	587.2
383.701	585.7
384.104	586.9
384.507	567.3
384.909	582
385.312	574.5
385.715	574
386.118	575.6
386.521	574.8
386.924	589.3
387.327	572
387.709	567.1
388.112	563
388.515	576.8
388.918	581.3
389.322	584.7
389.725	576.3
390.129	598.9
390.532	591.7
390.936	584.4
391.339	571.6
391.743	587.9
392.125	573.1
392.529	593.4
392.933	593.4
393.337	579.7
393.74	576.9
394.144	580.3
394.548	570.6
394.953	584.8
395.357	583.4
395.761	580.3
396.144	579.1
396.548	576.8
396.952	584.7
397.357	576
397.761	571.9
398.166	574.1
398.57	582.7
398.975	573
399.379	585.9
399.763	630.4
400.168	583.5
400.572	579.9
400.977	578
401.382	602.8
401.787	594.5
402.192	599
402.597	597.2
403.002	569.3
403.386	591.4
403.791	595.6
404.197	577.7
404.602	581.3
405.007	589.6
405.413	580.9
405.818	576.3
406.224	574.3
406.608	568.6
407.014	572.1
407.42	593.5
407.825	579
408.231	589.1
408.637	586.8
409.043	588.1
409.449	579.4
409.834	571.5
410.24	584
410.646	589.5
411.052	594.6
411.458	585.5
411.865	592
412.271	596
412.677	583.7
413.062	585.1
413.469	575
413.875	607.2
414.282	589.5
414.689	587.2
415.095	582.9
415.502	577.3
415.888	581.3
416.294	568.7
416.701	619.6
417.108	582.6
417.515	589
417.923	576.2
418.33	599.9
418.715	591.2
419.123	582
419.53	586
419.937	583
420.345	593.4
420.752	580.1
421.16	592.2
421.546	587.1
421.953	591.6
422.361	571.7
422.769	582.9
423.177	583.6
423.585	601.1
423.992	598.3
424.379	593.3
424.787	592.1
425.195	605.5
425.603	583.2
426.011	594.5
426.419	594.7
426.806	585.9
427.214	585.6
427.623	592.9
428.031	598.9
428.44	593.5
428.848	591.8
429.235	604.8
429.644	591
430.053	589.5
430.461	609.5
430.87	622.1
431.279	604
431.666	588.4
432.075	598.3
432.484	605.1
432.893	603.1
433.302	626
433.711	651.9
434.099	625.3
434.508	630.1
434.918	634.4
435.327	650.4
435.737	660.6
436.125	667.1
436.534	673.8
436.944	685.8
437.353	705.5
437.763	732.7
438.173	714.1
438.561	739.6
438.971	725.4
439.381	752.5
439.791	765.3
440.201	752.5
440.589	791.3
440.999	804.1
441.409	808.2
441.819	808.2
442.23	844.1
442.619	845.8
443.029	848.9
443.439	858
443.85	874
444.26	890.9
444.649	899.4
445.06	902.4
445.471	907.4
445.881	906.5
446.292	936.7
446.682	945.3
447.092	922.9
447.503	995.9
447.914	948.1
448.325	943.7
448.715	964.5
449.126	950.9
449.537	964.5
449.948	971
450.338	978
450.75	993.8
451.161	990.1
451.572	1000.4
451.984	990.6
452.374	991.9
452.786	1001.4
453.197	1002.5
453.609	1020.6
453.999	996.2
454.411	1005.1
454.823	1018.6
455.235	1013.9
455.647	1021.7
456.037	1032
456.449	1014.9
456.862	1021.1
457.274	1032.7
457.665	1022.1
458.077	1043.8
458.489	1034.8
458.902	1031.8
459.293	1028.8
459.705	1022.6
460.118	1020.7
460.53	1027.9
460.921	1025
461.334	1034.4
461.747	1035.3
462.16	1049
462.551	1049.1
462.964	1033.1
463.377	1017.8
463.79	1022.7
464.182	1039.9
464.595	1017.9
465.008	1032.7
465.421	1029.9
465.813	1015.2
466.226	1026.7
466.64	1018.1
467.053	1073.6
467.445	1030.6
467.859	1022.6
468.272	1027.8
468.686	1038
469.078	1027
469.492	1009.5
469.906	1027.2
470.298	1024.4
470.712	1014.6
471.126	1049.3
471.54	998.2
471.933	1004.2
472.347	1008.4
472.761	996.2
473.175	996
473.568	992.6
473.982	997.3
474.397	1003.6
474.79	997.7
475.204	1000.5
475.619	996.1
476.033	1007.2
476.426	980.8
476.841	984.9
477.256	1011.2
477.649	980.1
478.064	979.3
478.479	976.2
478.872	987.6
479.287	960.7
479.702	971.2
480.118	976.3
480.511	972.5
480.927	965.1
481.342	968
481.736	968.3
482.151	957.7
482.566	972.3
482.96	967.8
483.376	965.6
483.792	954.2
484.186	965.2
484.602	950.6
485.017	945.7
485.412	945.8
485.827	950.8
486.243	950.2
486.638	968.4
487.054	954.6
487.47	954
487.865	935.7
488.281	932.5
488.697	925.4
489.092	930.6
489.508	922.3
489.925	927.1
490.32	909.1
490.736	923
491.153	922.4
491.548	918.2
491.964	924.7
492.381	905.6
492.776	910.9
493.193	906.1
493.61	910.9
494.006	906.7
494.422	916.4
494.84	891.1
495.235	901.5
495.652	898
496.069	891.2
496.465	878.9
496.883	886.8
497.3	902.3
497.696	869.8
498.113	878
498.509	862.9
498.927	849.1
499.344	857
499.741	855.2
500.158	869.3
500.576	869.4
500.973	866.5
501.39	849.6
501.787	847.2
502.205	845.2
502.623	841.4
503.02	839.9
503.438	836.7
503.856	835.5
504.253	840.6
504.671	845.1
505.068	835.4
505.486	833.8
505.905	844.7
506.302	829.1
506.72	828.2
507.118	819
507.536	824.1
507.955	817.8
508.352	817
508.771	825.8
509.169	817.6
509.587	793.9
510.006	810.6
510.404	792.6
510.823	793.6
511.221	796.5
511.64	793.8
512.038	802.6
512.457	789.5
512.877	786.5
513.275	779.3
513.694	783.9
514.092	772.9
514.512	786.7
514.91	779.4
515.33	778.5
515.749	784.4
516.148	785.1
516.568	777.4
516.966	774.9
517.386	760.3
517.785	764.5
518.205	751.6
518.603	750.3
519.024	749
519.444	762.8
519.843	764.5
520.263	757.2
520.662	755.8
521.082	747.7
521.481	746.5
521.902	744.6
522.301	744.8
522.722	751.7
523.121	737.1
523.542	729.6
523.963	733
524.362	735.8
524.783	739.4
525.183	730.6
525.604	734.1
526.003	722.9
526.425	724.1
526.824	722
527.246	729.5
527.646	728.9
528.067	720.7
528.467	719.5
528.888	722.8
529.289	714.4
529.71	708.2
530.11	707
530.532	702.9
530.932	698.4
531.354	697.5
531.755	742.1
532.176	708.7
532.577	700.2
532.999	702.2
533.4	693.2
533.822	706.4
534.223	696.3
534.645	691
535.046	691.5
535.468	694.8
535.869	701.7
536.292	677.6
536.693	684
537.115	697.2
537.516	684.4
537.939	687.6
538.34	702.2
538.742	692.5
539.165	682.7
539.566	679.5
539.989	677.3
540.391	671.8
540.814	676.5
541.216	676.9
541.639	671.5
542.041	678.7
542.464	676.3
542.866	672.5
543.268	664.8
543.691	671.3
544.093	679.8
544.517	685.5
544.919	659.6
545.343	690.9
545.745	668.2
546.147	669.1
546.571	661.2
546.974	659.6
547.398	664.6
547.8	670.7
548.224	656.1
548.627	656.5
549.03	664.6
549.454	647.8
549.857	646
550.281	645.5
550.684	654.7
551.087	660.6
551.512	656.4
551.915	657
552.34	653.1
552.743	648.8
553.146	647.2
553.571	645.9
553.975	663
554.399	639.1
554.803	692.9
555.207	641.6
555.632	635.6
556.036	648
556.461	634
556.865	639.2
557.268	633.8
557.694	635.7
558.098	639.6
558.502	639.8
558.927	630.7
559.332	633.1
559.736	637.2
560.162	641.6
560.566	627.5
560.992	637.8
561.396	630.5
561.801	627.6
562.227	628.1
562.631	625.1
563.036	625.3
563.462	632.2
563.867	635.9
564.272	614.5
564.698	624.1
565.103	615
565.508	650.2
565.935	627.5
566.34	628.1
566.745	631.3
567.172	623.1
567.577	642.1
567.982	632.7
568.409	620
568.815	610.2
569.22	619.9
569.626	623.2
570.053	603.1
570.459	620.5
570.865	625.5
571.292	621.1
571.698	619.7
572.104	607.4
572.531	608.3
572.937	622.9
573.343	619.4
573.75	607.1
574.177	619
574.583	621.5
574.99	606.3
575.396	617.7
575.824	606.1
576.231	616
576.637	607.2
577.065	629.9
577.472	606
577.879	609.3
578.286	623.7
578.714	601.6
579.121	607.2
579.528	605.3
579.935	612.2
580.364	596.4
580.771	588.8
581.178	596.7
581.585	604.8
582.014	606.7
582.421	592
582.829	599.4
583.236	608.2
583.644	587.5
584.073	598
584.481	592.8
584.889	593.5
585.296	597.7
585.726	600.2
586.134	589.3
586.542	593.4
586.95	621.9
587.358	586.8
587.787	595.2
588.196	588.7
588.604	594.2
589.012	594.7
589.421	581.5
589.851	589
590.259	599.3
590.668	589.7
591.076	625.2
591.485	584.6
591.894	585.5
592.324	599.7
592.733	602.9
593.142	582.4
593.551	585.2
593.96	598.3
594.369	577.4
594.8	582.9
595.209	585.6
595.618	576.9
596.028	582.9
596.437	580
596.847	585.8
597.256	591
597.687	586.5
598.097	583.6
598.507	574.4
598.917	589.4
599.327	595.9
599.736	587.2
600.146	595.5
600.556	578.6
600.988	597
601.398	583.8
601.808	594.2
602.219	569.6
602.629	584.6
603.039	585.8
603.45	608.1
603.86	576.9
604.271	601.9
604.703	581.7
605.114	579.2
605.525	582.4
605.935	584
606.346	595.4
606.757	582.8
607.168	577.2
607.579	565.7
607.99	586.1
608.402	576.5
608.813	584.9
609.224	574.6
609.636	568.8
610.047	570.7
610.48	579.1
610.892	585.3
611.303	585.2
611.715	568.9
612.127	564.3
612.539	578.6
612.95	581.3
613.362	569.4
613.774	569.5
614.186	569.2
614.599	567.1
615.011	579.2
615.423	569.7
615.835	571.9
616.248	564.3
616.66	571.2
617.073	570.4
617.485	570.1
617.898	579
618.311	572.9
618.723	574.9
619.136	602.6
619.549	590.9
619.962	594.4
620.375	579.2
620.788	575.2
621.201	567.7
621.614	582.1
622.028	571.5
622.441	576.9
622.854	588.2
623.268	563.7
623.681	582.3
624.095	578.4
624.509	582.2
624.922	578
625.336	569
625.728	572.6
626.142	580.2
626.556	593.3
626.97	579.6
627.384	568.5
627.799	572.3
628.213	588.2
628.627	567.4
629.041	568.9
629.456	571.8
629.87	576.1
630.285	577.9
630.699	578.3
631.093	573.1
631.507	573.7
631.922	576
632.337	584.3
632.752	565.4
633.167	573.1
633.582	571
633.997	570.6
634.412	564.7
634.806	572.9
635.221	561.1
635.637	580.5
636.052	559.3
636.468	573.6
636.883	590
637.299	566
637.715	563.7
638.109	574.5
638.525	561
638.941	579.8
639.357	571.1
639.773	578.2
640.189	563.7
640.584	573.5
641	571.8
641.416	562.4
641.832	568.8
642.249	567.7
642.665	566
643.06	574.6
643.477	578
643.894	556.6
644.31	562.8
644.727	570.1
645.123	569.3
645.54	562.6
645.957	571.8
646.374	573.3
646.77	565.6
647.187	594.5
647.604	568.3
648.021	554.2
648.439	560
648.835	567.5
649.252	561.5
649.67	566.9
650.088	562.5
650.484	571
650.902	572.9
651.32	573.7
651.738	562.8
652.134	571.9
652.552	583.8
652.971	578.1
653.389	567
653.786	579.1
654.204	566.3
654.622	563.5
655.019	568.9
655.438	569.9
655.857	571.4
656.275	573.3
656.673	561.6
657.091	628.1
657.51	566.1
657.908	569.9
658.327	581.8
658.746	558.6
659.144	567.4
659.563	580.2
659.982	572.3
660.38	561.2
660.8	568.1
661.219	579.9
661.617	568.3
662.037	564.4
662.457	576.6
662.855	553.2
663.275	596.7
663.695	572.6
664.094	569.8
664.514	565.7
664.934	561.8
665.333	573.7
665.753	558.8
666.152	560.9
666.572	560.9
666.993	576
667.392	558.5
667.812	565
668.212	562.9
668.632	577
669.053	562.9
669.453	568
669.874	570.1
670.273	575.8
670.694	556.7
671.116	576
671.515	577.7
671.937	568.4
672.337	560.5
672.758	562.6
673.158	569.1
673.58	556.5
673.98	565.4
674.402	571.6
674.824	560.6
675.224	562.1
675.646	556.7
676.047	561.7
676.469	561.7
676.869	568.3
677.292	567.6
677.693	556.8
678.115	552.3
678.516	568.5
678.939	563.6
679.34	565.6
679.762	572.7
680.164	571.4
680.586	557.8
680.988	563.4
681.411	591.1
681.812	561.7
682.236	561.9
682.637	556.5
683.061	554.9
683.462	565.6
683.864	558.2
684.288	571
684.69	551.5
685.114	575.2
685.516	576.7
685.94	561.9
686.342	572
686.766	557.2
687.168	551.8
687.571	582.8
687.995	558.4
688.398	554.1
688.822	559.5
689.225	576.1
689.628	576.9
690.052	558.5
690.456	568.2
690.88	560.1
691.284	552
691.687	571.6
692.112	551.5
692.515	550.5
692.919	566.6
693.344	564.4
693.747	557.4
694.173	560.5
694.577	568.6
694.98	563.2
695.406	558
695.81	558.9
696.214	561.5
696.64	563.4
697.044	562
697.448	568.7
697.874	557
698.279	557.8
698.684	552.6
699.11	556.1
699.514	561.7
699.919	559.5
700.324	552.7
700.75	558.5
701.156	563.2
701.561	573.3
701.987	562.9
702.393	571.1
702.798	577.8
703.203	558.4
703.63	555.1
704.036	562
704.442	565.3
704.847	556.9
705.274	557.1
705.68	562.6
706.086	571.8
706.492	555.1
706.92	558.6
707.326	571.7
707.732	556.1
708.139	559.6
708.545	549.1
708.973	550.6
709.38	557.7
709.786	553.3
710.193	571.8
710.6	563
711.028	555.4
711.435	558.1
711.842	560.3
712.249	560.9
712.656	556.4
713.064	569.9
713.492	553.5
713.9	563.5
714.307	558.2
714.715	561.2
715.123	564.3
715.53	562.9
715.938	570.2
716.367	557.6
716.775	563.6
717.184	549.5
717.592	555.1
718	571.9
718.408	599.6
718.816	604.6
719.225	568.8
719.633	559.3
720.042	550.8
720.472	559.5
720.881	582.9
721.29	565.5
721.699	551.6
722.108	559.8
722.517	565
722.926	562.1
723.335	571.8
723.744	560.1
724.154	563.5
724.563	557.6
724.973	565.8
725.382	566.1
725.792	559.4
726.202	557
726.612	568.2
727.022	558.6
727.432	554
779.813	554.4
780.223	598.7
780.634	559.8
781.044	557.7
781.454	563.6
781.865	571.5
782.276	546.1
782.686	572.9
783.097	566.5
783.508	559.9
783.919	565
784.33	570.7
784.741	574.9
785.152	554.1
785.563	546.3
785.974	557.8
786.386	568.7
786.776	551.4
787.188	561.5
787.599	555.8
788.011	565.4
788.423	566
788.835	558.8
789.247	552
789.659	551.8
790.071	559.5
790.483	606.2
790.874	557.5
791.286	566.2
791.699	559.3
792.111	560.4
792.524	561.3
792.937	560.5
793.349	548.3
793.741	551.7
794.154	558.9
794.567	574
794.98	561.5
795.393	547.6
795.785	572.4
796.198	553.4
796.612	553.1
797.026	559.1
797.439	544.1
797.831	552.4
798.245	547.2
798.659	560
799.073	549.1
799.487	549.2
799.88	560.9
800.294	556.6
800.708	560.2
801.123	561.8
801.516	574.2
801.93	552.2
802.345	548.6
802.76	560.5
803.153	567.5
803.568	564.2
803.983	563.3
804.377	555.3
804.792	547.2
805.207	547.3
805.601	560.2
806.016	586.8
806.432	548.6
806.826	587.5
807.242	568.4
807.658	566.2
808.052	550.9
808.468	557.3
808.884	557.3
809.279	555.5
809.695	565.6
810.111	572.8
810.506	562.1
810.922	571.2
811.339	556.4
811.734	567.5
812.151	557.4
812.546	554.8
812.963	559.3
813.38	563.5
813.776	558.3
814.193	574.2
814.589	556.3
815.006	553.6
815.402	552.8
815.82	551.8
816.237	553.1
816.633	562.9
817.051	552
817.448	556.7
817.866	549.9
818.262	575.4
818.68	560.4
819.077	555
819.495	557.7
819.892	595.3
820.311	546.9
820.708	549.7
821.127	553.9
821.524	567
821.943	558.4
822.34	573.1
822.759	557.1
823.157	555.5
823.576	573.2
823.974	563.1
824.393	570.6
824.791	553.4
825.189	550.6
825.609	552.3
826.007	555.9
826.427	548.5
826.826	555.2
827.246	560.1
827.644	545.2
828.043	563.7
828.463	553.1
828.862	568.8
829.261	565.2
829.682	546.3
830.081	560.7
830.502	549.9
830.901	555.7
831.301	553.6
831.722	545.4
832.121	550.9
832.521	557.3
832.943	555.7
833.342	555.7
833.742	547.1
834.164	552.9
834.564	544.7
834.965	554.6
835.386	557
835.787	550.6
836.188	553.1
836.588	553.5
837.01	554.8
837.411	546.9
837.812	561.6
838.213	559.1
838.636	552.6
839.037	616.5
839.438	554.7
839.84	554.1
840.263	561.6
840.664	557.8
841.066	553.8
841.468	560.2
841.891	555.2
842.293	570.1
842.695	556
843.098	566.1
843.5	550.5
843.902	558.1
844.326	559.4
844.729	557.4
845.131	564.6
845.534	557.1
845.937	565
846.34	564.7
