#lambda/nm	C1
208.295	487.2
208.67	447.8
209.045	411
209.419	414.1
209.794	596.9
210.169	579.8
210.544	705.2
210.919	594.3
211.295	587
211.67	593.8
212.045	592.2
212.421	589.2
212.796	626
213.172	589.2
213.547	586.2
213.923	584.7
214.299	586.4
214.675	595.3
215.051	597.1
215.427	602.7
215.803	609.9
216.179	595.7
216.555	578.6
216.932	599.5
217.308	587.8
217.684	596
218.061	595.2
218.438	597.8
218.814	583
219.191	595.5
219.568	582.2
219.945	587.4
220.322	593.8
220.699	598.1
221.076	599.9
221.453	592.5
221.83	585.7
222.208	585.2
222.585	585.1
222.962	590.7
223.34	588.3
223.717	593.7
224.095	591.4
224.473	594.4
224.851	586.3
225.229	584.6
225.607	606.2
225.985	583.7
226.363	593.9
226.741	592.1
227.119	591.7
227.497	598
227.876	582
228.254	595
228.633	597.3
229.011	594
229.39	595.6
229.769	597.7
230.148	597.2
230.527	611.5
230.905	592
231.284	599.5
231.664	594.1
232.043	601.5
232.422	603.5
232.801	592.7
233.181	593.9
233.56	587.4
233.94	594.5
234.319	573.6
234.699	591.4
235.079	633.2
235.458	627.2
235.838	609.3
236.218	587.6
236.598	579.7
236.978	590.5
237.358	589.5
237.738	584.6
238.119	595.7
238.499	581.8
238.88	595.8
239.26	608.1
239.641	587.7
240.021	590.6
240.402	592.3
240.783	590.3
241.163	591.5
241.544	594.2
241.925	592.2
242.306	605.2
242.687	586.5
243.069	595.5
243.45	600.6
243.831	585.6
244.212	585.2
244.594	627.2
244.975	608.2
245.357	600.7
245.739	589.1
246.12	595.3
246.502	603.2
246.884	585.4
247.266	588.9
247.648	599.4
248.03	610.8
248.412	599.8
248.794	603.9
249.176	589.5
249.559	600.4
249.941	588.2
250.323	582.2
250.706	587
251.089	591.2
251.471	592.4
251.854	594.2
252.237	594.3
252.62	603
253.002	591.1
253.385	593.1
253.769	610.1
254.152	596.7
254.535	604.9
254.918	587.6
255.301	593.3
255.685	587.7
256.068	589
256.452	611.3
256.835	604.1
257.219	596.7
257.603	601
257.986	583.8
258.37	595.8
258.754	583.3
259.138	600.9
259.522	600
259.906	590.1
260.29	593.7
260.675	590.3
261.059	588.6
261.443	582.4
261.828	595.8
262.212	591.4
262.597	586.5
262.981	588.6
263.366	593.1
263.751	592.6
264.136	582.3
264.521	592.6
264.906	582.4
265.291	599.4
265.676	587
266.061	600
266.446	613.8
266.831	598.2
267.217	610.8
267.602	596.1
267.987	598.1
268.373	591.2
268.759	597.2
269.144	604.1
269.53	588.1
269.916	592.6
270.302	585.7
270.688	598.9
271.074	595.9
271.46	605.2
271.846	623.3
272.232	591.3
272.618	592.7
273.004	592.6
273.391	599
273.777	605.8
274.164	595.6
274.55	612.5
274.937	596.6
275.324	590.6
275.71	602.6
276.097	601.6
276.484	586
276.871	595.9
277.258	597.5
277.645	580.6
278.032	590.6
278.419	589.3
278.807	596.3
279.194	583.1
279.581	583.8
279.969	596.7
280.356	592.5
280.744	596.4
281.131	619.3
281.519	603.1
281.907	591.3
282.295	589.4
282.682	606.7
283.07	589.1
283.458	597.9
283.846	606.8
284.235	608.2
284.623	602.3
285.011	583.3
285.399	590.6
285.788	597.7
286.176	581.4
286.565	606.4
286.953	593.4
287.342	588.9
287.731	583.3
288.119	587
288.508	594.6
288.897	596.5
289.286	578.3
289.675	598.6
290.064	603.8
290.453	591.1
290.821	597.1
291.21	607.1
291.599	590.3
291.989	591.7
292.378	609.8
292.768	610.1
293.157	594.6
293.547	598.7
293.936	587.6
294.326	596.2
294.716	595
295.106	589.9
295.496	599
295.886	605.2
296.276	591.4
296.666	584.9
297.056	593.1
297.446	586.2
297.836	609.9
298.227	595.6
298.617	592.7
299.008	606
299.398	596.9
299.789	586.8
300.179	597.6
300.57	606.3
300.961	591.6
301.352	586.2
301.742	601.3
302.133	596.4
302.524	592
302.915	594.4
303.307	586.9
303.698	599.5
304.089	601.2
304.48	592.3
304.872	596.4
305.263	591.4
305.655	585.7
306.046	601.4
306.438	598.3
306.829	591.1
307.221	609.4
307.613	594.6
308.005	602.8
308.397	606.3
308.789	617.7
309.181	620.3
309.573	612.3
309.965	602.3
310.357	592.5
310.749	596.1
311.142	588.4
311.534	588.2
311.926	602.7
312.319	594.5
312.711	588
313.104	609
313.497	597.4
313.889	630.1
314.282	614.7
314.675	622.4
315.068	601.9
315.461	595.1
315.854	621
316.247	605.4
316.64	591.6
317.033	592.8
317.405	603.6
317.798	593.2
318.192	598.3
318.585	584.4
318.979	599.5
319.372	584.3
319.766	590.2
320.16	603.8
320.553	609.3
320.947	617.8
321.341	592.8
321.735	592.9
322.129	581.5
322.523	618.2
322.917	584.5
323.311	607.1
323.705	599.1
324.099	601.8
324.494	606.8
324.888	603.3
325.282	596.6
325.677	602.6
326.071	598
326.466	605.6
326.861	603.3
327.255	602.5
327.65	606.7
328.045	607.3
328.44	600.2
328.835	596.7
329.23	584.9
329.625	626.4
330.02	589.8
330.415	617.5
330.81	598.9
331.206	598.9
331.601	594.6
331.996	603.5
332.37	607.7
332.766	586.1
333.161	623.3
333.557	591.3
333.953	600.2
334.348	880
334.744	600.6
335.14	587.1
335.536	589.8
335.932	604.6
336.328	595.9
336.724	600.1
337.12	596.5
337.516	598.1
337.913	596.4
338.309	612.7
338.705	596.7
339.102	608.4
339.498	591.5
339.895	607.2
340.291	594.6
340.688	602.3
341.085	588.9
341.481	595.6
341.878	590.4
342.275	617
342.672	586.3
343.069	589.3
343.466	582.6
343.842	600.6
344.239	583.7
344.636	596.3
345.033	591.2
345.431	587.9
345.828	598.8
346.225	591.1
346.623	603.8
347.02	600.7
347.418	606.8
347.816	602.6
348.213	587.9
348.611	600
349.009	590.9
349.407	604.7
349.805	584
350.203	583.2
350.601	602.7
350.999	592.6
351.397	586.1
351.795	596.3
352.193	606.1
352.57	603.1
352.969	603
353.367	583.6
353.766	583.7
354.164	587.8
354.563	598.5
354.961	590.4
355.36	590.7
355.759	591.5
356.158	584.9
356.557	584.1
356.956	581.5
357.355	583.8
357.754	593.5
358.153	598.9
358.552	615.1
358.951	589
359.35	600.7
359.75	584.1
360.149	584.2
360.527	570.1
360.926	584.5
361.326	589.5
361.726	586.8
362.125	584.9
362.525	598.9
362.925	590.9
363.325	594.6
363.724	592.6
364.124	582.4
364.524	585.4
364.924	591.1
365.324	602.3
365.725	578.4
366.125	592.2
366.525	590.7
366.904	579.6
367.304	573
367.705	609.1
368.105	603.3
368.506	593.5
368.906	589.4
369.307	585.8
369.708	593.8
370.108	575.8
370.509	597.5
370.91	586.4
371.311	592.5
371.712	590.2
372.113	587.1
372.514	574.6
372.894	587.2
373.295	579.7
373.696	597.2
374.097	597.2
374.499	609.8
374.9	589.1
375.301	576.4
375.703	585.7
376.105	580
376.506	593.9
376.908	586.3
377.309	586.8
377.711	585.3
378.113	587
378.493	588.7
378.895	579.5
379.297	592.2
379.699	575.7
380.102	588.7
380.504	590.4
380.906	583.5
381.308	605.4
381.71	583.1
382.113	596.9
382.515	588.4
382.918	591.3
383.299	585.4
383.701	591.2
384.104	594.1
384.507	569.2
384.909	587.2
385.312	578.5
385.715	577.7
386.118	583.1
386.521	576.9
386.924	595.4
387.327	576.3
387.709	569.5
388.112	571.1
388.515	583.9
388.918	579.4
389.322	590
389.725	580.6
390.129	605.7
390.532	589.4
390.936	582.4
391.339	578.2
391.743	588.2
392.125	580.3
392.529	591.8
392.933	602.6
393.337	585.4
393.74	582.8
394.144	587.2
394.548	584.7
394.953	577.6
395.357	588.2
395.761	583.5
396.144	587.2
396.548	580
396.952	582.6
397.357	583.3
397.761	575.5
398.166	577.1
398.57	585.2
398.975	577.1
399.379	587.2
399.763	630.9
400.168	587.1
400.572	583.7
400.977	583.2
401.382	604.7
401.787	595.4
402.192	601
402.597	600.5
403.002	565.2
403.386	599.7
403.791	603.7
404.197	583.7
404.602	589.8
405.007	589
405.413	583.2
405.818	581
406.224	581.8
406.608	587.5
407.014	573
407.42	601.7
407.825	581.5
408.231	594.4
408.637	588.9
409.043	599.9
409.449	578.7
409.834	582.8
410.24	585.6
410.646	592.7
411.052	592.7
411.458	587.4
411.865	589.6
412.271	590.5
412.677	587.7
413.062	591
413.469	578.4
413.875	611.3
414.282	599.6
414.689	586.7
415.095	595.9
415.502	581.7
415.888	584.5
416.294	570
416.701	624.8
417.108	589.1
417.515	599.2
417.923	580.8
418.33	609.9
418.715	596.2
419.123	585.2
419.53	579.6
419.937	592.7
420.345	603
420.752	586.8
421.16	603.6
421.546	588.4
421.953	597.8
422.361	577.5
422.769	591.7
423.177	583.4
423.585	607.8
423.992	611.4
424.379	599.7
424.787	597.7
425.195	609.4
425.603	590.9
426.011	601.7
426.419	600
426.806	591.3
427.214	587.6
427.623	602.7
428.031	600.8
428.44	594.4
428.848	608
429.235	609.2
429.644	598.3
430.053	596.7
430.461	616.8
430.87	631.6
431.279	616.1
431.666	608.7
432.075	620.7
432.484	625.2
432.893	618.6
433.302	651.2
433.711	687.6
434.099	656.8
434.508	660.3
434.918	672.1
435.327	690.4
435.737	706.2
436.125	716.5
436.534	737
436.944	753.8
437.353	771.6
437.763	798.1
438.173	791.9
438.561	834.6
438.971	823.9
439.381	847.1
439.791	863.5
440.201	862.7
440.589	902.8
440.999	924.7
441.409	945.5
441.819	944.1
442.23	971.5
442.619	993.6
443.029	995.4
443.439	1013.7
443.85	1029.2
444.26	1051.6
444.649	1055.7
445.06	1054.9
445.471	1062.9
445.881	1096.1
446.292	1115.3
446.682	1130.7
447.092	1105.5
447.503	1181.8
447.914	1142.9
448.325	1154.6
448.715	1157.2
449.126	1151.3
449.537	1170.2
449.948	1171.8
450.338	1187
450.75	1196.6
451.161	1197.6
451.572	1208.6
451.984	1203.9
452.374	1198.6
452.786	1224.1
453.197	1231.7
453.609	1233.8
453.999	1222.2
454.411	1208.9
454.823	1238.7
455.235	1241.7
455.647	1237
456.037	1246.6
456.449	1222.2
456.862	1250.6
457.274	1252.5
457.665	1237
458.077	1248.5
458.489	1269.1
458.902	1246.8
459.293	1250.7
459.705	1252.5
460.118	1248.2
460.53	1256.6
460.921	1260.2
461.334	1249.9
461.747	1252
462.16	1261.8
462.551	1269.4
462.964	1277.6
463.377	1246.3
463.79	1261.3
464.182	1271.3
464.595	1265.4
465.008	1257.9
465.421	1260.4
465.813	1249.7
466.226	1259.9
466.64	1244.2
467.053	1289.5
467.445	1255.1
467.859	1247.6
468.272	1249.7
468.686	1253.7
469.078	1240.3
469.492	1224.2
469.906	1230.8
470.298	1239.1
470.712	1236.7
471.126	1258.7
471.54	1214.4
471.933	1211.9
472.347	1207.2
472.761	1216.6
473.175	1209.3
473.568	1212.4
473.982	1203.7
474.397	1207
474.79	1211.5
475.204	1214.1
475.619	1193.4
476.033	1205
476.426	1188.5
476.841	1191
477.256	1207.9
477.649	1186.4
478.064	1176.5
478.479	1177.9
478.872	1175.8
479.287	1159.6
479.702	1171.8
480.118	1167.2
480.511	1166
480.927	1152.7
481.342	1152.3
481.736	1161.1
482.151	1146.6
482.566	1166.4
482.96	1145.7
483.376	1163.3
483.792	1152.4
484.186	1142.3
484.602	1132.4
485.017	1126.5
485.412	1130.5
485.827	1135.4
486.243	1123.7
486.638	1148.7
487.054	1118.2
487.47	1129.1
487.865	1113.9
488.281	1112.1
488.697	1103.1
489.092	1099.6
489.508	1092.6
489.925	1108.5
490.32	1092.5
490.736	1092.3
491.153	1094.5
491.548	1075.1
491.964	1092.3
492.381	1066.2
492.776	1071.2
493.193	1063.3
493.61	1062.1
494.006	1060.9
494.422	1055.5
494.84	1046.3
495.235	1055.6
495.652	1039.6
496.069	1048.8
496.465	1027.7
496.883	1032.8
497.3	1052.5
497.696	1020.1
498.113	1023.5
498.509	1005.3
498.927	1001.3
499.344	999.6
499.741	1005.6
500.158	1017.2
500.576	1014.5
500.973	992.8
501.39	982.7
501.787	977.7
502.205	986.3
502.623	974.2
503.02	960.6
503.438	969.3
503.856	973.3
504.253	972.1
504.671	964.7
505.068	948.6
505.486	950
505.905	966.2
506.302	949
506.72	954.7
507.118	934.9
507.536	934.7
507.955	929.5
508.352	921.1
508.771	925.4
509.169	932.7
509.587	916.7
510.006	912.2
510.404	906.3
510.823	905.7
511.221	895.8
511.64	894.9
512.038	914.7
512.457	897.6
512.877	884.5
513.275	879.7
513.694	880
514.092	877.4
514.512	877.5
514.91	872.4
515.33	871.9
515.749	873.4
516.148	874.2
516.568	862.8
516.966	860.4
517.386	852.3
517.785	856.8
518.205	852.3
518.603	839.9
519.024	832.1
519.444	844
519.843	843.9
520.263	840.9
520.662	840
521.082	825.2
521.481	837.2
521.902	829.3
522.301	822.6
522.722	825.4
523.121	817.2
523.542	816.3
523.963	815.9
524.362	809.3
524.783	805.7
525.183	803.6
525.604	809.7
526.003	794.2
526.425	793.2
526.824	802.1
527.246	804.4
527.646	804.3
528.067	798.2
528.467	783.3
528.888	791.2
529.289	779.5
529.71	773
530.11	777.4
530.532	771.1
530.932	764.5
531.354	755.9
531.755	802.3
532.176	772.7
532.577	757
532.999	754.5
533.4	751.7
533.822	765.4
534.223	749.5
534.645	745.5
535.046	739.9
535.468	744.5
535.869	756.6
536.292	730.4
536.693	737.3
537.115	740.4
537.516	730.5
537.939	731.2
538.34	749.1
538.742	750
539.165	735.4
539.566	738.1
539.989	731.4
540.391	731.8
540.814	733
541.216	729.8
541.639	724.4
542.041	735.7
542.464	718.4
542.866	709
543.268	710.8
543.691	725.5
544.093	719.6
544.517	743.6
544.919	704.5
545.343	738
545.745	703
546.147	710.5
546.571	704
546.974	696.9
547.398	711.2
547.8	713.3
548.224	700.9
548.627	691.3
549.03	708.9
549.454	688.4
549.857	684.6
550.281	690.9
550.684	690.8
551.087	702.5
551.512	700.4
551.915	694.6
552.34	687.7
552.743	683.6
553.146	683.6
553.571	688.4
553.975	703
554.399	672.8
554.803	726.4
555.207	683.1
555.632	680.7
556.036	681.9
556.461	667.6
556.865	672.7
557.268	666.2
557.694	670.1
558.098	670.9
558.502	668.6
558.927	666.3
559.332	666.5
559.736	674
560.162	665.9
560.566	663.7
560.992	673.6
561.396	663.5
561.801	658.5
562.227	660.9
562.631	660.1
563.036	660.5
563.462	656.9
563.867	663.4
564.272	644
564.698	652.9
565.103	650.4
565.508	665.6
565.935	646.1
566.34	650.1
566.745	655.8
567.172	640.1
567.577	666.9
567.982	657.9
568.409	647.9
568.815	643.2
569.22	639.1
569.626	649.1
570.053	623.8
570.459	644
570.865	641.3
571.292	639
571.698	640
572.104	623.2
572.531	629.3
572.937	641.3
573.343	632.6
573.75	633.3
574.177	635.7
574.583	636.9
574.99	628.8
575.396	639.3
575.824	630.9
576.231	633.4
576.637	624.4
577.065	654.8
577.472	622.7
577.879	629.4
578.286	641.8
578.714	612
579.121	622.1
579.528	624.5
579.935	630.3
580.364	628.5
580.771	605.3
581.178	611.6
581.585	623.6
582.014	622.2
582.421	617.2
582.829	618
583.236	634.9
583.644	611.2
584.073	615.3
584.481	612.8
584.889	607.6
585.296	623.7
585.726	609.1
586.134	602.2
586.542	614.4
586.95	626.9
587.358	604.3
587.787	613.8
588.196	599.4
588.604	610.2
589.012	610.1
589.421	601.7
589.851	597.8
590.259	609.2
590.668	602.4
591.076	639.8
591.485	601.4
591.894	607
592.324	623.9
592.733	622.3
593.142	597.5
593.551	607.4
593.96	636.2
594.369	593.6
594.8	599.6
595.209	601.2
595.618	588.8
596.028	597
596.437	591.9
596.847	596.6
597.256	602.3
597.687	600
598.097	599.6
598.507	583.3
598.917	595.1
599.327	598.4
599.736	596.6
600.146	602.9
600.556	593.4
600.988	609.3
601.398	592.6
601.808	605.8
602.219	584.2
602.629	589.3
603.039	594.2
603.45	616.8
603.86	595.8
604.271	606.7
604.703	593.9
605.114	591.5
605.525	589.3
605.935	596
606.346	607.8
606.757	597.1
607.168	592.5
607.579	577.2
607.99	598.6
608.402	589.3
608.813	592.3
609.224	586.1
609.636	577.7
610.047	584.6
610.48	591.2
610.892	592.9
611.303	595.7
611.715	586.9
612.127	573.6
612.539	580.8
612.95	592.7
613.362	580.9
613.774	572.3
614.186	577.1
614.599	584.1
615.011	596
615.423	577.1
615.835	583.8
616.248	581.6
616.66	589.6
617.073	577.2
617.485	585
617.898	591.5
618.311	587.5
618.723	580.1
619.136	612.5
619.549	599.7
619.962	607.9
620.375	583.3
620.788	587
621.201	581.5
621.614	587.8
622.028	586.1
622.441	587.7
622.854	598
623.268	574.2
623.681	585.3
624.095	587
624.509	595.3
624.922	585
625.336	571.4
625.728	579.6
626.142	596.8
626.556	597.1
626.97	589.5
627.384	577.7
627.799	581.9
628.213	594.8
628.627	580.4
629.041	579.9
629.456	569.9
629.87	578.2
630.285	588.3
630.699	593.7
631.093	583.6
631.507	587.9
631.922	583.1
632.337	593.5
632.752	568.7
633.167	579.4
633.582	575.5
633.997	573.6
634.412	583.2
634.806	580
635.221	574
635.637	589.8
636.052	569.3
636.468	578
636.883	596.7
637.299	577.2
637.715	567.2
638.109	580.4
638.525	570.1
638.941	589.4
639.357	578.7
639.773	584
640.189	572.9
640.584	571.3
641	582.6
641.416	562.9
641.832	568.4
642.249	571
642.665	571.9
643.06	580.1
643.477	584
643.894	564.5
644.31	577.3
644.727	570.5
645.123	575.2
645.54	568.8
645.957	572.9
646.374	582.5
646.77	574.4
647.187	602.3
647.604	573.6
648.021	560.4
648.439	572.8
648.835	581.3
649.252	573.4
649.67	580.9
650.088	577.8
650.484	579.1
650.902	578.1
651.32	587.5
651.738	572.9
652.134	574.9
652.552	595.3
652.971	580.4
653.389	576.6
653.786	583.2
654.204	571.4
654.622	565.7
655.019	575
655.438	578.3
655.857	577.6
656.275	577.9
656.673	570.4
657.091	639.8
657.51	567.4
657.908	577.2
658.327	592.2
658.746	564.5
659.144	574.9
659.563	584.7
659.982	579.1
660.38	564.4
660.8	574
661.219	583
661.617	574.2
662.037	574.2
662.457	581.3
662.855	559.8
663.275	599.1
663.695	570.6
664.094	571.3
664.514	572.8
664.934	563.1
665.333	575.5
665.753	563.4
666.152	561.6
666.572	561.8
666.993	583.7
667.392	563
667.812	566.8
668.212	564.6
668.632	580.1
669.053	571.4
669.453	577.8
669.874	572.8
670.273	571.8
670.694	562.5
671.116	584.1
671.515	576.3
671.937	566.3
672.337	561.5
672.758	568.3
673.158	578.4
673.58	559.3
673.98	570.9
674.402	580.1
674.824	567.6
675.224	567.1
675.646	566.5
676.047	568.9
676.469	575.4
676.869	573.7
677.292	576.4
677.693	556
678.115	569.1
678.516	571.4
678.939	573.2
679.34	563.1
679.762	577.3
680.164	575.5
680.586	558.6
680.988	568.3
681.411	594.3
681.812	567.6
682.236	561.6
682.637	564.7
683.061	557.8
683.462	574.3
683.864	564.8
684.288	577.6
684.69	559
685.114	579.2
685.516	580.4
685.94	558.8
686.342	572.4
686.766	559.5
687.168	557.8
687.571	585
687.995	567.4
688.398	556
688.822	567.3
689.225	581.9
689.628	583.2
690.052	563.4
690.456	575.9
690.88	571.9
691.284	560.5
691.687	577.1
692.112	559.3
692.515	564
692.919	566.9
693.344	565.9
693.747	561.2
694.173	562.7
694.577	574.5
694.98	570.5
695.406	566.1
695.81	570.8
696.214	573.7
696.64	566.8
697.044	570.6
697.448	576.2
697.874	565.3
698.279	564.5
698.684	559.6
699.11	555.5
699.514	566
699.919	562.8
700.324	557.8
700.75	567.8
701.156	569.4
701.561	580.2
701.987	566.8
702.393	574.8
702.798	571.7
703.203	564.8
703.63	557.4
704.036	559.2
704.442	567.6
704.847	555.8
705.274	568.7
705.68	569.4
706.086	571.2
706.492	554.5
706.92	567
707.326	570.6
707.732	563
708.139	555.2
708.545	552.8
708.973	562.3
709.38	562.2
709.786	555.3
710.193	579.5
710.6	563.8
711.028	563.2
711.435	558.4
711.842	567.2
712.249	566.2
712.656	565.4
713.064	578.7
713.492	558.5
713.9	559.7
714.307	573
714.715	561.2
715.123	567.1
715.53	571.8
715.938	571.7
716.367	572.6
716.775	568.6
717.184	557.3
717.592	561.5
718	577.3
718.408	599.1
718.816	598.6
719.225	569.2
719.633	571.7
720.042	564.2
720.472	564.1
720.881	590.2
721.29	574.3
721.699	556.6
722.108	566.5
722.517	560.2
722.926	567.7
723.335	574
723.744	567
724.154	564.6
724.563	568.6
724.973	566.1
725.382	567.1
725.792	557.3
726.202	560.8
726.612	575.7
727.022	569.7
727.432	562
779.813	561.2
780.223	611.9
780.634	565.6
781.044	560
781.454	570.1
781.865	579.3
782.276	559.2
782.686	575.5
783.097	564.1
783.508	564.6
783.919	565
784.33	577.3
784.741	579.8
785.152	557.5
785.563	552.5
785.974	554.3
786.386	577.4
786.776	562.5
787.188	568.7
787.599	547.2
788.011	565.5
788.423	564.9
788.835	556.4
789.247	552.4
789.659	561.7
790.071	560.6
790.483	600.2
790.874	558.5
791.286	564.6
791.699	561.2
792.111	560.4
792.524	562.1
792.937	563
793.349	554.6
793.741	557.4
794.154	560.7
794.567	580.9
794.98	559.1
795.393	554.8
795.785	577.3
796.198	558.4
796.612	565.8
797.026	566.6
797.439	549.3
797.831	565.1
798.245	554.2
798.659	563.5
799.073	562.3
799.487	555.9
799.88	559.6
800.294	560
800.708	572.1
801.123	564.1
801.516	582.3
801.93	555.1
802.345	546.5
802.76	568.1
803.153	573
803.568	571.1
803.983	570.4
804.377	567.9
804.792	550.8
805.207	550.6
805.601	563.3
806.016	600
806.432	559.2
806.826	596.6
807.242	574.4
807.658	560.8
808.052	559.8
808.468	558.5
808.884	548.4
809.279	561
809.695	573.2
810.111	577.6
810.506	562.2
810.922	582.2
811.339	562.4
811.734	573.3
812.151	561.5
812.546	558.8
812.963	559.9
813.38	566.4
813.776	560.6
814.193	588.2
814.589	556.5
815.006	563.9
815.402	550.2
815.82	561.8
816.237	559.3
816.633	558.9
817.051	560.5
817.448	562.3
817.866	552.8
818.262	583.9
818.68	554.9
819.077	556.7
819.495	559.1
819.892	601.5
820.311	556.6
820.708	561.7
821.127	562.3
821.524	569
821.943	565.9
822.34	577.8
822.759	557.4
823.157	560
823.576	573.8
823.974	569.7
824.393	568.7
824.791	552.1
825.189	558.1
825.609	558.2
826.007	559
826.427	548.7
826.826	556.4
827.246	568.9
827.644	547
828.043	570.5
828.463	559.4
828.862	571.5
829.261	568.5
829.682	552.4
830.081	564.1
830.502	557.9
830.901	563.2
831.301	553.1
831.722	542.9
832.121	568.9
832.521	554.5
832.943	564.1
833.342	564.3
833.742	551.4
834.164	557.4
834.564	554.1
834.965	561.8
835.386	558.7
835.787	555.3
836.188	553.1
836.588	555.6
837.01	558.9
837.411	548.1
837.812	567.8
838.213	556.6
838.636	555.9
839.037	620.2
839.438	558.8
839.84	566.2
840.263	567.5
840.664	558.7
841.066	558.3
841.468	560.9
841.891	553.3
842.293	571.3
