#lambda/nm	C1
208.295	481.3
208.67	449.3
209.045	411.7
209.419	414.6
209.794	594
210.169	576
210.544	688.5
210.919	597.8
211.295	574.9
211.67	588.2
212.045	582.3
212.421	581.5
212.796	618.8
213.172	583.7
213.547	580.5
213.923	587
214.299	579.3
214.675	592.6
215.051	594.2
215.427	589.6
215.803	602.8
216.179	592.1
216.555	581.3
216.932	592.7
217.308	585
217.684	586.2
218.061	597.6
218.438	586.8
218.814	573.5
219.191	594
219.568	581.1
219.945	586.8
220.322	590.1
220.699	589.1
221.076	592.2
221.453	591
221.83	578.2
222.208	582.8
222.585	586.8
222.962	593.8
223.34	595.2
223.717	583.3
224.095	580.1
224.473	592.8
224.851	582.9
225.229	575
225.607	604.5
225.985	575.1
226.363	587.5
226.741	592.3
227.119	585.8
227.497	597.9
227.876	577.9
228.254	595.3
228.633	598.5
229.011	588.4
229.39	593.4
229.769	590.1
230.148	589.4
230.527	607.7
230.905	588
231.284	594.9
231.664	581.5
232.043	602.3
232.422	595
232.801	583.5
233.181	586.5
233.56	585.8
233.94	587.7
234.319	576.1
234.699	585.6
235.079	628.8
235.458	624.3
235.838	601.9
236.218	582.4
236.598	577
236.978	588.3
237.358	584.7
237.738	583.8
238.119	595
238.499	579.3
238.88	589.1
239.26	603.1
239.641	581.6
240.021	584.7
240.402	586.8
240.783	582.1
241.163	586.1
241.544	593.8
241.925	587.3
242.306	599.6
242.687	579.3
243.069	594
243.45	592.4
243.831	581.2
244.212	587.6
244.594	625.6
244.975	595.7
245.357	591.7
245.739	589.1
246.12	588.8
246.502	598.8
246.884	583.9
247.266	582.3
247.648	590.6
248.03	608.9
248.412	594.3
248.794	592.7
249.176	588.8
249.559	594.6
249.941	583.6
250.323	577.3
250.706	581.6
251.089	589.6
251.471	593.1
251.854	586.8
252.237	587.3
252.62	594
253.002	587.1
253.385	591.8
253.769	601.9
254.152	584.6
254.535	596
254.918	582.7
255.301	582
255.685	591
256.068	577.8
256.452	608.8
256.835	594.8
257.219	595.4
257.603	593.8
257.986	577.6
258.37	592.7
258.754	573.8
259.138	593.9
259.522	600.3
259.906	583.5
260.29	591.5
260.675	585.5
261.059	591.8
261.443	581.7
261.828	587.5
262.212	595.3
262.597	582.7
262.981	578.2
263.366	600.5
263.751	592.3
264.136	582.4
264.521	581.9
264.906	576
265.291	596.5
265.676	582
266.061	597.5
266.446	606.3
266.831	592.6
267.217	606.1
267.602	592.7
267.987	590.5
268.373	584.1
268.759	596.9
269.144	595.6
269.53	587.6
269.916	582.7
270.302	589.1
270.688	589.7
271.074	590.3
271.46	601.1
271.846	616.5
272.232	592.3
272.618	580
273.004	589.4
273.391	601.7
273.777	603
274.164	590.6
274.55	604.1
274.937	587.7
275.324	590.6
275.71	594.2
276.097	595.2
276.484	584.8
276.871	594
277.258	594.7
277.645	580.3
278.032	587.8
278.419	588.6
278.807	593.1
279.194	582.4
279.581	579.9
279.969	590.9
280.356	592.8
280.744	589.8
281.131	617.4
281.519	601.3
281.907	588.8
282.295	585.9
282.682	603
283.07	586.1
283.458	590
283.846	599
284.235	600.9
284.623	596.7
285.011	581.1
285.399	589.5
285.788	588.7
286.176	581.3
286.565	594.9
286.953	581.4
287.342	584.7
287.731	578.8
288.119	575.7
288.508	590.3
288.897	587.6
289.286	574
289.675	588.3
290.064	602.6
290.453	581.3
290.821	591.7
291.21	606.8
291.599	583.9
291.989	591.9
292.378	594.4
292.768	606.1
293.157	593.3
293.547	595.6
293.936	588.9
294.326	582.9
294.716	588.8
295.106	589
295.496	592.1
295.886	599.7
296.276	589.7
296.666	586.5
297.056	586
297.446	575.6
297.836	606.1
298.227	582.1
298.617	586.3
299.008	601.5
299.398	586.2
299.789	585.2
300.179	595.2
300.57	606
300.961	585.3
301.352	588.7
301.742	599.4
302.133	587.6
302.524	587.7
302.915	595.2
303.307	581.6
303.698	598.2
304.089	597.5
304.48	592.3
304.872	599.9
305.263	587.4
305.655	590.3
306.046	590
306.438	595.7
306.829	592.5
307.221	600.3
307.613	597.6
308.005	595
308.397	598.7
308.789	606.4
309.181	615.5
309.573	603.5
309.965	590.7
310.357	585.8
310.749	594.6
311.142	586.2
311.534	585.4
311.926	596.8
312.319	592.5
312.711	579.8
313.104	597.6
313.497	586.5
313.889	626.7
314.282	606.9
314.675	616.4
315.068	592
315.461	595.6
315.854	620.6
316.247	595.8
316.64	590.2
317.033	593.8
317.405	601.1
317.798	590.3
318.192	597.4
318.585	581.1
318.979	594.1
319.372	581.6
319.766	583.9
320.16	597.2
320.553	604
320.947	606.1
321.341	583.9
321.735	592.5
322.129	576.7
322.523	614.3
322.917	579.6
323.311	599.1
323.705	592.6
324.099	590.6
324.494	602
324.888	600
325.282	583.1
325.677	594.2
326.071	593.2
326.466	601.5
326.861	592.7
327.255	604.5
327.65	606.9
328.045	603.4
328.44	595.2
328.835	590.9
329.23	581.1
329.625	618.9
330.02	586.3
330.415	610.8
330.81	591.2
331.206	592.8
331.601	587.9
331.996	600.2
332.37	608.1
332.766	583.1
333.161	611.5
333.557	589
333.953	591
334.348	1009.7
334.744	591.5
335.14	587.7
335.536	582.8
335.932	601.9
336.328	593
336.724	599.9
337.12	593.5
337.516	593.1
337.913	598.1
338.309	601.9
338.705	591.5
339.102	599.4
339.498	587
339.895	607.4
340.291	589.9
340.688	597.7
341.085	581
341.481	581.5
341.878	589.8
342.275	605.6
342.672	580
343.069	586
343.466	581.9
343.842	593
344.239	585.6
344.636	588.3
345.033	582.7
345.431	582.6
345.828	594.6
346.225	587.9
346.623	596.3
347.02	590.1
347.418	594.1
347.816	606.2
348.213	582.7
348.611	593.3
349.009	577.7
349.407	602.8
349.805	579.7
350.203	576.8
350.601	597.7
350.999	583.5
351.397	578
351.795	593
352.193	599.6
352.57	591.7
352.969	596.1
353.367	575.4
353.766	573.4
354.164	581.1
354.563	596.2
354.961	589
355.36	582.4
355.759	587.3
356.158	579.5
356.557	578.6
356.956	576.2
357.355	575.7
357.754	592.9
358.153	594.5
358.552	606.8
358.951	586.3
359.35	594.2
359.75	584.4
360.149	574.2
360.527	567.9
360.926	574.7
361.326	594.5
361.726	586.9
362.125	578.3
362.525	592.9
362.925	582.6
363.325	587
363.724	584.9
364.124	584.3
364.524	575
364.924	587.9
365.324	598.7
365.725	566.9
366.125	590.1
366.525	584
366.904	579.5
367.304	568.4
367.705	596.7
368.105	594.3
368.506	579.4
368.906	585.8
369.307	577.9
369.708	586.3
370.108	573.9
370.509	596.2
370.91	577.7
371.311	586.4
371.712	584
372.113	585
372.514	577.1
372.894	580.5
373.295	579.2
373.696	594
374.097	588.9
374.499	612.5
374.9	583.9
375.301	572.8
375.703	586.8
376.105	570.5
376.506	587.8
376.908	586.2
377.309	579.5
377.711	580.7
378.113	576.2
378.493	579.8
378.895	578.5
379.297	589
379.699	571.4
380.102	587.6
380.504	578.2
380.906	577.5
381.308	604.8
381.71	582.2
382.113	592.8
382.515	582.5
382.918	584.7
383.299	577.4
383.701	590.4
384.104	590.3
384.507	571.7
384.909	578.4
385.312	568.9
385.715	570.5
386.118	577
386.521	569.1
386.924	594.8
387.327	578.8
387.709	567.7
388.112	564.3
388.515	576
388.918	578.3
389.322	588.6
389.725	577.4
390.129	604.5
390.532	586.4
390.936	578.4
391.339	580
391.743	578.7
392.125	569.9
392.529	588.6
392.933	593
393.337	583.6
393.74	581.7
394.144	582.6
394.548	571.1
394.953	580.8
395.357	590.7
395.761	581.4
396.144	584.2
396.548	580.9
396.952	579.7
397.357	581.5
397.761	573.1
398.166	579.9
398.57	585.5
398.975	575
399.379	580.1
399.763	627.2
400.168	581.8
400.572	582.5
400.977	581.5
401.382	603.5
401.787	592.3
402.192	601.3
402.597	597.3
403.002	573.3
403.386	594.4
403.791	597
404.197	572.3
404.602	577.7
405.007	583.2
405.413	578.2
405.818	572.4
406.224	575.8
406.608	576
407.014	570.3
407.42	593.8
407.825	578
408.231	586.5
408.637	586.6
409.043	595.1
409.449	577.1
409.834	576.6
410.24	581.8
410.646	592.4
411.052	589.6
411.458	583.2
411.865	590.6
412.271	589.3
412.677	579.9
413.062	589.7
413.469	575.3
413.875	606.8
414.282	593.4
414.689	582.7
415.095	590
415.502	580
415.888	584.4
416.294	567.4
416.701	614.9
417.108	578.8
417.515	591.8
417.923	582.3
418.33	600.9
418.715	589.9
419.123	577.2
419.53	581.6
419.937	585.7
420.345	597.6
420.752	580.3
421.16	596.2
421.546	582.3
421.953	589.8
422.361	574.2
422.769	582.1
423.177	572.3
423.585	607.2
423.992	603.2
424.379	587.5
424.787	593.5
425.195	608.4
425.603	579.2
426.011	594.3
426.419	595.6
426.806	584.2
427.214	588.8
427.623	593.8
428.031	609.8
428.44	598.2
428.848	596.1
429.235	602.1
429.644	596.1
430.053	591.7
430.461	611.2
430.87	627
431.279	619.5
431.666	611.4
432.075	622.5
432.484	634
432.893	636
433.302	665.4
433.711	699.7
434.099	680
434.508	680.6
434.918	695.5
435.327	721
435.737	732.5
436.125	751.9
436.534	767.5
436.944	789.2
437.353	804.8
437.763	848
438.173	838.6
438.561	870.5
438.971	868.6
439.381	902.1
439.791	919.8
440.201	922.9
440.589	968.8
440.999	992.2
441.409	1016
441.819	1010.6
442.23	1048.5
442.619	1045.5
443.029	1057.4
443.439	1073.4
443.85	1107.7
444.26	1131.1
444.649	1139.9
445.06	1149.8
445.471	1156.3
445.881	1179.3
446.292	1199.2
446.682	1224.2
447.092	1202
447.503	1260.1
447.914	1229.1
448.325	1234.5
448.715	1239.6
449.126	1252.2
449.537	1269.3
449.948	1282.4
450.338	1289.9
450.75	1307.4
451.161	1314.6
451.572	1322.7
451.984	1315.4
452.374	1308.9
452.786	1328.7
453.197	1329.5
453.609	1335.1
453.999	1325.2
454.411	1332
454.823	1354.9
455.235	1354.4
455.647	1351.8
456.037	1352.1
456.449	1351.7
456.862	1353.9
457.274	1361
457.665	1361.1
458.077	1371.7
458.489	1367.8
458.902	1357.5
459.293	1353.7
459.705	1359.8
460.118	1363.8
460.53	1367.8
460.921	1373.4
461.334	1369.8
461.747	1367.5
462.16	1373.4
462.551	1373.8
462.964	1352.5
463.377	1341.6
463.79	1337.4
464.182	1365.4
464.595	1340.7
465.008	1355.4
465.421	1338.8
465.813	1340.2
466.226	1358.2
466.64	1334.8
467.053	1395.1
467.445	1365.5
467.859	1348.3
468.272	1336.2
468.686	1350.9
469.078	1335
469.492	1321.3
469.906	1319
470.298	1319.6
470.712	1320.1
471.126	1346.8
471.54	1304.9
471.933	1305.2
472.347	1307
472.761	1300.9
473.175	1302.6
473.568	1306.7
473.982	1280
474.397	1293.1
474.79	1302.9
475.204	1300
475.619	1284.4
476.033	1297.3
476.426	1282.7
476.841	1257.6
477.256	1290.3
477.649	1266
478.064	1253.8
478.479	1249.9
478.872	1251.7
479.287	1248.7
479.702	1239.4
480.118	1252.4
480.511	1240.6
480.927	1240.3
481.342	1230.5
481.736	1232
482.151	1225
482.566	1247
482.96	1214.7
483.376	1230.2
483.792	1216.1
484.186	1219.9
484.602	1216.3
485.017	1215.3
485.412	1215.5
485.827	1213.6
486.243	1199.5
486.638	1216.8
487.054	1200.4
487.47	1205
487.865	1184
488.281	1176.9
488.697	1166.7
489.092	1162.8
489.508	1163.7
489.925	1173.9
490.32	1152
490.736	1159.1
491.153	1157.7
491.548	1145.6
491.964	1156.6
492.381	1127.6
492.776	1137.7
493.193	1133.7
493.61	1128.4
494.006	1118
494.422	1120
494.84	1107.9
495.235	1109.6
495.652	1100.8
496.069	1097.8
496.465	1080.8
496.883	1085.1
497.3	1104.7
497.696	1070.2
498.113	1086.5
498.509	1052
498.927	1056.8
499.344	1057.6
499.741	1056.3
500.158	1059.7
500.576	1059
500.973	1047.5
501.39	1036
501.787	1023.1
502.205	1030
502.623	1017.5
503.02	1013.9
503.438	1008.3
503.856	1009.9
504.253	1009.5
504.671	999.3
505.068	997.5
505.486	990.7
505.905	1007.4
506.302	987.1
506.72	991.9
507.118	975
507.536	973.6
507.955	973.6
508.352	969.7
508.771	963
509.169	968
509.587	948.9
510.006	951.3
510.404	942.2
510.823	948.1
511.221	940.4
511.64	937.7
512.038	941.7
512.457	927.7
512.877	916.4
513.275	913.6
513.694	912.7
514.092	913.4
514.512	916.3
514.91	912.2
515.33	908.9
515.749	911.4
516.148	907.1
516.568	902.6
516.966	890.8
517.386	883.8
517.785	870.4
518.205	878.8
518.603	875.3
519.024	874.6
519.444	879.6
519.843	884.4
520.263	869.3
520.662	868.3
521.082	853.8
521.481	858.2
521.902	865.7
522.301	859.8
522.722	844.6
523.121	840.3
523.542	834.7
523.963	826.7
524.362	835.8
524.783	833
525.183	828.2
525.604	832.3
526.003	816.6
526.425	810.7
526.824	819.1
527.246	822.6
527.646	824.2
528.067	820.5
528.467	808.6
528.888	804.9
529.289	800.8
529.71	799
530.11	792.7
530.532	789.4
530.932	775.4
531.354	777.8
531.755	810.7
532.176	782.2
532.577	776.9
532.999	774.9
533.4	771
533.822	782.7
534.223	778.6
534.645	764.8
535.046	762.7
535.468	762.4
535.869	770
536.292	751.2
536.693	759.5
537.115	757.4
537.516	746.9
537.939	751.2
538.34	766.2
538.742	760.9
539.165	757.8
539.566	746.5
539.989	733.3
540.391	746.4
540.814	738.9
541.216	747.5
541.639	737.1
542.041	748.5
542.464	738
542.866	731.9
543.268	731.1
543.691	737.2
544.093	739.3
544.517	748.8
544.919	722.7
545.343	743.5
545.745	715.7
546.147	722.3
546.571	719.3
546.974	708.7
547.398	719.1
547.8	723.3
548.224	712.6
548.627	710.1
549.03	715
549.454	702.7
549.857	699.4
550.281	706.3
550.684	700.3
551.087	712.9
551.512	699.4
551.915	709.8
552.34	704.4
552.743	694.8
553.146	697.6
553.571	691.3
553.975	709.2
554.399	686.1
554.803	736.3
555.207	686.8
555.632	685.9
556.036	686
556.461	674.4
556.865	680.6
557.268	671.3
557.694	678.6
558.098	683.7
558.502	685.3
558.927	671.9
559.332	673.1
559.736	669.3
560.162	683
560.566	669.3
560.992	672.6
561.396	670.1
561.801	668.5
562.227	667.3
562.631	662.4
563.036	667.2
563.462	669.3
563.867	658.1
564.272	646.5
564.698	666.3
565.103	646.5
565.508	672.7
565.935	653.6
566.34	655.1
566.745	665.5
567.172	644.1
567.577	667.7
567.982	664.1
568.409	654
568.815	640.7
569.22	649.5
569.626	652.3
570.053	633.1
570.459	645.5
570.865	649.1
571.292	645.3
571.698	648.5
572.104	630.3
572.531	635
572.937	649.5
573.343	637.2
573.75	635.2
574.177	638.7
574.583	640
574.99	638.5
575.396	639.2
575.824	628.5
576.231	638.3
576.637	626.7
577.065	650.7
577.472	623.2
577.879	632.6
578.286	647.9
578.714	620.7
579.121	622.8
579.528	627.1
579.935	634.9
580.364	621.2
580.771	608.6
581.178	619.6
581.585	620.7
582.014	622.4
582.421	618.1
582.829	621.6
583.236	635.7
583.644	618.9
584.073	614.1
584.481	612.7
584.889	615.4
585.296	620
585.726	615.2
586.134	604.9
586.542	611.2
586.95	631
587.358	608.4
587.787	612.4
588.196	602.4
588.604	612.3
589.012	611.3
589.421	604.5
589.851	601.9
590.259	622.5
590.668	603.3
591.076	638.3
591.485	603.6
591.894	603.1
592.324	621.4
592.733	619
593.142	593.6
593.551	597.7
593.96	631
594.369	589.7
594.8	593.3
595.209	597.5
595.618	580.5
596.028	591.6
596.437	583.6
596.847	599
597.256	601.8
597.687	601.7
598.097	596.2
598.507	590.2
598.917	598.2
599.327	598.4
599.736	591.8
600.146	599.3
600.556	595.4
600.988	609.2
601.398	591.1
601.808	601.2
602.219	583.5
602.629	597.6
603.039	595.7
603.45	612.4
603.86	589.8
604.271	603.5
604.703	595.7
605.114	584.6
605.525	586.8
605.935	592.7
606.346	607.7
606.757	591.6
607.168	586.4
607.579	579.5
607.99	595.7
608.402	584.8
608.813	582
609.224	588.2
609.636	578.4
610.047	575.2
610.48	582.5
610.892	592.5
611.303	597.2
611.715	584.1
612.127	576.5
612.539	580.9
612.95	582.8
613.362	574.7
613.774	571.6
614.186	574
614.599	579.8
615.011	593.6
615.423	576.6
615.835	579.1
616.248	574.5
616.66	596.4
617.073	572.7
617.485	581
617.898	591.2
618.311	584.5
618.723	579.9
619.136	614
619.549	599
619.962	608
620.375	578.7
620.788	586.3
621.201	577.3
621.614	590
622.028	577.5
622.441	582
622.854	597.5
623.268	578
623.681	585.1
624.095	579.5
624.509	590
624.922	586.9
625.336	569.3
625.728	579.5
626.142	586.9
626.556	594.8
626.97	585.8
627.384	577.4
627.799	577.4
628.213	593.3
628.627	578.3
629.041	576.8
629.456	572.2
629.87	583.8
630.285	586.3
630.699	583.9
631.093	573.4
631.507	579.8
631.922	583.6
632.337	588.4
632.752	569
633.167	577.7
633.582	574.6
633.997	572.2
634.412	569.8
634.806	577.3
635.221	570.1
635.637	584.3
636.052	568.4
636.468	572.9
636.883	590.2
637.299	575.5
637.715	563.3
638.109	572.8
638.525	563.2
638.941	582.1
639.357	573.8
639.773	582.4
640.189	570.7
640.584	568.5
641	577.5
641.416	564.5
641.832	566.6
642.249	568.6
642.665	571.9
643.06	580.9
643.477	581
643.894	558.8
644.31	570.4
644.727	568.4
645.123	574.4
645.54	559.2
645.957	572.6
646.374	572.4
646.77	567.2
647.187	595.4
647.604	571.7
648.021	550.4
648.439	565.3
648.835	574.8
649.252	574
649.67	569.2
650.088	569.5
650.484	569.1
650.902	577.3
651.32	579.1
651.738	564.4
652.134	574.1
652.552	586.4
652.971	577.8
653.389	568.3
653.786	584.2
654.204	574.7
654.622	563.7
655.019	572.3
655.438	578.8
655.857	573.3
656.275	570.2
656.673	564.6
657.091	640.2
657.51	560.3
657.908	578.3
658.327	577.7
658.746	557.8
659.144	569
659.563	577.7
659.982	566.3
660.38	557.6
660.8	569
661.219	575.3
661.617	575.1
662.037	567.6
662.457	576.8
662.855	554.2
663.275	597.5
663.695	566.2
664.094	565.6
664.514	568.1
664.934	565.1
665.333	576.9
665.753	560.3
666.152	567.7
666.572	564.5
666.993	571.4
667.392	563.8
667.812	562.3
668.212	559
668.632	580.5
669.053	563.5
669.453	568.6
669.874	568.9
670.273	570.9
670.694	560.5
671.116	570.6
671.515	576.1
671.937	561.4
672.337	558.7
672.758	561.1
673.158	576.2
673.58	556.6
673.98	569.3
674.402	573.3
674.824	561.5
675.224	561.3
675.646	562.1
676.047	557.4
676.469	565.9
676.869	568.9
677.292	572
677.693	559.1
678.115	563.3
678.516	569.3
678.939	569.5
679.34	563.6
679.762	572.7
680.164	578.5
680.586	561.2
680.988	570.8
681.411	590.4
681.812	562.2
682.236	559.3
682.637	559.5
683.061	557.1
683.462	569
683.864	560.8
684.288	569.8
684.69	558.7
685.114	573
685.516	577.2
685.94	551.3
686.342	571.8
686.766	559.1
687.168	559.2
687.571	580.3
687.995	564.5
688.398	549.3
688.822	557.6
689.225	574.9
689.628	577.8
690.052	554.4
690.456	570.5
690.88	562.9
691.284	547.5
691.687	567.9
692.112	551.4
692.515	554.3
692.919	560.9
693.344	562.9
693.747	564.7
694.173	565.5
694.577	571.6
694.98	563.5
695.406	562.3
695.81	562.9
696.214	563.5
696.64	560.6
697.044	567.1
697.448	571
697.874	557.8
698.279	555.7
698.684	557.3
699.11	555.7
699.514	555
699.919	554.9
700.324	555.9
700.75	565.8
701.156	561.8
701.561	574.1
701.987	564.8
702.393	574.5
702.798	569.2
703.203	564.9
703.63	558.1
704.036	559.6
704.442	558.3
704.847	557.5
705.274	558.4
705.68	564.3
706.086	564.2
706.492	548
706.92	560.4
707.326	570.3
707.732	559.4
708.139	550.4
708.545	551
708.973	561.6
709.38	564.1
709.786	549.2
710.193	573
710.6	562.1
711.028	555
711.435	565
711.842	561.9
712.249	556.6
712.656	554.7
713.064	567.6
713.492	552.9
713.9	558.9
714.307	563.7
714.715	563.4
715.123	565.3
715.53	565
715.938	577.2
716.367	563.1
716.775	559.9
717.184	550.3
717.592	559.6
718	572.5
718.408	591.5
718.816	607.8
719.225	569.1
719.633	563.6
720.042	552.6
720.472	556.1
720.881	579.8
721.29	561.5
721.699	559.4
722.108	563.6
722.517	563.7
722.926	554.3
723.335	569.9
723.744	561.1
724.154	561.6
724.563	564
724.973	562.9
725.382	559.4
725.792	562.5
726.202	549.7
726.612	575.8
727.022	556.8
727.432	558.5
779.813	555.6
780.223	604.8
780.634	560.4
781.044	548
781.454	555.6
781.865	573.1
782.276	554.7
782.686	571.5
783.097	561.9
783.508	561.3
783.919	563.9
784.33	570.4
784.741	568.3
785.152	557.4
785.563	552.2
785.974	554.6
786.386	571.6
786.776	555.9
787.188	560.1
787.599	550.5
788.011	565.5
788.423	566.3
788.835	558.6
789.247	553.1
789.659	560.3
790.071	553.6
790.483	596.3
790.874	557.9
791.286	566.4
791.699	557.6
792.111	562
792.524	562.3
792.937	554.5
793.349	548.3
793.741	551.5
794.154	554.4
794.567	573.1
794.98	553.8
795.393	543.7
795.785	573.7
796.198	552.8
796.612	559.2
797.026	554.6
797.439	548.2
797.831	563.1
798.245	552.9
798.659	556
799.073	555.4
799.487	551.9
799.88	557
800.294	558.8
800.708	559.8
801.123	566.9
801.516	578.6
801.93	548
802.345	543
802.76	554.6
803.153	563.8
803.568	570
803.983	568.6
804.377	561.9
804.792	542.6
805.207	544.8
805.601	561.2
806.016	590.6
806.432	548.2
806.826	585.4
807.242	565.7
807.658	565.9
808.052	551.4
808.468	550.6
808.884	550.2
809.279	556.3
809.695	575.1
810.111	584.1
810.506	561.6
810.922	571.7
811.339	553.8
811.734	563.4
812.151	557.8
812.546	555.6
812.963	552.1
813.38	564.6
813.776	555.5
814.193	571.8
814.589	548.8
815.006	555.9
815.402	556.1
815.82	556.8
816.237	557.5
816.633	556.6
817.051	553.5
817.448	556.9
817.866	548.8
818.262	581.9
818.68	558.4
819.077	555.6
819.495	559
819.892	593.8
820.311	547
820.708	554.6
821.127	554
821.524	563.3
821.943	560.7
822.34	570.7
822.759	563.2
823.157	561.4
823.576	569
823.974	564.1
824.393	570.8
824.791	556.5
825.189	546.6
825.609	558.4
826.007	561.2
826.427	550.7
826.826	557.3
827.246	562
827.644	544
828.043	568
828.463	550.7
828.862	567.8
829.261	562.4
829.682	547.8
830.081	562.7
830.502	555.2
830.901	562.4
831.301	554.8
831.722	545
832.121	548.8
832.521	550.4
832.943	549.3
833.342	558
833.742	546.3
834.164	558.6
834.564	545.2
834.965	556.4
835.386	548.3
835.787	552.1
836.188	553.4
836.588	561.1
837.01	556.7
837.411	544.2
837.812	561.4
838.213	558.1
838.636	547.5
839.037	618.2
839.438	552.2
839.84	554.2
840.263	561.4
840.664	556.2
841.066	553.7
841.468	559.7
841.891	549.7
842.293	562.4
842.695	558.4
843.098	562.5
843.5	553.9
843.902	563.4
