#lambda/nm	C1
208.295	479.2
208.67	446.6
209.045	405.6
209.419	414.6
209.794	586.1
210.169	565.3
210.544	687.4
210.919	587.7
211.295	575.6
211.67	582.4
212.045	577.2
212.421	574.3
212.796	615.6
213.172	578
213.547	581.6
213.923	574.5
214.299	577.4
214.675	586.3
215.051	580.6
215.427	584.6
215.803	598.3
216.179	584.8
216.555	572.4
216.932	590.3
217.308	582.6
217.684	580.5
218.061	585.1
218.438	584
218.814	578
219.191	591.1
219.568	578.7
219.945	576.7
220.322	583.9
220.699	581.7
221.076	587.5
221.453	585.4
221.83	573.2
222.208	575.8
222.585	575.6
222.962	581.6
223.34	588.5
223.717	581.1
224.095	580.7
224.473	583.4
224.851	574.7
225.229	571.8
225.607	596.7
225.985	567.6
226.363	576.4
226.741	580.1
227.119	578.6
227.497	588.1
227.876	572.5
228.254	587.9
228.633	586.1
229.011	583.4
229.39	591.3
229.769	581.8
230.148	586
230.527	598.7
230.905	575.1
231.284	585.2
231.664	576.8
232.043	595.2
232.422	587.3
232.801	576.8
233.181	583.6
233.56	579.4
233.94	578.6
234.319	574.3
234.699	573.3
235.079	618.7
235.458	615.3
235.838	592.7
236.218	571.3
236.598	570.8
236.978	572.5
237.358	575.2
237.738	577.9
238.119	587.7
238.499	567.9
238.88	583.5
239.26	595.3
239.641	570
240.021	582
240.402	578.1
240.783	580.3
241.163	584.4
241.544	582.8
241.925	582.6
242.306	593.7
242.687	574.8
243.069	579.9
243.45	585.9
243.831	580.3
244.212	576.3
244.594	614.1
244.975	591.1
245.357	586.4
245.739	570.6
246.12	583.2
246.502	594
246.884	577.9
247.266	577.7
247.648	584.6
248.03	602.8
248.412	582.9
248.794	586.3
249.176	577.7
249.559	591.5
249.941	576.6
250.323	578.8
250.706	578
251.089	580.6
251.471	583.8
251.854	591
252.237	578.5
252.62	586.7
253.002	582
253.385	578.7
253.769	596.4
254.152	578.1
254.535	585.4
254.918	574.9
255.301	579.1
255.685	579.7
256.068	568.9
256.452	600.3
256.835	590.9
257.219	585
257.603	598.4
257.986	576.2
258.37	590.5
258.754	571.7
259.138	584.8
259.522	591.7
259.906	579.2
260.29	579.5
260.675	580
261.059	575.7
261.443	570.7
261.828	586.8
262.212	587.3
262.597	567.2
262.981	581.3
263.366	587.6
263.751	586.7
264.136	575
264.521	576
264.906	576.1
265.291	590.9
265.676	577.3
266.061	579.9
266.446	599.6
266.831	582.2
267.217	601
267.602	588
267.987	585.8
268.373	581.4
268.759	589.8
269.144	591.1
269.53	582.5
269.916	575.8
270.302	574.8
270.688	578.8
271.074	583.3
271.46	595.3
271.846	615.7
272.232	585.5
272.618	580.4
273.004	583.1
273.391	586.9
273.777	592.7
274.164	584.5
274.55	600.8
274.937	584.5
275.324	577.8
275.71	585.4
276.097	594.4
276.484	573.1
276.871	583.7
277.258	585.6
277.645	577.2
278.032	579.2
278.419	585.1
278.807	585.6
279.194	573.2
279.581	570.9
279.969	589.8
280.356	582
280.744	581.7
281.131	606.8
281.519	592.8
281.907	577.5
282.295	577.2
282.682	591.4
283.07	585.2
283.458	588
283.846	592.6
284.235	600
284.623	590.6
285.011	575.7
285.399	585.4
285.788	579.6
286.176	569.5
286.565	597
286.953	575.5
287.342	577.8
287.731	572.5
288.119	578
288.508	579.9
288.897	583.6
289.286	571
289.675	580.5
290.064	594.7
290.453	581.4
290.821	583.4
291.21	590.3
291.599	578.7
291.989	574.9
292.378	586.8
292.768	603
293.157	586
293.547	591.3
293.936	582.6
294.326	572
294.716	578.5
295.106	578.9
295.496	582.9
295.886	594.5
296.276	580.7
296.666	574.5
297.056	580.8
297.446	569.5
297.836	596.1
298.227	574.3
298.617	581.4
299.008	594.4
299.398	583.4
299.789	570.8
300.179	591.6
300.57	595.6
300.961	574.7
301.352	577
301.742	591.2
302.133	583.1
302.524	584.4
302.915	582.4
303.307	573.8
303.698	591.3
304.089	585.4
304.48	576.9
304.872	585.9
305.263	586.8
305.655	580.4
306.046	583.3
306.438	583.5
306.829	579.5
307.221	596.1
307.613	588.9
308.005	589.5
308.397	597.6
308.789	603.8
309.181	603.9
309.573	606.6
309.965	593.4
310.357	580.3
310.749	586.8
311.142	574.2
311.534	577.6
311.926	586.5
312.319	582.9
312.711	576.9
313.104	590.1
313.497	576.6
313.889	618.5
314.282	594.8
314.675	609.5
315.068	590.2
315.461	592.7
315.854	614.3
316.247	590.3
316.64	581.7
317.033	585.2
317.405	586.6
317.798	578.6
318.192	586.9
318.585	576.6
318.979	586.8
319.372	574.1
319.766	581.3
320.16	593.9
320.553	590.7
320.947	598.6
321.341	577.9
321.735	582.1
322.129	576.6
322.523	608.2
322.917	576.6
323.311	594.2
323.705	587.5
324.099	590.3
324.494	593.3
324.888	595.8
325.282	581.4
325.677	589.2
326.071	592.6
326.466	599
326.861	588.9
327.255	597.9
327.65	595.5
328.045	599.3
328.44	588.9
328.835	581.1
329.23	575.6
329.625	604.1
330.02	575.8
330.415	600.3
330.81	585.3
331.206	582.1
331.601	582.5
331.996	593.4
332.37	591
332.766	578.9
333.161	610.2
333.557	578.2
333.953	581.1
334.348	997.1
334.744	583.8
335.14	579
335.536	579.6
335.932	590.4
336.328	583.2
336.724	591.7
337.12	582.6
337.516	586.6
337.913	580.2
338.309	596.9
338.705	589.2
339.102	590
339.498	577.1
339.895	599.2
340.291	584.1
340.688	591.8
341.085	575
341.481	585.7
341.878	583.8
342.275	604
342.672	574.7
343.069	582.7
343.466	574
343.842	589
344.239	574.5
344.636	578.3
345.033	578.2
345.431	576.8
345.828	581.6
346.225	574.6
346.623	592.6
347.02	581.9
347.418	585.8
347.816	597.3
348.213	572
348.611	586.1
349.009	578.3
349.407	594.4
349.805	571.3
350.203	570.4
350.601	592.2
350.999	574.8
351.397	569.9
351.795	583.3
352.193	584.8
352.57	588.7
352.969	587.7
353.367	568.1
353.766	576.7
354.164	573.9
354.563	590.2
354.961	576.9
355.36	575.5
355.759	576.8
356.158	569.5
356.557	571.9
356.956	568.4
357.355	566
357.754	580.2
358.153	581.8
358.552	600.5
358.951	582.6
359.35	590.6
359.75	576.8
360.149	577.1
360.527	566.6
360.926	568.6
361.326	580.1
361.726	573.5
362.125	572.8
362.525	582.3
362.925	575.7
363.325	579.3
363.724	580
364.124	574.2
364.524	574.6
364.924	574.8
365.324	584.3
365.725	563.5
366.125	584
366.525	574.2
366.904	574.9
367.304	559.4
367.705	597.7
368.105	590.3
368.506	570.4
368.906	580.7
369.307	576.2
369.708	579.3
370.108	564.8
370.509	588.9
370.91	570.5
371.311	573.8
371.712	578.7
372.113	573
372.514	565.4
372.894	571.7
373.295	566.4
373.696	582.8
374.097	581.4
374.499	608.1
374.9	574.5
375.301	565.2
375.703	577.4
376.105	571.7
376.506	576.4
376.908	580.1
377.309	574
377.711	577.4
378.113	572.8
378.493	575.3
378.895	573.6
379.297	581.2
379.699	569
380.102	583.4
380.504	580.3
380.906	574.4
381.308	603.8
381.71	575
382.113	581.2
382.515	573.7
382.918	577.9
383.299	577.4
383.701	577
384.104	581.1
384.507	560
384.909	570.9
385.312	565.8
385.715	560.7
386.118	569.5
386.521	567.3
386.924	585.7
387.327	567.4
387.709	560.3
388.112	563.2
388.515	568.1
388.918	571.8
389.322	581.2
389.725	568.4
390.129	593.5
390.532	577.5
390.936	567.5
391.339	567
391.743	578.1
392.125	565.7
392.529	580.8
392.933	588.5
393.337	578.5
393.74	575.2
394.144	574
394.548	577.4
394.953	571.8
395.357	574.7
395.761	574.7
396.144	576.9
396.548	579.1
396.952	574.8
397.357	578.5
397.761	571.2
398.166	564.8
398.57	568.4
398.975	572.2
399.379	574.2
399.763	620.4
400.168	577.4
400.572	573.3
400.977	568.8
401.382	588.3
401.787	579.6
402.192	592.1
402.597	587.7
403.002	562
403.386	589
403.791	590.4
404.197	566.2
404.602	571
405.007	576.8
405.413	568.8
405.818	563.4
406.224	569.7
406.608	572.3
407.014	562.1
407.42	588.2
407.825	565.4
408.231	583
408.637	579.5
409.043	593.9
409.449	571.8
409.834	563.4
410.24	574.4
410.646	582.8
411.052	589.8
411.458	578.8
411.865	586.1
412.271	580.7
412.677	576.1
413.062	574.8
413.469	568.9
413.875	602.8
414.282	588.7
414.689	575.5
415.095	583.4
415.502	570.3
415.888	577.2
416.294	562.4
416.701	615.2
417.108	573.4
417.515	586.5
417.923	572.4
418.33	595.6
418.715	579.3
419.123	571
419.53	575.6
419.937	573.8
420.345	593
420.752	572.9
421.16	586.4
421.546	573.9
421.953	584.8
422.361	563
422.769	574.6
423.177	567.9
423.585	603.9
423.992	594.5
424.379	588.2
424.787	588.5
425.195	601.2
425.603	578.6
426.011	591.7
426.419	588.2
426.806	584.2
427.214	586.4
427.623	586.7
428.031	592.6
428.44	583.4
428.848	588.8
429.235	596.3
429.644	583.6
430.053	584.2
430.461	601.7
430.87	613.1
431.279	607.4
431.666	593.8
432.075	600.8
432.484	614.6
432.893	615.4
433.302	645.2
433.711	673.9
434.099	647
434.508	646.5
434.918	654.4
435.327	684.6
435.737	691.5
436.125	709.1
436.534	728.2
436.944	739.7
437.353	754.2
437.763	791.9
438.173	776.1
438.561	824.8
438.971	806.5
439.381	840.5
439.791	858.3
440.201	846.8
440.589	890.8
440.999	915.5
441.409	930.4
441.819	938
442.23	957.1
442.619	969.8
443.029	978.1
443.439	992.2
443.85	1011.6
444.26	1036.2
444.649	1044.9
445.06	1059.1
445.471	1061
445.881	1077.8
446.292	1101.6
446.682	1108.5
447.092	1081.4
447.503	1160.5
447.914	1114.3
448.325	1130.4
448.715	1136.2
449.126	1144.7
449.537	1152.3
449.948	1160.7
450.338	1184.8
450.75	1185.2
451.161	1174.8
451.572	1190
451.984	1186.4
452.374	1167.3
452.786	1201.6
453.197	1202.1
453.609	1218.7
453.999	1215
454.411	1219
454.823	1236.2
455.235	1237.1
455.647	1232.3
456.037	1238.9
456.449	1231.5
456.862	1239.8
457.274	1245.3
457.665	1237.8
458.077	1252.4
458.489	1249
458.902	1245.9
459.293	1239.6
459.705	1247
460.118	1247
460.53	1245.8
460.921	1241.1
461.334	1243.3
461.747	1254.1
462.16	1254.8
462.551	1256.9
462.964	1252.1
463.377	1234.6
463.79	1234.4
464.182	1241.8
464.595	1243.7
465.008	1242.9
465.421	1248.6
465.813	1222.9
466.226	1234.9
466.64	1228.6
467.053	1267.4
467.445	1237.8
467.859	1223.7
468.272	1224.5
468.686	1230.5
469.078	1223.2
469.492	1199.7
469.906	1223.7
470.298	1218.2
470.712	1218.7
471.126	1245.5
471.54	1213
471.933	1207
472.347	1210
472.761	1207.3
473.175	1187.1
473.568	1189.9
473.982	1196.3
474.397	1195.6
474.79	1197.5
475.204	1200
475.619	1185.2
476.033	1191.8
476.426	1196.7
476.841	1177
477.256	1195.2
477.649	1176.3
478.064	1168.1
478.479	1160
478.872	1162.5
479.287	1150.2
479.702	1144.2
480.118	1149.5
480.511	1158
480.927	1125.3
481.342	1134
481.736	1149.1
482.151	1143.8
482.566	1149.4
482.96	1133.2
483.376	1140
483.792	1118.3
484.186	1137.8
484.602	1106.7
485.017	1123.4
485.412	1120.7
485.827	1115.3
486.243	1117.7
486.638	1124.6
487.054	1120.1
487.47	1121.2
487.865	1100.8
488.281	1085.7
488.697	1089.8
489.092	1095.9
489.508	1088.8
489.925	1091.2
490.32	1076.7
490.736	1078.9
491.153	1070.6
491.548	1069.4
491.964	1076.1
492.381	1054.3
492.776	1056.3
493.193	1055.6
493.61	1063.1
494.006	1048.1
494.422	1051.5
494.84	1029.7
495.235	1043.4
495.652	1025.3
496.069	1028.7
496.465	1025.4
496.883	1018.2
497.3	1034.9
497.696	1005.8
498.113	1018.5
498.509	1000.7
498.927	986.5
499.344	994.5
499.741	999.2
500.158	999.7
500.576	995.8
500.973	986.8
501.39	971
501.787	979.4
502.205	971.4
502.623	960.2
503.02	958.7
503.438	953
503.856	961.4
504.253	955.5
504.671	956
505.068	941
505.486	933.8
505.905	953.6
506.302	932.2
506.72	941.3
507.118	924.1
507.536	927.9
507.955	913.9
508.352	925
508.771	927.3
509.169	920.1
509.587	903.7
510.006	908
510.404	889.4
510.823	889.3
511.221	898.2
511.64	892.6
512.038	906.5
512.457	887.2
512.877	888.7
513.275	877.4
513.694	873.9
514.092	875.3
514.512	881.1
514.91	867
515.33	867.3
515.749	860.8
516.148	860.5
516.568	854.2
516.966	850.2
517.386	843.5
517.785	846.6
518.205	843.1
518.603	836.7
519.024	835.3
519.444	831.5
519.843	841.3
520.263	837.6
520.662	834.5
521.082	824
521.481	826.1
521.902	819.5
522.301	818.3
522.722	816.8
523.121	817.8
523.542	807
523.963	806.4
524.362	807.1
524.783	806.2
525.183	794.1
525.604	803.5
526.003	785.6
526.425	781.8
526.824	790.8
527.246	790.5
527.646	780.3
528.067	775.9
528.467	778.6
528.888	777.2
529.289	769.9
529.71	764.5
530.11	760.4
530.532	764.5
530.932	749.3
531.354	746.5
531.755	782.9
532.176	765.1
532.577	750.1
532.999	750.7
533.4	740.8
533.822	757.5
534.223	740.1
534.645	746.1
535.046	740.2
535.468	742.6
535.869	754.3
536.292	729.6
536.693	727.6
537.115	735
537.516	718.8
537.939	731.4
538.34	737.7
538.742	737.6
539.165	724.5
539.566	730.3
539.989	714.9
540.391	714
540.814	721.4
541.216	714.7
541.639	723
542.041	725.9
542.464	710.1
542.866	705.4
543.268	698.9
543.691	719.1
544.093	710.6
544.517	724.8
544.919	696.6
545.343	727.3
545.745	696.5
546.147	701.4
546.571	690.6
546.974	692.2
547.398	700.7
547.8	705.9
548.224	690.3
548.627	679.5
549.03	694.3
549.454	679.8
549.857	675.2
550.281	674.9
550.684	680.3
551.087	693.1
551.512	687.9
551.915	684.1
552.34	678.9
552.743	675.1
553.146	678.1
553.571	671.5
553.975	694
554.399	665.4
554.803	721.7
555.207	661.8
555.632	670
556.036	667.9
556.461	664.1
556.865	660.8
557.268	652.5
557.694	664.3
558.098	658.3
558.502	660.7
558.927	656.3
559.332	649
559.736	654.5
560.162	655
560.566	651.3
560.992	653.1
561.396	642.9
561.801	646
562.227	651.1
562.631	645.7
563.036	639.9
563.462	652.4
563.867	647.4
564.272	632.3
564.698	646.6
565.103	626.1
565.508	659
565.935	638.7
566.34	637.9
566.745	646.8
567.172	634.7
567.577	653.7
567.982	648.5
568.409	643.4
568.815	630.3
569.22	637.1
569.626	637.1
570.053	622
570.459	632.5
570.865	632.7
571.292	638
571.698	630.4
572.104	616.7
572.531	619.7
572.937	635.1
573.343	624.2
573.75	626.3
574.177	623
574.583	626.8
574.99	617.3
575.396	627.5
575.824	619.8
576.231	623.6
576.637	617.4
577.065	638.6
577.472	609.2
577.879	612.9
578.286	623.5
578.714	604.9
579.121	612
579.528	617.5
579.935	623.7
580.364	607.6
580.771	598.4
581.178	599.8
581.585	613.2
582.014	616.1
582.421	603.6
582.829	609
583.236	616.9
583.644	595.8
584.073	601.2
584.481	605.7
584.889	600.1
585.296	611.5
585.726	607.4
586.134	599.7
586.542	599.5
586.95	623
587.358	598.7
587.787	603.1
588.196	590.8
588.604	603.5
589.012	600.9
589.421	588.6
589.851	591.2
590.259	599.3
590.668	593.7
591.076	629.3
591.485	589.3
591.894	594
592.324	608
592.733	603.5
593.142	579.8
593.551	592.5
593.96	604.1
594.369	579.3
594.8	581.7
595.209	587.7
595.618	574.2
596.028	583.8
596.437	579.9
596.847	592.1
597.256	595.7
597.687	591.4
598.097	585.3
598.507	577.2
598.917	588
599.327	596.1
599.736	588.4
600.146	594.4
600.556	585.8
600.988	594.2
601.398	583.2
601.808	590.1
602.219	567.6
602.629	585.2
603.039	583
603.45	606.4
603.86	580.4
604.271	596
604.703	581.6
605.114	577.8
605.525	579.8
605.935	584.7
606.346	602
606.757	584.2
607.168	573
607.579	570.4
607.99	584.7
608.402	577.8
608.813	581.5
609.224	569
609.636	562.6
610.047	566.4
610.48	580.9
610.892	577.5
611.303	577
611.715	577.9
612.127	565.9
612.539	576.2
612.95	576.8
613.362	559.6
613.774	562.5
614.186	567.4
614.599	570
615.011	580.2
615.423	565
615.835	570.5
616.248	567.5
616.66	576.4
617.073	569.6
617.485	571.5
617.898	582
618.311	573.6
618.723	571.9
619.136	594.2
619.549	583.6
619.962	596.3
620.375	571.4
620.788	575.8
621.201	563.9
621.614	579.2
622.028	572.1
622.441	577.8
622.854	580.6
623.268	563
623.681	581.4
624.095	575.8
624.509	582.4
624.922	579.1
625.336	563.9
625.728	573.9
626.142	580.6
626.556	589.2
626.97	580.6
627.384	569
627.799	570.9
628.213	577.7
628.627	570.5
629.041	569.8
629.456	564.1
629.87	566.3
630.285	579
630.699	576.9
631.093	570.7
631.507	573.9
631.922	571.3
632.337	584.5
632.752	563
633.167	568.4
633.582	566.8
633.997	566
634.412	563.2
634.806	561.1
635.221	559.9
635.637	573.4
636.052	560.7
636.468	572.2
636.883	588.1
637.299	567
637.715	553.6
638.109	569.1
638.525	555.1
638.941	576.5
639.357	563.8
639.773	575.4
640.189	559.8
640.584	561.5
641	566.4
641.416	550.4
641.832	557.3
642.249	562.9
642.665	563.7
643.06	566.8
643.477	570.8
643.894	549.5
644.31	558.6
644.727	559.3
645.123	561
645.54	556.2
645.957	564.3
646.374	567.5
646.77	563.5
647.187	589.6
647.604	567.6
648.021	548.1
648.439	555.5
648.835	564.5
649.252	568.1
649.67	559.7
650.088	556.9
650.484	562.8
650.902	571.1
651.32	571.9
651.738	556.5
652.134	565.8
652.552	576.8
652.971	576.8
653.389	561.1
653.786	581.4
654.204	564.4
654.622	551.1
655.019	564.3
655.438	563.8
655.857	562.2
656.275	567.4
656.673	554.9
657.091	621.4
657.51	564
657.908	572.2
658.327	573.1
658.746	551.8
659.144	562.1
659.563	567.8
659.982	563.6
660.38	552.1
660.8	559.3
661.219	569.6
661.617	567.9
662.037	560.7
662.457	573.4
662.855	545.5
663.275	589
663.695	561.4
664.094	560.5
664.514	567.6
664.934	557.9
665.333	561.2
665.753	559
666.152	553.8
666.572	549.2
666.993	569.7
667.392	560.7
667.812	563.2
668.212	556.4
668.632	573.6
669.053	558.2
669.453	568
669.874	563.4
670.273	563.7
670.694	553.7
671.116	568
671.515	567.4
671.937	558.6
672.337	552.1
672.758	554.9
673.158	563.1
673.58	551.9
673.98	562.6
674.402	567.3
674.824	557.3
675.224	553.2
675.646	550.9
676.047	549.5
676.469	560.2
676.869	562.3
677.292	561.4
677.693	549.8
678.115	552.2
678.516	556.4
678.939	563.8
679.34	560.1
679.762	573.4
680.164	561.6
680.586	547.1
680.988	562
681.411	576.7
681.812	555.5
682.236	551.1
682.637	555
683.061	546.2
683.462	559.5
683.864	551.4
684.288	562
684.69	548.6
685.114	564.8
685.516	560.8
685.94	549
686.342	558.5
686.766	554.7
687.168	554
687.571	576.8
687.995	552.7
688.398	550.1
688.822	553.3
689.225	569.4
689.628	573.7
690.052	557.4
690.456	558.8
690.88	556.6
691.284	547.2
691.687	567
692.112	550.3
692.515	554.3
692.919	555.6
693.344	561.8
693.747	552.7
694.173	550.4
694.577	565.3
694.98	553.7
695.406	547.5
695.81	559
696.214	564.4
696.64	560.5
697.044	556.7
697.448	563
697.874	551.2
698.279	558.9
698.684	542.6
699.11	549.1
699.514	551.9
699.919	549.2
700.324	545.9
700.75	552.4
701.156	552.3
701.561	567.7
701.987	562.3
702.393	562.9
702.798	561.9
703.203	554.2
703.63	551.1
704.036	549
704.442	555.3
704.847	547.7
705.274	551.7
705.68	560.1
706.086	560.5
706.492	547.2
706.92	549.5
707.326	554.8
707.732	549.2
708.139	545.5
708.545	543.7
708.973	547.4
709.38	555.9
709.786	545.5
710.193	565.4
710.6	555.7
711.028	545.8
711.435	553.6
711.842	551.8
712.249	549.1
712.656	549.9
713.064	556.4
713.492	550.2
713.9	548.8
714.307	556.7
714.715	551
715.123	557.3
715.53	558.1
715.938	562.4
716.367	559.7
716.775	551.8
717.184	551.8
717.592	548
718	560.4
718.408	585.8
718.816	593.9
719.225	556.8
719.633	558.2
720.042	547.7
720.472	555.8
720.881	571.3
721.29	554.4
721.699	544.2
722.108	554.3
722.517	554.3
722.926	551
723.335	567.1
723.744	551.4
724.154	553.2
724.563	554.2
724.973	557
725.382	554.3
725.792	546.7
726.202	547.8
726.612	561.6
727.022	550.9
727.432	545.8
779.813	552.3
780.223	593.3
780.634	549.2
781.044	544.5
781.454	554.8
781.865	561.1
782.276	541.8
782.686	560.9
783.097	550.3
783.508	546.8
783.919	555.4
784.33	564.4
784.741	560.3
785.152	551.7
785.563	540.1
785.974	542.3
786.386	563
786.776	551.1
787.188	553.7
787.599	545
788.011	553.3
788.423	555.5
788.835	545
789.247	539
789.659	547.5
790.071	546.2
790.483	588.9
790.874	544.8
791.286	556
791.699	548.4
792.111	549.9
792.524	552.8
792.937	550.9
793.349	545.6
793.741	546.5
794.154	549.9
794.567	570.8
794.98	546.5
795.393	542.9
795.785	567.1
796.198	549.9
796.612	555.6
797.026	544.3
797.439	534.9
797.831	545.2
798.245	541.6
798.659	546.2
799.073	546.2
799.487	544.5
799.88	554.6
800.294	543.3
800.708	551.5
801.123	552.2
801.516	568
801.93	537.8
802.345	536.6
802.76	552.7
803.153	563.3
803.568	567.6
803.983	564.4
804.377	549.7
804.792	541.3
805.207	540.3
805.601	552.6
806.016	576.6
806.432	544.1
806.826	573.4
807.242	563.3
807.658	553.1
808.052	550.6
808.468	544.9
808.884	544.6
809.279	552.2
809.695	564.8
810.111	572.5
810.506	557.8
810.922	569.7
811.339	545.5
811.734	557.6
812.151	545.4
812.546	546.6
812.963	545.6
813.38	559.3
813.776	549.5
814.193	572
814.589	548.8
815.006	548.3
815.402	544.6
815.82	549
816.237	548.1
816.633	548.6
817.051	536.7
817.448	552.2
817.866	543.5
818.262	567.5
818.68	541.8
819.077	544
819.495	547.2
819.892	588.5
820.311	542
820.708	544.7
821.127	542.4
821.524	554.6
821.943	550.5
822.34	562.5
822.759	549.6
823.157	550.1
823.576	560
823.974	557.9
824.393	562.6
824.791	552.8
825.189	539.8
825.609	547.7
826.007	546
826.427	537
826.826	548
827.246	557.4
827.644	538.6
828.043	561.2
828.463	539.8
828.862	557.5
829.261	557.1
829.682	539.7
830.081	554.1
830.502	540.5
830.901	545.5
831.301	539.2
831.722	537.9
832.121	550.8
832.521	544.1
832.943	544.4
833.342	550.6
833.742	541
834.164	542.2
834.564	543.2
834.965	544.5
835.386	549.2
835.787	547.4
836.188	545.4
836.588	550.8
837.01	545.7
837.411	543.8
837.812	554.3
838.213	548.2
838.636	545.4
839.037	616.4
839.438	554.7
839.84	551.8
840.263	554
840.664	549.2
841.066	550.1
841.468	550.4
841.891	544
842.293	554.7
842.695	550
843.098	556.9
843.5	548.9
843.902	549.2
844.326	552.6
