#lambda/nm	C1
208.295	482.1
208.67	445.1
209.045	409.1
209.419	415.6
209.794	599.8
210.169	577.1
210.544	695
210.919	596.3
211.295	582
211.67	590.3
212.045	582.5
212.421	585.7
212.796	627
213.172	589.6
213.547	588
213.923	587.9
214.299	585.9
214.675	592.4
215.051	592.3
215.427	599.6
215.803	609.1
216.179	589.2
216.555	583.3
216.932	588.9
217.308	595
217.684	591.3
218.061	598.7
218.438	594.9
218.814	586.2
219.191	595.2
219.568	584.3
219.945	585
220.322	594.3
220.699	591.3
221.076	596.6
221.453	593.7
221.83	581
222.208	582.8
222.585	578.9
222.962	595.6
223.34	592.1
223.717	590.1
224.095	585.1
224.473	591.6
224.851	583.3
225.229	582.7
225.607	604.9
225.985	576
226.363	591.1
226.741	592.1
227.119	588.8
227.497	601.7
227.876	579.6
228.254	598.4
228.633	592.4
229.011	594.6
229.39	593.3
229.769	589.1
230.148	595.7
230.527	607.7
230.905	593.5
231.284	595
231.664	586.6
232.043	609.9
232.422	600.3
232.801	584.6
233.181	597.7
233.56	589.4
233.94	592.5
234.319	583.1
234.699	585.3
235.079	630.1
235.458	627.1
235.838	609
236.218	586
236.598	581.3
236.978	588.8
237.358	586.7
237.738	588
238.119	602.8
238.499	583.2
238.88	591.8
239.26	609.2
239.641	583.5
240.021	586.4
240.402	590.9
240.783	587.9
241.163	587.1
241.544	590.1
241.925	589.5
242.306	602.7
242.687	585.8
243.069	592.3
243.45	600.9
243.831	589.9
244.212	588.2
244.594	627.7
244.975	601
245.357	595.4
245.739	590.1
246.12	594.4
246.502	605.1
246.884	588.4
247.266	589.1
247.648	595.6
248.03	608.1
248.412	594.7
248.794	595.5
249.176	588.8
249.559	599.6
249.941	581.6
250.323	581
250.706	584.4
251.089	590.4
251.471	591.4
251.854	589.1
252.237	588.4
252.62	600.7
253.002	591.7
253.385	591.8
253.769	602
254.152	591.7
254.535	600.7
254.918	581
255.301	590.4
255.685	585.1
256.068	581.3
256.452	611.2
256.835	595.8
257.219	600.2
257.603	611.3
257.986	582.4
258.37	594.7
258.754	581.1
259.138	597.2
259.522	597.4
259.906	587.3
260.29	592.5
260.675	589.2
261.059	595
261.443	580.5
261.828	597
262.212	596.1
262.597	578
262.981	592
263.366	601.6
263.751	594.6
264.136	582.9
264.521	595.4
264.906	580.2
265.291	604.4
265.676	586.2
266.061	598.9
266.446	615.7
266.831	598
267.217	606
267.602	594
267.987	595.5
268.373	588.1
268.759	597.2
269.144	598.5
269.53	591.4
269.916	590.1
270.302	584.5
270.688	595.3
271.074	597.8
271.46	601.1
271.846	622.6
272.232	593.7
272.618	585.6
273.004	587.8
273.391	607.3
273.777	605.7
274.164	597.4
274.55	611.5
274.937	597.6
275.324	591
275.71	597.6
276.097	601.8
276.484	585.8
276.871	599.3
277.258	598.4
277.645	584.4
278.032	586
278.419	584.4
278.807	596.2
279.194	588.1
279.581	588.1
279.969	593.9
280.356	592.1
280.744	590.3
281.131	614.9
281.519	600.1
281.907	585
282.295	592
282.682	604.2
283.07	592.3
283.458	597.7
283.846	602.2
284.235	610
284.623	603.9
285.011	582.1
285.399	591.9
285.788	587.8
286.176	577.4
286.565	606.7
286.953	588.2
287.342	590.3
287.731	586.8
288.119	582.1
288.508	590.9
288.897	589.3
289.286	584.6
289.675	588.9
290.064	604.1
290.453	592.7
290.821	596.3
291.21	607.2
291.599	584.7
291.989	591.3
292.378	600.2
292.768	610.4
293.157	597.9
293.547	603
293.936	588
294.326	587.5
294.716	591.4
295.106	586.4
295.496	592.9
295.886	601.8
296.276	594
296.666	588.8
297.056	586.9
297.446	582.5
297.836	606.3
298.227	595.2
298.617	589.3
299.008	599.8
299.398	588.9
299.789	587.7
300.179	595.9
300.57	605.1
300.961	589.4
301.352	586.2
301.742	597.7
302.133	597.5
302.524	591.9
302.915	594.1
303.307	582.7
303.698	598.6
304.089	593.8
304.48	592.8
304.872	597.1
305.263	589.5
305.655	579.8
306.046	599.5
306.438	593.6
306.829	589.2
307.221	607.1
307.613	599.2
308.005	599.3
308.397	609.4
308.789	616.1
309.181	617.8
309.573	608.7
309.965	607.9
310.357	589.5
310.749	598.3
311.142	581.9
311.534	581.4
311.926	596.8
312.319	584.9
312.711	584.9
313.104	606
313.497	586.7
313.889	631.4
314.282	609.2
314.675	614.7
315.068	598
315.461	598.4
315.854	621.3
316.247	594.4
316.64	588.2
317.033	591.2
317.405	599.4
317.798	592.5
318.192	598
318.585	581.4
318.979	602.3
319.372	588.1
319.766	587.8
320.16	603
320.553	609.6
320.947	608.5
321.341	591.5
321.735	595.1
322.129	577.9
322.523	618.6
322.917	584
323.311	598.9
323.705	590.8
324.099	594.9
324.494	605
324.888	600.2
325.282	589.3
325.677	598
326.071	597.6
326.466	604.9
326.861	598.9
327.255	604.3
327.65	603.2
328.045	605.7
328.44	595.8
328.835	593.2
329.23	589.9
329.625	621.4
330.02	591.1
330.415	612.9
330.81	592.4
331.206	597.8
331.601	588.2
331.996	603
332.37	608.1
332.766	585.1
333.161	614.1
333.557	595
333.953	590.2
334.348	940.7
334.744	592.5
335.14	584.1
335.536	587.2
335.932	609.2
336.328	588.1
336.724	606.1
337.12	593.4
337.516	595.4
337.913	599.9
338.309	607.2
338.705	594.8
339.102	606.1
339.498	587.7
339.895	606.4
340.291	589.4
340.688	600.8
341.085	590
341.481	591.6
341.878	592.4
342.275	613.5
342.672	588.4
343.069	589.8
343.466	579.3
343.842	601.7
344.239	586.3
344.636	589
345.033	584.2
345.431	583.8
345.828	591.1
346.225	584.2
346.623	596.2
347.02	587.1
347.418	607.2
347.816	602.9
348.213	582.7
348.611	596.7
349.009	584
349.407	603.3
349.805	578
350.203	576.7
350.601	602.3
350.999	588.9
351.397	591.3
351.795	590.7
352.193	604.7
352.57	603.1
352.969	607.8
353.367	582.6
353.766	579.5
354.164	588.1
354.563	600
354.961	589.3
355.36	584.5
355.759	589.6
356.158	586.1
356.557	584.6
356.956	580.6
357.355	575.7
357.754	597.9
358.153	599.3
358.552	615.5
358.951	591.2
359.35	596
359.75	585.8
360.149	577.3
360.527	575.9
360.926	576.8
361.326	588.2
361.726	589.7
362.125	577.6
362.525	587.7
362.925	586
363.325	590
363.724	588.4
364.124	584.7
364.524	585.1
364.924	589.1
365.324	599.1
365.725	575
366.125	593.7
366.525	587.5
366.904	582.8
367.304	571.1
367.705	601.5
368.105	602.4
368.506	584
368.906	591.6
369.307	588.7
369.708	594.2
370.108	575.6
370.509	594.7
370.91	576.8
371.311	589
371.712	592
372.113	584.6
372.514	573.7
372.894	580.7
373.295	585.4
373.696	595.5
374.097	590.6
374.499	613
374.9	586.4
375.301	577.3
375.703	587.3
376.105	576.6
376.506	591.2
376.908	587
377.309	587.5
377.711	587.5
378.113	580
378.493	590.3
378.895	588.2
379.297	592.5
379.699	576.3
380.102	589.4
380.504	591.3
380.906	581.1
381.308	608.5
381.71	588.8
382.113	595.1
382.515	585.5
382.918	590.1
383.299	582.4
383.701	588.3
384.104	590.2
384.507	568.1
384.909	579.8
385.312	573.1
385.715	573
386.118	581
386.521	574.7
386.924	595.7
387.327	581.7
387.709	577.3
388.112	563.7
388.515	582.9
388.918	584.2
389.322	590.1
389.725	580.5
390.129	596.6
390.532	587.8
390.936	579.5
391.339	579.1
391.743	587.6
392.125	579.3
392.529	591.4
392.933	591.5
393.337	589.7
393.74	582.1
394.144	582.7
394.548	585.6
394.953	581.9
395.357	589.4
395.761	581.5
396.144	584.3
396.548	583.9
396.952	583.7
397.357	583.7
397.761	578.8
398.166	582.3
398.57	580
398.975	572.8
399.379	583.4
399.763	631.3
400.168	584
400.572	579.2
400.977	582.5
401.382	597.9
401.787	592
402.192	599.4
402.597	603
403.002	573.1
403.386	596.3
403.791	600.2
404.197	580.3
404.602	582.5
405.007	581.1
405.413	581.6
405.818	578
406.224	577.5
406.608	580.2
407.014	575.5
407.42	600.8
407.825	578.4
408.231	591.8
408.637	580.6
409.043	596.3
409.449	578.6
409.834	573.9
410.24	589.3
410.646	587.2
411.052	592.2
411.458	585.7
411.865	592.8
412.271	594.4
412.677	582.7
413.062	588.1
413.469	580.5
413.875	613.5
414.282	597.7
414.689	583.5
415.095	591.8
415.502	579.7
415.888	589.2
416.294	570.1
416.701	620
417.108	574.2
417.515	595.5
417.923	581.4
418.33	607.7
418.715	589.6
419.123	583.6
419.53	582.1
419.937	587.6
420.345	593.7
420.752	589.6
421.16	597.8
421.546	585.9
421.953	598.8
422.361	576.8
422.769	585.5
423.177	583.2
423.585	604.6
423.992	606.4
424.379	595.8
424.787	589.3
425.195	609.6
425.603	592.9
426.011	598.7
426.419	600
426.806	585.3
427.214	592.6
427.623	602.9
428.031	603
428.44	595.4
428.848	598.2
429.235	605.5
429.644	590.4
430.053	596
430.461	603.6
430.87	619.4
431.279	607.2
431.666	590.7
432.075	600.1
432.484	604.1
432.893	603.4
433.302	623.7
433.711	651.9
434.099	620.9
434.508	615.9
434.918	618.7
435.327	644.2
435.737	639.7
436.125	648.5
436.534	656.2
436.944	672.4
437.353	680.9
437.763	703.7
438.173	683.1
438.561	714.1
438.971	693.4
439.381	719
439.791	734.5
440.201	722.7
440.589	750.8
440.999	766.9
441.409	769.3
441.819	769.4
442.23	802.6
442.619	806.5
443.029	808
443.439	823.4
443.85	842.2
444.26	851.2
444.649	852.9
445.06	856.9
445.471	856.3
445.881	865.4
446.292	892
446.682	897.4
447.092	865.9
447.503	937.7
447.914	901.3
448.325	910.1
448.715	917.2
449.126	916
449.537	925.4
449.948	933.1
450.338	927.8
450.75	925.5
451.161	933.4
451.572	949.3
451.984	935.7
452.374	930.9
452.786	946.2
453.197	960.3
453.609	967.1
453.999	944.2
454.411	951.7
454.823	965.5
455.235	976.8
455.647	960.5
456.037	976.8
456.449	953.6
456.862	968.1
457.274	977.3
457.665	969.4
458.077	986.6
458.489	989.3
458.902	975.8
459.293	973.9
459.705	978.9
460.118	976.9
460.53	980.4
460.921	981.3
461.334	981.5
461.747	971.7
462.16	994.2
462.551	994.1
462.964	978.7
463.377	968.6
463.79	978.1
464.182	986.7
464.595	969.7
465.008	980.7
465.421	985.2
465.813	977.8
466.226	983.4
466.64	981.1
467.053	1015.5
467.445	992.9
467.859	974.4
468.272	976.3
468.686	980.7
469.078	975.7
469.492	956.9
469.906	966.2
470.298	978.9
470.712	957.1
471.126	995.3
471.54	958.5
471.933	960.9
472.347	967
472.761	954.6
473.175	952.1
473.568	946.7
473.982	946.6
474.397	953.7
474.79	950
475.204	957.9
475.619	951.7
476.033	947.8
476.426	962
476.841	946.9
477.256	965
477.649	947.8
478.064	939.4
478.479	936.3
478.872	934.9
479.287	911.3
479.702	930.2
480.118	934.1
480.511	932.8
480.927	925.1
481.342	933
481.736	929.6
482.151	913.6
482.566	929.5
482.96	917
483.376	926.9
483.792	911.1
484.186	912.6
484.602	912.1
485.017	906.8
485.412	899.2
485.827	908.5
486.243	902.4
486.638	927.6
487.054	907.3
487.47	915.9
487.865	896.4
488.281	898.9
488.697	899
489.092	884.8
489.508	881.6
489.925	900.9
490.32	890.3
490.736	894.5
491.153	897.7
491.548	884.8
491.964	892.2
492.381	879.1
492.776	878.8
493.193	871.9
493.61	876.5
494.006	876.5
494.422	874.9
494.84	847.6
495.235	864.4
495.652	860.8
496.069	852.3
496.465	848.8
496.883	853.7
497.3	873.4
497.696	838.1
498.113	850.3
498.509	842.7
498.927	830.1
499.344	833.8
499.741	837.8
500.158	845.7
500.576	841.8
500.973	836.8
501.39	825
501.787	823.1
502.205	823.6
502.623	819.8
503.02	810.3
503.438	817.3
503.856	809.1
504.253	820
504.671	809.6
505.068	809.7
505.486	806.2
505.905	820.4
506.302	806.6
506.72	809.4
507.118	788.3
507.536	794
507.955	787.4
508.352	794.7
508.771	800.5
509.169	799.1
509.587	779.8
510.006	788.9
510.404	768.5
510.823	779.6
511.221	778.5
511.64	771.9
512.038	786.2
512.457	771
512.877	770.6
513.275	758.1
513.694	764.6
514.092	761.1
514.512	764.5
514.91	758.2
515.33	753.1
515.749	756.2
516.148	751.5
516.568	749.7
516.966	750.3
517.386	747.6
517.785	755.9
518.205	745.5
518.603	739.9
519.024	737.8
519.444	734.1
519.843	743.3
520.263	745.9
520.662	735.8
521.082	722.1
521.481	730.3
521.902	723.2
522.301	728.6
522.722	727.1
523.121	721.8
523.542	717.2
523.963	723.6
524.362	720.5
524.783	723.8
525.183	725.1
525.604	724.5
526.003	706.1
526.425	710.3
526.824	716
527.246	714.8
527.646	722
528.067	711.2
528.467	711
528.888	701.8
529.289	697.6
529.71	699.2
530.11	700.3
530.532	692.6
530.932	691.1
531.354	685.5
531.755	729.7
532.176	692.5
532.577	684.7
532.999	690.1
533.4	680.6
533.822	696.4
534.223	679.1
534.645	680.3
535.046	676.7
535.468	683.6
535.869	685.1
536.292	668.2
536.693	678.1
537.115	679.2
537.516	670.6
537.939	673.1
538.34	687.4
538.742	679.7
539.165	677.9
539.566	675.6
539.989	660.2
540.391	668.3
540.814	669.9
541.216	669.7
541.639	666
542.041	670
542.464	669.7
542.866	661
543.268	652.1
543.691	664.9
544.093	670.5
544.517	677.9
544.919	648.4
545.343	677.1
545.745	657.2
546.147	655.5
546.571	651.3
546.974	653.1
547.398	658.6
547.8	666.5
548.224	654.8
548.627	646
549.03	663.1
549.454	643.9
549.857	642
550.281	643.3
550.684	645.1
551.087	660.9
551.512	649.4
551.915	648
552.34	645.1
552.743	641.1
553.146	644.9
553.571	644.8
553.975	661.6
554.399	631.1
554.803	687.4
555.207	642.7
555.632	633.1
556.036	639.7
556.461	626
556.865	639.4
557.268	626.7
557.694	628
558.098	634.8
558.502	634.6
558.927	627.2
559.332	631.4
559.736	628.9
560.162	634
560.566	626.1
560.992	629.2
561.396	628.5
561.801	622.8
562.227	623.4
562.631	624.7
563.036	624.6
563.462	630.4
563.867	625
564.272	609.3
564.698	623.3
565.103	610.2
565.508	641.2
565.935	623.6
566.34	617.5
566.745	629.1
567.172	615.3
567.577	640.2
567.982	624.3
568.409	624
568.815	610.7
569.22	613.4
569.626	624.9
570.053	604.5
570.459	621.3
570.865	624.1
571.292	620.7
571.698	618.5
572.104	605.4
572.531	605.6
572.937	616.5
573.343	610.2
573.75	607.3
574.177	614.1
574.583	615.7
574.99	603.5
575.396	613.8
575.824	604.5
576.231	616
576.637	601.3
577.065	636.7
577.472	600.7
577.879	603.2
578.286	616.3
578.714	593.8
579.121	602.1
579.528	607.7
579.935	611.2
580.364	604.4
580.771	587.1
581.178	597.8
581.585	603.9
582.014	603.3
582.421	594.8
582.829	598
583.236	606.4
583.644	591.1
584.073	596.7
584.481	598.9
584.889	590.4
585.296	601.3
585.726	597.1
586.134	593.4
586.542	593.7
586.95	611.6
587.358	583.1
587.787	597.7
588.196	583.8
588.604	591
589.012	593.6
589.421	582.9
589.851	588.2
590.259	597.9
590.668	585.4
591.076	626.1
591.485	583.6
591.894	588
592.324	596.4
592.733	600.3
593.142	574.5
593.551	585.8
593.96	598.4
594.369	581.6
594.8	583.4
595.209	588
595.618	574.5
596.028	578.9
596.437	578.8
596.847	587.5
597.256	592.1
597.687	589.2
598.097	590.1
598.507	573.9
598.917	586.2
599.327	586.5
599.736	586.1
600.146	594.3
600.556	584
600.988	594.5
601.398	588.1
601.808	593
602.219	573.2
602.629	586.5
603.039	589
603.45	608.4
603.86	581.9
604.271	599.8
604.703	578.3
605.114	578.9
605.525	580.5
605.935	590.3
606.346	602.4
606.757	585
607.168	580.9
607.579	569.8
607.99	587.8
608.402	577.8
608.813	587.5
609.224	576.5
609.636	568.1
610.047	573.4
610.48	577.2
610.892	583.4
611.303	589.9
611.715	574.2
612.127	572.9
612.539	572.4
612.95	582.4
613.362	573.7
613.774	572
614.186	565.9
614.599	581
615.011	583.3
615.423	564
615.835	582.3
616.248	567.2
616.66	582.5
617.073	579.7
617.485	580.1
617.898	583.3
618.311	579.5
618.723	578.7
619.136	609.4
619.549	594.9
619.962	601.4
620.375	574.6
620.788	583.8
621.201	573.9
621.614	581.3
622.028	578.5
622.441	583.7
622.854	593.2
623.268	571.4
623.681	580
624.095	580.6
624.509	585.7
624.922	580.9
625.336	570.4
625.728	582
626.142	589.4
626.556	593.1
626.97	577.4
627.384	571.1
627.799	580.3
628.213	581
628.627	572.8
629.041	574.1
629.456	563.8
629.87	568.2
630.285	582.2
630.699	585.2
631.093	576.6
631.507	581.9
631.922	577.7
632.337	592.7
632.752	564.2
633.167	564.4
633.582	574.3
633.997	575.6
634.412	568.5
634.806	571.8
635.221	562.5
635.637	579.1
636.052	563.7
636.468	575.6
636.883	588
637.299	582.3
637.715	560
638.109	575.8
638.525	558
638.941	586.9
639.357	574.9
639.773	584.2
640.189	571.7
640.584	577.1
641	573.5
641.416	565.6
641.832	575.6
642.249	566.9
642.665	572.4
643.06	575.5
643.477	579.7
643.894	562.3
644.31	565.8
644.727	575.3
645.123	569.6
645.54	563.2
645.957	573.1
646.374	575.1
646.77	570.4
647.187	600.4
647.604	570.4
648.021	558.6
648.439	566.2
648.835	570.9
649.252	568.9
649.67	569.4
650.088	572.3
650.484	578.7
650.902	575
651.32	572.3
651.738	566.9
652.134	581.1
652.552	588.7
652.971	580.6
653.389	572.6
653.786	580
654.204	574.5
654.622	562.6
655.019	570.1
655.438	566.7
655.857	573.2
656.275	575.2
656.673	566.7
657.091	635.8
657.51	569.3
657.908	579.3
658.327	582.4
658.746	559.5
659.144	568.3
659.563	580.9
659.982	576.4
660.38	561.7
660.8	571.4
661.219	581.9
661.617	571.6
662.037	568.8
662.457	585.1
662.855	553.2
663.275	599
663.695	567.1
664.094	569.3
664.514	575.4
664.934	565
665.333	574.3
665.753	562.6
666.152	562.9
666.572	562.7
666.993	580.2
667.392	562.4
667.812	563.2
668.212	561
668.632	573.6
669.053	565.2
669.453	573.4
669.874	569.2
670.273	568.5
670.694	565.1
671.116	575.5
671.515	580.7
671.937	565.5
672.337	564.9
672.758	567.1
673.158	570
673.58	561.5
673.98	573.4
674.402	577.7
674.824	564.7
675.224	562.3
675.646	553.9
676.047	558.7
676.469	566.4
676.869	569.4
677.292	569.8
677.693	558.4
678.115	558
678.516	576.4
678.939	568.8
679.34	568.1
679.762	579.3
680.164	574.7
680.586	563.6
680.988	569.9
681.411	586.9
681.812	565.1
682.236	556.6
682.637	562.3
683.061	554.8
683.462	565.3
683.864	562.9
684.288	571.9
684.69	557.4
685.114	576.4
685.516	570.9
685.94	552.2
686.342	571
686.766	558.4
687.168	563.5
687.571	585.2
687.995	564.5
688.398	555.6
688.822	560.2
689.225	575.3
689.628	579.4
690.052	562.8
690.456	569.9
690.88	565.3
691.284	559
691.687	576.9
692.112	555.8
692.515	560.9
692.919	564.6
693.344	570.7
693.747	564.3
694.173	559.4
694.577	571.8
694.98	564.6
695.406	561.7
695.81	564.5
696.214	566.6
696.64	568.1
697.044	567.4
697.448	571
697.874	562.6
698.279	567.1
698.684	550.7
699.11	554.2
699.514	557.7
699.919	557.2
700.324	554
700.75	571.2
701.156	563.3
701.561	574.2
701.987	566.4
702.393	574.3
702.798	570.8
703.203	567.1
703.63	560
704.036	561.3
704.442	562.8
704.847	552.8
705.274	566.1
705.68	570
706.086	573
706.492	555.5
706.92	556.1
707.326	568.9
707.732	563.9
708.139	561
708.545	553
708.973	558.2
709.38	561.9
709.786	553
710.193	578.5
710.6	565
711.028	557
711.435	569.4
711.842	566.5
712.249	556.5
712.656	565.6
713.064	573.4
713.492	556.1
713.9	566
714.307	567.8
714.715	564.1
715.123	566.7
715.53	571.7
715.938	575
716.367	564.2
716.775	563.3
717.184	557.9
717.592	565.3
718	575.2
718.408	592.4
718.816	599.5
719.225	563.8
719.633	567.9
720.042	554
720.472	565.8
720.881	581.3
721.29	570.6
721.699	553
722.108	563.2
722.517	564.5
722.926	560.6
723.335	570.4
723.744	562.5
724.154	557.3
724.563	563.1
724.973	558.5
725.382	565.1
725.792	566.4
726.202	558.5
726.612	575.7
727.022	566.3
727.432	567
779.813	559.4
780.223	608.7
780.634	558.2
781.044	553.6
781.454	560.6
781.865	577.8
782.276	554.9
782.686	570.1
783.097	565.8
783.508	559.2
783.919	564.3
784.33	571.5
784.741	580.4
785.152	557.2
785.563	554.2
785.974	554.3
786.386	573.9
786.776	559.3
787.188	559.1
787.599	557.9
788.011	566.1
788.423	562.6
788.835	556
789.247	556.8
789.659	562.6
790.071	561.4
790.483	606.7
790.874	557.9
791.286	570.1
791.699	558.2
792.111	561.6
792.524	565.3
792.937	563.9
793.349	555.4
793.741	557.3
794.154	554.8
794.567	582
794.98	559.3
795.393	549.3
795.785	573.2
796.198	558.1
796.612	563.7
797.026	558.9
797.439	547.8
797.831	562.3
798.245	551
798.659	556.1
799.073	560.9
799.487	552.8
799.88	559.4
800.294	563.2
800.708	566
801.123	560.3
801.516	583.2
801.93	551.5
802.345	548.9
802.76	560.2
803.153	572.8
803.568	576.1
803.983	567.6
804.377	561.6
804.792	553.6
805.207	552.9
805.601	566.3
806.016	593.2
806.432	555.2
806.826	593.3
807.242	574.2
807.658	564.2
808.052	559.5
808.468	560.5
808.884	552.4
809.279	559.5
809.695	569.8
810.111	580.2
810.506	567.1
810.922	576.9
811.339	557.9
811.734	561.4
812.151	557.4
812.546	555.3
812.963	558
813.38	560.4
813.776	563.7
814.193	573.2
814.589	552
815.006	551
815.402	559
815.82	560
816.237	561.1
816.633	561.3
817.051	552.5
817.448	555.5
817.866	550.1
818.262	580.1
818.68	557.6
819.077	555.5
819.495	559.2
819.892	599
820.311	550.1
820.708	554
821.127	551.3
821.524	571.7
821.943	559.6
822.34	575.8
822.759	568.1
823.157	565.7
823.576	573.5
823.974	566.1
824.393	567.8
824.791	560.3
825.189	551.8
825.609	557.5
826.007	564.8
826.427	548.8
826.826	555.9
827.246	561.3
827.644	542.1
828.043	570.4
828.463	554.3
828.862	565
829.261	558.3
829.682	547.6
830.081	571
830.502	550
830.901	562.8
831.301	556
831.722	547.1
832.121	561.8
832.521	558.5
832.943	555.4
833.342	560.4
833.742	556.7
834.164	556.4
834.564	548.7
834.965	563.7
835.386	556.4
835.787	553.4
836.188	559.7
836.588	560.8
837.01	557.8
837.411	551.2
837.812	558.8
838.213	561.8
838.636	556.2
839.037	624.1
839.438	563.3
839.84	564.6
840.263	562.6
840.664	565
841.066	557.3
841.468	565.2
841.891	555
842.293	569.4
842.695	560.3
843.098	571
843.5	556.1
843.902	560.5
844.326	562.8
844.729	560
845.131	575.2
845.534	555.6
845.937	570.5
846.34	571.9
846.764	548.2
847.167	561.3
847.571	550.3
847.974	558.3
848.377	554.6
