#lambda/nm	C1
208.295	477.8
208.67	445.7
209.045	409.6
209.419	412.1
209.794	588.2
210.169	564
210.544	683.1
210.919	587.8
211.295	570.5
211.67	579.1
212.045	575.1
212.421	578.9
212.796	608.2
213.172	574.5
213.547	575
213.923	574.7
214.299	571.3
214.675	584.8
215.051	579.3
215.427	586.3
215.803	600.2
216.179	582.7
216.555	572.3
216.932	585.6
217.308	578.6
217.684	574.4
218.061	587.7
218.438	581.6
218.814	569.5
219.191	585.6
219.568	568.2
219.945	574.5
220.322	585.9
220.699	584.5
221.076	584
221.453	585.1
221.83	571.9
222.208	573.4
222.585	572.4
222.962	578.5
223.34	579.5
223.717	580.4
224.095	577.4
224.473	583.3
224.851	572.9
225.229	571.7
225.607	593.9
225.985	571.1
226.363	575.5
226.741	579.5
227.119	575.8
227.497	588.1
227.876	565.8
228.254	586
228.633	581.6
229.011	576.2
229.39	584.8
229.769	583.3
230.148	590.8
230.527	596.7
230.905	576.7
231.284	584.3
231.664	572.8
232.043	586.4
232.422	577.3
232.801	571.8
233.181	583.5
233.56	577.4
233.94	579.1
234.319	564.8
234.699	579.4
235.079	618.5
235.458	618.5
235.838	590.2
236.218	577.4
236.598	569.1
236.978	572.8
237.358	578.2
237.738	578.4
238.119	582.3
238.499	571.3
238.88	577.5
239.26	596.4
239.641	569.5
240.021	581.2
240.402	579.6
240.783	579.3
241.163	579.1
241.544	579.1
241.925	574.4
242.306	593
242.687	566.3
243.069	579.3
243.45	587
243.831	568.2
244.212	575.8
244.594	615.2
244.975	590
245.357	581.1
245.739	570
246.12	572.7
246.502	589
246.884	578.8
247.266	582
247.648	580.4
248.03	597.4
248.412	587.2
248.794	581.5
249.176	570.4
249.559	584.8
249.941	572.8
250.323	571.9
250.706	572.3
251.089	582
251.471	582.2
251.854	574.7
252.237	573.6
252.62	585.6
253.002	577.9
253.385	574.8
253.769	587.3
254.152	576.8
254.535	584
254.918	575.5
255.301	578.9
255.685	579.1
256.068	569.5
256.452	600.8
256.835	585.8
257.219	585.4
257.603	587.7
257.986	567
258.37	583.8
258.754	565.4
259.138	582.9
259.522	586.3
259.906	573.8
260.29	581.9
260.675	581.4
261.059	578.3
261.443	573.5
261.828	582.8
262.212	578.4
262.597	569.6
262.981	577.6
263.366	587
263.751	579.6
264.136	576.5
264.521	581.6
264.906	571.7
265.291	584.5
265.676	580.4
266.061	583.2
266.446	593.7
266.831	579.6
267.217	595.4
267.602	582.6
267.987	581.3
268.373	578.9
268.759	588.5
269.144	586.9
269.53	577.9
269.916	573.1
270.302	578
270.688	585.7
271.074	577
271.46	590.4
271.846	611.9
272.232	577.5
272.618	574.4
273.004	574.4
273.391	585.3
273.777	593.4
274.164	586.5
274.55	592.6
274.937	581.4
275.324	571.8
275.71	574.6
276.097	586
276.484	573.1
276.871	582.2
277.258	583.4
277.645	569.9
278.032	581
278.419	578.2
278.807	590.8
279.194	572
279.581	577
279.969	588.3
280.356	576
280.744	582.4
281.131	607.2
281.519	588.2
281.907	579.4
282.295	574
282.682	589.8
283.07	581.6
283.458	585.4
283.846	590.8
284.235	591.9
284.623	591.6
285.011	578.1
285.399	572.1
285.788	580.2
286.176	575.1
286.565	585.7
286.953	577.7
287.342	574.8
287.731	575.5
288.119	575.5
288.508	574.8
288.897	584.7
289.286	569.9
289.675	577.6
290.064	591.5
290.453	576
290.821	582.3
291.21	598.3
291.599	576.7
291.989	581.1
292.378	583.8
292.768	598.7
293.157	587.4
293.547	589.9
293.936	578.7
294.326	570.5
294.716	583
295.106	574.7
295.496	583.9
295.886	588
296.276	581.6
296.666	569.2
297.056	575
297.446	564.8
297.836	590.8
298.227	576.6
298.617	576.4
299.008	592.4
299.398	577.6
299.789	568.9
300.179	582
300.57	596.2
300.961	569.9
301.352	576.4
301.742	590
302.133	581
302.524	582.5
302.915	584.3
303.307	572.2
303.698	592.8
304.089	594.3
304.48	577.2
304.872	583.8
305.263	578.1
305.655	570.9
306.046	582.2
306.438	580.4
306.829	580.6
307.221	595
307.613	585.6
308.005	587.7
308.397	594.5
308.789	598
309.181	603.3
309.573	599.3
309.965	595.3
310.357	585.2
310.749	582.7
311.142	576
311.534	577.7
311.926	591.2
312.319	576.4
312.711	573.4
313.104	586.4
313.497	571.4
313.889	614.2
314.282	593
314.675	600.6
315.068	578.9
315.461	584.3
315.854	604.2
316.247	589.1
316.64	578.3
317.033	580.3
317.405	586.5
317.798	581.4
318.192	589.4
318.585	574.3
318.979	583.2
319.372	576
319.766	576.9
320.16	587.3
320.553	589.9
320.947	599.7
321.341	575
321.735	578.4
322.129	565.9
322.523	606
322.917	573.7
323.311	589
323.705	583.6
324.099	590
324.494	601.2
324.888	591.4
325.282	581.4
325.677	587.6
326.071	588.5
326.466	597.1
326.861	583.6
327.255	592
327.65	592.4
328.045	596.8
328.44	581.5
328.835	582.4
329.23	577.7
329.625	605.2
330.02	574.5
330.415	599.3
330.81	576.8
331.206	580.3
331.601	573
331.996	593.4
332.37	595.2
332.766	567.9
333.161	598.8
333.557	576.6
333.953	581.5
334.348	956.6
334.744	583.7
335.14	577.7
335.536	577.9
335.932	598.7
336.328	579
336.724	586.7
337.12	584.2
337.516	580.1
337.913	579
338.309	596.3
338.705	574.1
339.102	591.3
339.498	573.9
339.895	595.5
340.291	576.1
340.688	591.4
341.085	575.2
341.481	577.7
341.878	579.8
342.275	598.8
342.672	574.7
343.069	574.7
343.466	565.1
343.842	583
344.239	571
344.636	587.7
345.033	569.6
345.431	572.3
345.828	578.6
346.225	574.2
346.623	582.5
347.02	580.7
347.418	589.1
347.816	592.7
348.213	568.2
348.611	582.6
349.009	572.6
349.407	591.2
349.805	569.8
350.203	572.5
350.601	591.9
350.999	575.6
351.397	567.1
351.795	578.2
352.193	590.5
352.57	586.8
352.969	590.8
353.367	568.1
353.766	566.2
354.164	572.9
354.563	586.7
354.961	575
355.36	578.6
355.759	575.3
356.158	568
356.557	572.9
356.956	570.3
357.355	563.2
357.754	583.1
358.153	578.7
358.552	598.4
358.951	572.6
359.35	587.8
359.75	570.8
360.149	570.7
360.527	564.9
360.926	567.9
361.326	576.1
361.726	581.9
362.125	565.7
362.525	582.9
362.925	569.5
363.325	574.6
363.724	578.1
364.124	572.7
364.524	570.2
364.924	575
365.324	582.1
365.725	554.6
366.125	579.9
366.525	572.4
366.904	573.4
367.304	558.8
367.705	595.7
368.105	583
368.506	572.6
368.906	572.7
369.307	574.1
369.708	577.8
370.108	557
370.509	584.2
370.91	570.6
371.311	575.4
371.712	579.7
372.113	571.7
372.514	563
372.894	572.1
373.295	574.6
373.696	588.5
374.097	581.3
374.499	599.9
374.9	579.1
375.301	562.8
375.703	578.6
376.105	568
376.506	578.5
376.908	574.5
377.309	573.2
377.711	573.7
378.113	567.9
378.493	575.2
378.895	571.4
379.297	576.9
379.699	563.1
380.102	582.7
380.504	579.6
380.906	565.1
381.308	597.4
381.71	569.8
382.113	582.8
382.515	571.3
382.918	580.6
383.299	567.8
383.701	585.4
384.104	578.5
384.507	558.2
384.909	574.1
385.312	560.8
385.715	569.8
386.118	569.6
386.521	567.4
386.924	578.6
387.327	566.5
387.709	565.8
388.112	552
388.515	567.2
388.918	570
389.322	571.9
389.725	561.8
390.129	587.8
390.532	580.3
390.936	567.3
391.339	564.9
391.743	576.3
392.125	564.5
392.529	578.2
392.933	582.6
393.337	568
393.74	572.5
394.144	572.9
394.548	560.8
394.953	569.4
395.357	576.8
395.761	565.7
396.144	565.4
396.548	572.2
396.952	572
397.357	568.5
397.761	568.5
398.166	569.9
398.57	568.6
398.975	561.7
399.379	569.8
399.763	621.6
400.168	574.4
400.572	571.1
400.977	567.4
401.382	585.5
401.787	581.1
402.192	593.4
402.597	587.7
403.002	560.8
403.386	586.2
403.791	588.7
404.197	572.7
404.602	569.1
405.007	574.6
405.413	568.8
405.818	564.4
406.224	566.5
406.608	561
407.014	559.2
407.42	589.5
407.825	570.2
408.231	578.4
408.637	574.6
409.043	584.2
409.449	563.9
409.834	568.6
410.24	569.8
410.646	585.2
411.052	584.2
411.458	578.5
411.865	578.2
412.271	583.6
412.677	577.1
413.062	581.8
413.469	555.1
413.875	596.3
414.282	582
414.689	581.9
415.095	581.1
415.502	568.2
415.888	573.4
416.294	559
416.701	607.4
417.108	573.8
417.515	579.7
417.923	572.9
418.33	593
418.715	582.5
419.123	571.7
419.53	567.5
419.937	575.4
420.345	582.6
420.752	571.7
421.16	589.1
421.546	577
421.953	583
422.361	568.1
422.769	575.4
423.177	569.8
423.585	594.6
423.992	589.4
424.379	586.4
424.787	585.4
425.195	589.1
425.603	573.2
426.011	586.3
426.419	587.3
426.806	578.4
427.214	580.3
427.623	588.4
428.031	593.7
428.44	575.6
428.848	588.6
429.235	594.8
429.644	578.4
430.053	583.4
430.461	592.7
430.87	597.1
431.279	590
431.666	571.3
432.075	583.9
432.484	586.6
432.893	577
433.302	593.3
433.711	623.8
434.099	590.2
434.508	584.1
434.918	578.2
435.327	595.1
435.737	590.4
436.125	592.1
436.534	592
436.944	596.2
437.353	600.4
437.763	619.4
438.173	588.2
438.561	607.6
438.971	591.6
439.381	606.5
439.791	608.4
440.201	586.4
440.589	611.8
440.999	615.4
441.409	617.6
441.819	602.9
442.23	624.4
442.619	619.2
443.029	620.6
443.439	623.1
443.85	639.4
444.26	641.7
444.649	638.2
445.06	621.9
445.471	624.8
445.881	631.6
446.292	647.9
446.682	655.9
447.092	624
447.503	679
447.914	634.4
448.325	640.4
448.715	634.4
449.126	633.4
449.537	639.4
449.948	637.2
450.338	641.3
450.75	646.7
451.161	642.9
451.572	650.5
451.984	634.2
452.374	632.1
452.786	641.4
453.197	646.3
453.609	648.1
453.999	625.5
454.411	634.9
454.823	650.9
455.235	650.9
455.647	646.3
456.037	651.9
456.449	629.9
456.862	652.9
457.274	648.8
457.665	636.8
458.077	655.9
458.489	654.1
458.902	643.2
459.293	641.8
459.705	648.5
460.118	644.2
460.53	646.3
460.921	648.8
461.334	642.8
461.747	644.5
462.16	655.9
462.551	651.1
462.964	656.7
463.377	632.5
463.79	648.4
464.182	655
464.595	645.1
465.008	646.8
465.421	651.2
465.813	647
466.226	654.1
466.64	644.6
467.053	684.4
467.445	657.2
467.859	646.1
468.272	651.1
468.686	661.8
469.078	648.5
469.492	641
469.906	644.6
470.298	649.7
470.712	645.6
471.126	677.3
471.54	632.9
471.933	636
472.347	642.6
472.761	640.7
473.175	629.3
473.568	639.6
473.982	635.2
474.397	639.9
474.79	645.8
475.204	645
475.619	638.3
476.033	638.1
476.426	641.7
476.841	636.4
477.256	665.4
477.649	631
478.064	635.5
478.479	630.3
478.872	634.7
479.287	622.6
479.702	631.1
480.118	633.3
480.511	636.7
480.927	626.3
481.342	625.9
481.736	636.1
482.151	630.5
482.566	640.9
482.96	632.9
483.376	641.7
483.792	630.8
484.186	638.2
484.602	622.4
485.017	625.9
485.412	627.1
485.827	631.8
486.243	629.2
486.638	654.3
487.054	637.2
487.47	639.9
487.865	627.9
488.281	622
488.697	627.3
489.092	623.5
489.508	619.7
489.925	632.7
490.32	620.3
490.736	628.8
491.153	626.6
491.548	623.4
491.964	636.7
492.381	606.3
492.776	624.4
493.193	625.9
493.61	626.7
494.006	625.4
494.422	626.7
494.84	615.4
495.235	629.8
495.652	622
496.069	622.7
496.465	610
496.883	620.5
497.3	644.2
497.696	609.8
498.113	620
498.509	608.4
498.927	612.4
499.344	607.6
499.741	614.3
500.158	618
500.576	623.5
500.973	618.2
501.39	602.5
501.787	611.5
502.205	613.9
502.623	607.5
503.02	602.6
503.438	606.6
503.856	612.4
504.253	608.4
504.671	613.4
505.068	601
505.486	604.1
505.905	624.2
506.302	612.7
506.72	615.5
507.118	601.7
507.536	605.5
507.955	596.3
508.352	608.9
508.771	609.8
509.169	608.1
509.587	595.4
510.006	602.5
510.404	591.3
510.823	597.5
511.221	596.8
511.64	600.7
512.038	616.1
512.457	595.9
512.877	606.6
513.275	593.5
513.694	599.4
514.092	605.3
514.512	602.9
514.91	596.6
515.33	600.2
515.749	597.6
516.148	597.2
516.568	601.9
516.966	595
517.386	592.4
517.785	594
518.205	596.2
518.603	591.3
519.024	594.7
519.444	595.8
519.843	599.7
520.263	597.5
520.662	599.1
521.082	592.7
521.481	590.5
521.902	593.1
522.301	591.9
522.722	595
523.121	586.3
523.542	586.9
523.963	592
524.362	593
524.783	594.9
525.183	588.7
525.604	591.9
526.003	580.8
526.425	583.6
526.824	591.1
527.246	588.5
527.646	589.4
528.067	586.1
528.467	586.4
528.888	591.8
529.289	582.9
529.71	583.3
530.11	581.9
530.532	579.3
530.932	580.3
531.354	573.1
531.755	613.9
532.176	591
532.577	583.9
532.999	577.8
533.4	574.2
533.822	590.3
534.223	579.1
534.645	578.2
535.046	577.2
535.468	585.3
535.869	594.6
536.292	574.5
536.693	577
537.115	583.2
537.516	573.7
537.939	578.9
538.34	591.7
538.742	587.5
539.165	582.7
539.566	576.4
539.989	571.4
540.391	567.8
540.814	575.4
541.216	577.6
541.639	580.5
542.041	586.2
542.464	578.6
542.866	572.5
543.268	571.5
543.691	579.2
544.093	583.7
544.517	592.8
544.919	572.2
545.343	600
545.745	564.3
546.147	578.1
546.571	571.3
546.974	566.8
547.398	570.8
547.8	582.2
548.224	575
548.627	564.2
549.03	581.1
549.454	568.3
549.857	566.1
550.281	564
550.684	564.5
551.087	580.2
551.512	575.4
551.915	576.7
552.34	571.8
552.743	571.3
553.146	574.2
553.571	567.9
553.975	586.6
554.399	565.5
554.803	612.3
555.207	565.9
555.632	564.1
556.036	571.9
556.461	562.3
556.865	572.4
557.268	558.7
557.694	570.3
558.098	573.1
558.502	572.2
558.927	567.7
559.332	562.8
559.736	569.9
560.162	572.8
560.566	566.8
560.992	576.3
561.396	567.8
561.801	568.7
562.227	570.4
562.631	568.5
563.036	568.3
563.462	573.6
563.867	573
564.272	558.3
564.698	578.5
565.103	558.6
565.508	586.5
565.935	563.8
566.34	566.2
566.745	576.2
567.172	562.7
567.577	581.5
567.982	577.7
568.409	572.8
568.815	560.4
569.22	566.3
569.626	569.7
570.053	553.4
570.459	570.7
570.865	571.9
571.292	566.6
571.698	570.8
572.104	552.8
572.531	560.9
572.937	577
573.343	565.9
573.75	563.8
574.177	570.4
574.583	569.8
574.99	561.4
575.396	570.1
575.824	556.8
576.231	566.1
576.637	555.1
577.065	587.2
577.472	562.7
577.879	557.3
578.286	572.9
578.714	555.9
579.121	561
579.528	567.2
579.935	573.4
580.364	565.2
580.771	549.9
581.178	557.6
581.585	562.8
582.014	566.6
582.421	555.7
582.829	561.3
583.236	571.3
583.644	556.9
584.073	562
584.481	562.9
584.889	560.8
585.296	568.8
585.726	562.9
586.134	553
586.542	553.2
586.95	578.2
587.358	552.6
587.787	561.1
588.196	543.5
588.604	555.6
589.012	564.1
589.421	552.5
589.851	557.1
590.259	563.2
590.668	554.2
591.076	593
591.485	554.5
591.894	556.6
592.324	572.9
592.733	572.3
593.142	550.7
593.551	556.1
593.96	557.3
594.369	546.4
594.8	554.9
595.209	556.3
595.618	541
596.028	557.1
596.437	550.7
596.847	561.5
597.256	560.1
597.687	564.1
598.097	556.1
598.507	552.7
598.917	560.4
599.327	568.2
599.736	564.4
600.146	563.4
600.556	560.4
600.988	567.1
601.398	554.8
601.808	568.7
602.219	550.1
602.629	562
603.039	560.1
603.45	580
603.86	557.7
604.271	573
604.703	559.6
605.114	559.2
605.525	559.2
605.935	560.2
606.346	578.3
606.757	564.2
607.168	560.5
607.579	553
607.99	571.4
608.402	558.4
608.813	566
609.224	556.3
609.636	552.7
610.047	551.5
610.48	560.7
610.892	566.3
611.303	570.6
611.715	555.2
612.127	547.6
612.539	556
612.95	559.6
613.362	545.5
613.774	546.2
614.186	553.2
614.599	549.9
615.011	566.8
615.423	545.3
615.835	549.6
616.248	546.3
616.66	554.4
617.073	546.5
617.485	550.1
617.898	564.9
618.311	563.2
618.723	553.3
619.136	581.9
619.549	570.2
619.962	578
620.375	551.1
620.788	559
621.201	551.6
621.614	557.1
622.028	558.8
622.441	558.2
622.854	568.5
623.268	547.8
623.681	558.5
624.095	560.1
624.509	564
624.922	563.5
625.336	546.9
625.728	557.8
626.142	561.5
626.556	569.9
626.97	561.1
627.384	551.1
627.799	548.7
628.213	567.7
628.627	550.8
629.041	557.4
629.456	554.7
629.87	560.1
630.285	564.5
630.699	559.8
631.093	553.9
631.507	560.4
631.922	555.9
632.337	572.8
632.752	546.5
633.167	558.3
633.582	546.6
633.997	548.5
634.412	548.7
634.806	559.3
635.221	544.8
635.637	565.2
636.052	546
636.468	559.7
636.883	569.1
637.299	552.6
637.715	539
638.109	550.2
638.525	536.9
638.941	566.4
639.357	558.4
639.773	568.4
640.189	550.7
640.584	555.8
641	557.3
641.416	545
641.832	557.5
642.249	545.4
642.665	549.3
643.06	559.3
643.477	562.4
643.894	544.5
644.31	556.5
644.727	551.1
645.123	556.7
645.54	545.8
645.957	554.3
646.374	555.8
646.77	548.7
647.187	578.8
647.604	556.9
648.021	539.2
648.439	545.9
648.835	558.8
649.252	551.5
649.67	545.3
650.088	555.5
650.484	558.4
650.902	561.5
651.32	563.3
651.738	552.6
652.134	556.5
652.552	570.4
652.971	556.1
653.389	552.3
653.786	566.6
654.204	556.2
654.622	545.7
655.019	551.9
655.438	551.5
655.857	559.7
656.275	556.2
656.673	546.4
657.091	622.4
657.51	551.5
657.908	560.7
658.327	572.8
658.746	548.2
659.144	557.2
659.563	563.9
659.982	555
660.38	549
660.8	552.6
661.219	566
661.617	557.8
662.037	552.3
662.457	563.5
662.855	538.1
663.275	585.7
663.695	557.9
664.094	554.4
664.514	551.3
664.934	547.5
665.333	563.4
665.753	549.5
666.152	549.6
666.572	546.1
666.993	565.1
667.392	548.2
667.812	555.3
668.212	550.2
668.632	563.2
669.053	545.5
669.453	554.6
669.874	557.4
670.273	559.4
670.694	547.5
671.116	562
671.515	559.7
671.937	551.4
672.337	547.6
672.758	551.4
673.158	559
673.58	541.5
673.98	549.3
674.402	562.3
674.824	553.4
675.224	548.3
675.646	544.4
676.047	551.2
676.469	555.9
676.869	556.7
677.292	549.7
677.693	548.8
678.115	546.5
678.516	559
678.939	552.3
679.34	545.2
679.762	563.7
680.164	559.9
680.586	545.8
680.988	555.8
681.411	574.3
681.812	553.2
682.236	549.5
682.637	543.2
683.061	538.9
683.462	552.1
683.864	550
684.288	556.5
684.69	547.3
685.114	565
685.516	551.3
685.94	548
686.342	561.1
686.766	547.7
687.168	545.8
687.571	563.8
687.995	550.7
688.398	546
688.822	546.6
689.225	568.2
689.628	569.5
690.052	553.8
690.456	556.3
690.88	552.1
691.284	544.1
691.687	554.7
692.112	539.8
692.515	546.9
692.919	549
693.344	555.3
693.747	548.5
694.173	540.7
694.577	554.5
694.98	545.4
695.406	548.6
695.81	551.8
696.214	555.3
696.64	553.4
697.044	551.9
697.448	558.1
697.874	550.8
698.279	549.6
698.684	538.1
699.11	542.6
699.514	554.6
699.919	544.2
700.324	540.8
700.75	551.7
701.156	556.5
701.561	561.2
701.987	559.1
702.393	566.7
702.798	564.1
703.203	548.8
703.63	548
704.036	546.4
704.442	548.2
704.847	547.5
705.274	551.3
705.68	556.7
706.086	554.7
706.492	541.4
706.92	542.9
707.326	560.8
707.732	546.3
708.139	544.6
708.545	543.4
708.973	547.3
709.38	553.4
709.786	540.8
710.193	562.2
710.6	555.4
711.028	538.7
711.435	547.3
711.842	546.3
712.249	549.7
712.656	549.8
713.064	556.3
713.492	538.1
713.9	541
714.307	547.7
714.715	543.1
715.123	552.5
715.53	546.9
715.938	560.3
716.367	547.7
716.775	549.8
717.184	541.1
717.592	549.2
718	559.4
718.408	580.3
718.816	591.2
719.225	551.4
719.633	552.7
720.042	540.9
720.472	545.7
720.881	564.4
721.29	553
721.699	539
722.108	549.8
722.517	552.4
722.926	542.9
723.335	551.4
723.744	548.9
724.154	549
724.563	551.1
724.973	552.2
725.382	545.1
725.792	548.4
726.202	539.9
726.612	557.1
727.022	545.5
727.432	549.5
779.813	552.6
780.223	590.1
780.634	550.2
781.044	541.8
781.454	547.3
781.865	559.5
782.276	538.4
782.686	560.8
783.097	545.7
783.508	546.9
783.919	550.6
784.33	560.2
784.741	559.5
785.152	542.9
785.563	534.9
785.974	542.1
786.386	559.9
786.776	544.1
787.188	552.5
787.599	539.2
788.011	555.5
788.423	553.1
788.835	544.8
789.247	537.6
789.659	541.5
790.071	545.5
790.483	586.2
790.874	545.7
791.286	560.4
791.699	545.2
792.111	554.7
792.524	547.6
792.937	547.3
793.349	538.9
793.741	544.6
794.154	548.3
794.567	563.9
794.98	546.8
795.393	535.8
795.785	559.6
796.198	543.7
796.612	547.8
797.026	546.1
797.439	533.7
797.831	546.7
798.245	539.5
798.659	544.1
799.073	542.9
799.487	540.1
799.88	547.8
800.294	555.7
800.708	554.6
801.123	546.6
801.516	562.5
801.93	540.9
802.345	539.9
802.76	547.7
803.153	556.6
803.568	557.7
803.983	563.4
804.377	553.5
804.792	541.7
805.207	536.3
805.601	552
806.016	582
806.432	540.2
806.826	573.4
807.242	559
807.658	555.5
808.052	548.5
808.468	545.9
808.884	544
809.279	544
809.695	562.2
810.111	572.3
810.506	552.6
810.922	567.5
811.339	545.4
811.734	551.8
812.151	545.7
812.546	547.3
812.963	546.6
813.38	553.7
813.776	542.2
814.193	567.9
814.589	541.6
815.006	539.1
815.402	542.4
815.82	545.3
816.237	546.2
816.633	551.4
817.051	539.8
817.448	553.2
817.866	538.1
818.262	569.7
818.68	542.6
819.077	542.6
819.495	544.1
819.892	584.2
820.311	543.6
820.708	540.2
821.127	539.9
821.524	556.7
821.943	545.4
822.34	567.3
822.759	549.5
823.157	544.9
823.576	557.5
823.974	552.2
824.393	553.4
824.791	540.7
825.189	538.1
825.609	540
826.007	546.1
826.427	532.2
826.826	549.9
827.246	548.5
827.644	532.3
828.043	553.9
828.463	545.8
828.862	551.3
829.261	553.4
829.682	538.3
830.081	553
830.502	537.2
830.901	546.3
831.301	544.2
831.722	530.9
832.121	545.9
832.521	536.4
832.943	545.7
833.342	546
833.742	540.8
834.164	543.5
834.564	541.1
834.965	544
835.386	544.3
835.787	544.8
836.188	542.1
836.588	543.1
837.01	546.6
837.411	538.8
837.812	549.4
838.213	549.1
838.636	542
839.037	610.6
839.438	548.3
839.84	546.7
840.263	550.8
840.664	546
841.066	545.2
841.468	547.3
841.891	545.7
842.293	553.9
842.695	546.3
843.098	552.3
843.5	544.8
843.902	549.6
844.326	555
844.729	551.7
845.131	554.9
845.534	545
845.937	553.5
846.34	563.3
846.764	537.2
847.167	550
847.571	538.9
