#lambda/nm	C1
208.295	484.3
208.67	449.4
209.045	408.6
209.419	415.7
209.794	600.7
210.169	571.3
210.544	685.9
210.919	588.8
211.295	577.7
211.67	586.7
212.045	584.2
212.421	586.3
212.796	619
213.172	582.4
213.547	581.1
213.923	581.1
214.299	576.8
214.675	593.7
215.051	589.9
215.427	591.5
215.803	603.4
216.179	592.7
216.555	577.9
216.932	593.6
217.308	582.8
217.684	583.6
218.061	587.2
218.438	587.1
218.814	583.9
219.191	592.2
219.568	578.8
219.945	582.2
220.322	591.1
220.699	588
221.076	595.8
221.453	586.4
221.83	584.1
222.208	590.8
222.585	588.7
222.962	586.6
223.34	591.6
223.717	580.3
224.095	584.9
224.473	590.8
224.851	572.1
225.229	577.4
225.607	596.4
225.985	572.9
226.363	587.2
226.741	587.8
227.119	580.4
227.497	596.8
227.876	572.9
228.254	593.3
228.633	590.5
229.011	580.4
229.39	589.4
229.769	587.5
230.148	592.4
230.527	606
230.905	586.1
231.284	589.7
231.664	578
232.043	597.1
232.422	590
232.801	584
233.181	586.2
233.56	579.1
233.94	584.1
234.319	565.4
234.699	579
235.079	620.9
235.458	624.6
235.838	597.1
236.218	576.8
236.598	575.2
236.978	578.9
237.358	583.9
237.738	582.7
238.119	590.3
238.499	579.1
238.88	584
239.26	598.1
239.641	575.8
240.021	578.2
240.402	587.3
240.783	581.7
241.163	580.8
241.544	584
241.925	580.3
242.306	598.8
242.687	579.9
243.069	585.3
243.45	590.7
243.831	578
244.212	579.3
244.594	616
244.975	600.1
245.357	585.2
245.739	578.7
246.12	584.4
246.502	598.1
246.884	586.3
247.266	587.9
247.648	585
248.03	601.9
248.412	585.3
248.794	592.2
249.176	583.3
249.559	596.9
249.941	582
250.323	579.4
250.706	579.5
251.089	580.7
251.471	590
251.854	588.8
252.237	589.4
252.62	596.7
253.002	586.8
253.385	588.9
253.769	593.4
254.152	588
254.535	589.9
254.918	581.5
255.301	583.2
255.685	584.8
256.068	577.4
256.452	611.3
256.835	591.4
257.219	593.2
257.603	596.5
257.986	580.1
258.37	590.2
258.754	574.6
259.138	593.2
259.522	600.7
259.906	583.2
260.29	590.1
260.675	585.8
261.059	589.1
261.443	581.1
261.828	591.9
262.212	586.9
262.597	578
262.981	576.3
263.366	591.5
263.751	591.1
264.136	573.9
264.521	590.7
264.906	580.9
265.291	596.3
265.676	586.6
266.061	586.6
266.446	601.9
266.831	587.8
267.217	603.5
267.602	587.2
267.987	589.3
268.373	583.1
268.759	592.7
269.144	589.7
269.53	590.1
269.916	581.7
270.302	585.3
270.688	591.8
271.074	585.4
271.46	591.3
271.846	617.2
272.232	588.1
272.618	580.2
273.004	582
273.391	595.4
273.777	598.3
274.164	588.7
274.55	598.8
274.937	580.4
275.324	582
275.71	590.4
276.097	592.6
276.484	585.7
276.871	592.9
277.258	592.3
277.645	574.5
278.032	585
278.419	584.4
278.807	587.3
279.194	578.3
279.581	577.5
279.969	592
280.356	587.8
280.744	592
281.131	608.9
281.519	600.5
281.907	581.5
282.295	581.3
282.682	599
283.07	588.8
283.458	602.8
283.846	601.2
284.235	595.8
284.623	595.9
285.011	582.9
285.399	590
285.788	584.2
286.176	575.9
286.565	596.7
286.953	580.1
287.342	586.8
287.731	583
288.119	577
288.508	586
288.897	586.9
289.286	573.9
289.675	584.2
290.064	595
290.453	586.6
290.821	580.8
291.21	602
291.599	579.6
291.989	589
292.378	591.1
292.768	599.5
293.157	587.7
293.547	595.9
293.936	589.6
294.326	580.6
294.716	594.7
295.106	581.3
295.496	598.6
295.886	592.9
296.276	589
296.666	586.6
297.056	579.2
297.446	579
297.836	604.1
298.227	585.3
298.617	590
299.008	594.7
299.398	583.8
299.789	582
300.179	588.8
300.57	604.2
300.961	580
301.352	578.2
301.742	596
302.133	587.2
302.524	585.1
302.915	585
303.307	575.6
303.698	597.4
304.089	600.3
304.48	586.2
304.872	597.6
305.263	592.8
305.655	577.8
306.046	593.3
306.438	592.9
306.829	581.6
307.221	594.4
307.613	589.3
308.005	598.8
308.397	601.3
308.789	612.7
309.181	612.7
309.573	602.3
309.965	602.4
310.357	587.6
310.749	589.9
311.142	580.8
311.534	581.8
311.926	597.6
312.319	588.8
312.711	579.6
313.104	597.9
313.497	587.5
313.889	629.5
314.282	602.2
314.675	615
315.068	586
315.461	593.1
315.854	620.9
316.247	597.9
316.64	584.9
317.033	593.5
317.405	599.4
317.798	594.5
318.192	594.2
318.585	583
318.979	594.7
319.372	583.1
319.766	592.4
320.16	602.6
320.553	605.3
320.947	610.9
321.341	583.6
321.735	586
322.129	572.4
322.523	605.6
322.917	578.7
323.311	593.9
323.705	587.2
324.099	589.6
324.494	606.3
324.888	594.3
325.282	582.3
325.677	585.9
326.071	596.4
326.466	596.6
326.861	595.6
327.255	604.3
327.65	601
328.045	602.6
328.44	589.1
328.835	589.4
329.23	582.9
329.625	615
330.02	584.8
330.415	610.8
330.81	600.8
331.206	597.6
331.601	580.4
331.996	594.4
332.37	602.7
332.766	579.6
333.161	610.9
333.557	587.7
333.953	589
334.348	970.1
334.744	585.6
335.14	586.7
335.536	584.7
335.932	603.6
336.328	589.1
336.724	598.6
337.12	586.6
337.516	591.4
337.913	590.7
338.309	592.7
338.705	590.1
339.102	600.1
339.498	583.5
339.895	597.1
340.291	582.9
340.688	600.6
341.085	581.5
341.481	591.2
341.878	591.7
342.275	590.5
342.672	583.1
343.069	583.9
343.466	575.3
343.842	590.9
344.239	577.6
344.636	586.6
345.033	578.4
345.431	578.7
345.828	592.1
346.225	579.2
346.623	596.3
347.02	591.3
347.418	590.5
347.816	601
348.213	576.7
348.611	591.9
349.009	580
349.407	598.7
349.805	577.1
350.203	580.9
350.601	600.6
350.999	581
351.397	579.6
351.795	586.9
352.193	597.1
352.57	590.1
352.969	596.6
353.367	578.8
353.766	576.5
354.164	581.3
354.563	597.3
354.961	581.9
355.36	580.8
355.759	586.6
356.158	573.4
356.557	580.6
356.956	571.9
357.355	576
357.754	592.3
358.153	591.4
358.552	605.9
358.951	580
359.35	592
359.75	579.4
360.149	575.3
360.527	569.9
360.926	576.4
361.326	586
361.726	585.7
362.125	571.7
362.525	587.4
362.925	579.8
363.325	584.5
363.724	586.2
364.124	574.3
364.524	576.7
364.924	581.1
365.324	595
365.725	570.6
366.125	585.7
366.525	581.6
366.904	576.9
367.304	566.5
367.705	594.8
368.105	593.7
368.506	577.4
368.906	586.3
369.307	578.5
369.708	581.5
370.108	569.9
370.509	589
370.91	570.5
371.311	588.9
371.712	589.6
372.113	580
372.514	565.4
372.894	576.9
373.295	577.4
373.696	590.6
374.097	587.8
374.499	607.3
374.9	586.1
375.301	571.4
375.703	583
376.105	571.9
376.506	585.2
376.908	587.1
377.309	572.3
377.711	586.4
378.113	577.8
378.493	580.6
378.895	575.3
379.297	592.4
379.699	568.2
380.102	585
380.504	576.8
380.906	581.9
381.308	601.5
381.71	578.3
382.113	590.6
382.515	576.8
382.918	582.3
383.299	579.5
383.701	587.5
384.104	582.2
384.507	564
384.909	571.4
385.312	566.4
385.715	574.9
386.118	574.6
386.521	567.8
386.924	586.9
387.327	578
387.709	564.8
388.112	564.9
388.515	580
388.918	578.7
389.322	586
389.725	580.1
390.129	601.8
390.532	588.6
390.936	576.2
391.339	575.5
391.743	577.4
392.125	574.5
392.529	585
392.933	593.7
393.337	577.1
393.74	573.3
394.144	586.4
394.548	579.5
394.953	580.4
395.357	588.6
395.761	568.1
396.144	579.8
396.548	576.9
396.952	578.7
397.357	576.9
397.761	582.1
398.166	577.8
398.57	577.6
398.975	567.5
399.379	579.8
399.763	627.1
400.168	583.2
400.572	576.4
400.977	578
401.382	596
401.787	579.9
402.192	602.9
402.597	595.6
403.002	573.6
403.386	594.3
403.791	602.4
404.197	572.6
404.602	578.9
405.007	577.6
405.413	573
405.818	572.3
406.224	576.1
406.608	579.8
407.014	577.7
407.42	599.3
407.825	574
408.231	588.2
408.637	582.8
409.043	596.8
409.449	583.1
409.834	570
410.24	583.7
410.646	590.1
411.052	583.6
411.458	583.5
411.865	591.9
412.271	587.6
412.677	585
413.062	584.8
413.469	571
413.875	603.5
414.282	595.4
414.689	586.5
415.095	587.1
415.502	579.1
415.888	584.7
416.294	561.2
416.701	617.3
417.108	574.3
417.515	585.4
417.923	577.3
418.33	597.9
418.715	589.5
419.123	579.6
419.53	578.6
419.937	586.8
420.345	591.1
420.752	578.4
421.16	593.2
421.546	576.9
421.953	590.9
422.361	570.1
422.769	584.9
423.177	578.6
423.585	607.3
423.992	599.7
424.379	591
424.787	591.3
425.195	599.8
425.603	585.1
426.011	592.8
426.419	595.9
426.806	585.8
427.214	587.6
427.623	598.9
428.031	597.7
428.44	587.6
428.848	596.8
429.235	610.4
429.644	592
430.053	596
430.461	613.7
430.87	627.3
431.279	616.3
431.666	608.2
432.075	623.1
432.484	638.8
432.893	642.2
433.302	673.7
433.711	707.7
434.099	687.7
434.508	694
434.918	708.9
435.327	740.8
435.737	751.2
436.125	781.8
436.534	799
436.944	821
437.353	852.2
437.763	875.9
438.173	876.1
438.561	911.5
438.971	909.5
439.381	951.4
439.791	975.7
440.201	975.9
440.589	1022
440.999	1042.3
441.409	1059.3
441.819	1071.7
442.23	1116
442.619	1135.7
443.029	1157.6
443.439	1169.1
443.85	1177
444.26	1205.5
444.649	1206.1
445.06	1228.9
445.471	1235.1
445.881	1261
446.292	1301.4
446.682	1311.2
447.092	1291.5
447.503	1360.7
447.914	1321.6
448.325	1344.7
448.715	1338.7
449.126	1338
449.537	1354.5
449.948	1370.9
450.338	1360.5
450.75	1383.1
451.161	1404.8
451.572	1411.2
451.984	1414.7
452.374	1401.3
452.786	1438.4
453.197	1433.4
453.609	1448.9
453.999	1432.5
454.411	1432.4
454.823	1454.5
455.235	1455.6
455.647	1451
456.037	1466.6
456.449	1450.5
456.862	1478.4
457.274	1464.2
457.665	1460.4
458.077	1484.5
458.489	1473.6
458.902	1470.7
459.293	1471.5
459.705	1462.7
460.118	1454.5
460.53	1470.9
460.921	1464.7
461.334	1463.7
461.747	1471.6
462.16	1481.4
462.551	1474.9
462.964	1471.1
463.377	1453.1
463.79	1457.6
464.182	1465.4
464.595	1448.6
465.008	1455.5
465.421	1462
465.813	1443.2
466.226	1448.9
466.64	1435.5
467.053	1479.2
467.445	1451.7
467.859	1453.7
468.272	1442.7
468.686	1450.4
469.078	1430.7
469.492	1417.4
469.906	1434
470.298	1426.1
470.712	1419.1
471.126	1454.3
471.54	1416.7
471.933	1414.7
472.347	1406.7
472.761	1402.1
473.175	1401.4
473.568	1404.9
473.982	1397
474.397	1387.8
474.79	1391.2
475.204	1389.7
475.619	1380.6
476.033	1386.8
476.426	1374.3
476.841	1360.5
477.256	1385.5
477.649	1349.9
478.064	1343.6
478.479	1351.7
478.872	1350.7
479.287	1349.4
479.702	1350.8
480.118	1340.4
480.511	1333.5
480.927	1326.4
481.342	1334.5
481.736	1325.4
482.151	1322.1
482.566	1321.4
482.96	1310.5
483.376	1314.2
483.792	1308.5
484.186	1313.2
484.602	1309
485.017	1296.1
485.412	1296.7
485.827	1293.7
486.243	1294.9
486.638	1305.8
487.054	1279.8
487.47	1286.3
487.865	1267.9
488.281	1268.2
488.697	1254.4
489.092	1251
489.508	1242.9
489.925	1248.8
490.32	1232.8
490.736	1232.1
491.153	1223.1
491.548	1225.9
491.964	1228.4
492.381	1207.1
492.776	1215
493.193	1205.2
493.61	1211.9
494.006	1194.5
494.422	1193.1
494.84	1166.9
495.235	1175.8
495.652	1175.3
496.069	1175.1
496.465	1164.3
496.883	1154.7
497.3	1181.4
497.696	1150.1
498.113	1143.4
498.509	1121.8
498.927	1126.5
499.344	1122
499.741	1124.8
500.158	1115.2
500.576	1123.2
500.973	1114.9
501.39	1101.8
501.787	1085
502.205	1089.6
502.623	1077.1
503.02	1062.1
503.438	1067.9
503.856	1066
504.253	1076.1
504.671	1064.9
505.068	1049.6
505.486	1059.8
505.905	1071.7
506.302	1045.6
506.72	1049.9
507.118	1029.5
507.536	1046
507.955	1025.8
508.352	1029.3
508.771	1025
509.169	1027
509.587	1011.9
510.006	1006.3
510.404	988.2
510.823	988
511.221	997.7
511.64	988
512.038	994
512.457	978
512.877	981.1
513.275	968.3
513.694	965.8
514.092	956.3
514.512	962.5
514.91	947.6
515.33	950.1
515.749	949
516.148	941.4
516.568	953.8
516.966	935.2
517.386	929.4
517.785	929.6
518.205	923.5
518.603	921.9
519.024	911.4
519.444	911.7
519.843	920.5
520.263	906.7
520.662	903.8
521.082	902
521.481	898.7
521.902	893.6
522.301	894
522.722	882.2
523.121	872.4
523.542	874.1
523.963	875.5
524.362	869.3
524.783	867.3
525.183	860.6
525.604	856.8
526.003	851.7
526.425	843.7
526.824	856.7
527.246	855.7
527.646	859.8
528.067	847.4
528.467	833.5
528.888	836.3
529.289	822.7
529.71	824.2
530.11	823.2
530.532	819.2
530.932	819.4
531.354	804.9
531.755	849.4
532.176	810.7
532.577	806.4
532.999	797.9
533.4	786.5
533.822	806.4
534.223	794.8
534.645	793.2
535.046	788.7
535.468	788.9
535.869	799.7
536.292	778.6
536.693	777.3
537.115	784.5
537.516	773.2
537.939	773.5
538.34	794.8
538.742	775.7
539.165	768.4
539.566	768.9
539.989	760.6
540.391	761.4
540.814	762.9
541.216	765.2
541.639	762.8
542.041	770
542.464	751.7
542.866	750.1
543.268	746.4
543.691	755
544.093	748.9
544.517	767.2
544.919	740.5
545.343	768.9
545.745	735
546.147	745.9
546.571	740.7
546.974	729.3
547.398	737.8
547.8	748.4
548.224	731.1
548.627	717.9
549.03	732.1
549.454	720.6
549.857	714.1
550.281	714.9
550.684	713.5
551.087	731.3
551.512	722.3
551.915	719.7
552.34	712.9
552.743	708.4
553.146	706.6
553.571	704.3
553.975	718.2
554.399	699.7
554.803	755.6
555.207	696.5
555.632	694.4
556.036	702.6
556.461	680.1
556.865	694.5
557.268	682.6
557.694	691.6
558.098	693.5
558.502	692.4
558.927	675.5
559.332	671.3
559.736	682.1
560.162	685.1
560.566	679.5
560.992	680.2
561.396	689.1
561.801	676
562.227	681
562.631	664.4
563.036	669.3
563.462	677.7
563.867	667.8
564.272	656.9
564.698	674.8
565.103	659.4
565.508	680.1
565.935	669.3
566.34	653.8
566.745	673.1
567.172	655.8
567.577	684
567.982	669.3
568.409	663.2
568.815	649.7
569.22	652.5
569.626	660.2
570.053	641.5
570.459	657.6
570.865	656.3
571.292	657.3
571.698	657.6
572.104	634.5
572.531	637.4
572.937	642.1
573.343	645.2
573.75	640.7
574.177	645.2
574.583	644.7
574.99	640.9
575.396	649
575.824	636.2
576.231	637.1
576.637	633.7
577.065	661.5
577.472	628.9
577.879	635.8
578.286	645.6
578.714	626.3
579.121	626.6
579.528	632.4
579.935	640.8
580.364	628.6
580.771	618
581.178	617.8
581.585	636.5
582.014	632.6
582.421	621.3
582.829	626.5
583.236	633.3
583.644	620.5
584.073	620.4
584.481	620.7
584.889	612.7
585.296	628.6
585.726	625.3
586.134	610.5
586.542	612.1
586.95	633.8
587.358	609.5
587.787	617.2
588.196	603.7
588.604	607.3
589.012	616.6
589.421	609.6
589.851	606.1
590.259	615.9
590.668	606.4
591.076	646.9
591.485	603.8
591.894	603.5
592.324	618
592.733	612.9
593.142	597.5
593.551	607.2
593.96	633.4
594.369	597.5
594.8	592
595.209	601.4
595.618	590.6
596.028	596
596.437	597.7
596.847	604.4
597.256	599.9
597.687	600.1
598.097	606.5
598.507	586
598.917	603.9
599.327	594.8
599.736	604.7
600.146	599.8
600.556	596.9
600.988	603.6
601.398	590.9
601.808	602.8
602.219	579.9
602.629	595.8
603.039	594
603.45	617.3
603.86	597.6
604.271	605.6
604.703	587.7
605.114	592.1
605.525	587
605.935	591.9
606.346	609.7
606.757	583.9
607.168	585.7
607.579	581.7
607.99	595.9
608.402	587
608.813	589
609.224	581.1
609.636	570.8
610.047	572.5
610.48	586.9
610.892	592.1
611.303	588.5
611.715	579.9
612.127	580.3
612.539	583
612.95	588
613.362	573.5
613.774	569.7
614.186	575.2
614.599	579.8
615.011	595.6
615.423	572.6
615.835	581.6
616.248	569.4
616.66	592
617.073	575.4
617.485	578.3
617.898	581.8
618.311	583.6
618.723	581.1
619.136	606.7
619.549	596.7
619.962	599.9
620.375	585.4
620.788	586.2
621.201	582
621.614	592.6
622.028	576.8
622.441	584.1
622.854	593.7
623.268	575.7
623.681	584.7
624.095	584.1
624.509	586.1
624.922	583.4
625.336	570.8
625.728	581.9
626.142	593.3
626.556	597.6
626.97	587.1
627.384	576.6
627.799	575.8
628.213	588.5
628.627	572.3
629.041	582.3
629.456	577.3
629.87	577.3
630.285	585.7
630.699	586.2
631.093	572.1
631.507	579.5
631.922	581.4
632.337	588.2
632.752	568.3
633.167	575.8
633.582	568.1
633.997	573.1
634.412	571.1
634.806	574.1
635.221	565.6
635.637	582.3
636.052	563.3
636.468	571
636.883	588.7
637.299	568.5
637.715	562.7
638.109	574.4
638.525	566.4
638.941	582.1
639.357	575.9
639.773	584.4
640.189	569.3
640.584	563.3
641	574.9
641.416	563
641.832	566
642.249	567.1
642.665	570.8
643.06	572.3
643.477	582
643.894	559.7
644.31	566.8
644.727	570.9
645.123	571.4
645.54	563.7
645.957	575.1
646.374	577.6
646.77	570.5
647.187	595.9
647.604	568.9
648.021	551.6
648.439	562.7
648.835	572
649.252	564.8
649.67	566.5
650.088	567.5
650.484	571.9
650.902	569.1
651.32	576.7
651.738	563.2
652.134	569.1
652.552	586.4
652.971	574.8
653.389	572.7
653.786	579.9
654.204	566.2
654.622	558.9
655.019	566.8
655.438	565.8
655.857	571.8
656.275	569.4
656.673	560.1
657.091	637.8
657.51	561.2
657.908	574.4
658.327	584.1
658.746	561
659.144	562.4
659.563	580.8
659.982	570.6
660.38	566.4
660.8	570
661.219	579.4
661.617	568.9
662.037	561.3
662.457	575.8
662.855	558.4
663.275	596.7
663.695	570.9
664.094	568.1
664.514	565.5
664.934	560.2
665.333	573.8
665.753	570.1
666.152	559.3
666.572	561.8
666.993	577.6
667.392	561.4
667.812	564.4
668.212	559.8
668.632	571.9
669.053	562.1
669.453	571.2
669.874	565.1
670.273	569.6
670.694	556.2
671.116	573.9
671.515	574.5
671.937	562.6
672.337	562
672.758	563.5
673.158	568.7
673.58	561.5
673.98	568.3
674.402	575.5
674.824	565.7
675.224	559.6
675.646	556.6
676.047	557.7
676.469	566.9
676.869	573.9
677.292	570.1
677.693	560.7
678.115	560
678.516	568.5
678.939	566.3
679.34	563.3
679.762	570.4
680.164	570.8
680.586	552.9
680.988	565.2
681.411	587.9
681.812	564.1
682.236	555.7
682.637	552.3
683.061	548.7
683.462	563.7
683.864	561.7
684.288	569
684.69	553.9
685.114	572.8
685.516	573.4
685.94	554.4
686.342	571.1
686.766	561.3
687.168	562
687.571	579.5
687.995	561.3
688.398	557.7
688.822	557
689.225	576.2
689.628	578.3
690.052	559.5
690.456	568.3
690.88	565.6
691.284	550.9
691.687	570.3
692.112	559.5
692.515	555.6
692.919	558.4
693.344	567.7
693.747	558.8
694.173	557.4
694.577	576.7
694.98	565.2
695.406	558.8
695.81	564.6
696.214	568
696.64	566.1
697.044	567.1
697.448	572.4
697.874	564.8
698.279	563
698.684	555.7
699.11	552
699.514	561.9
699.919	553.2
700.324	550.2
700.75	556.5
701.156	556.4
701.561	568.9
701.987	567.8
702.393	570
702.798	568.8
703.203	557.4
703.63	553.7
704.036	555.2
704.442	557
704.847	550.2
705.274	558.2
705.68	564.2
706.086	563.8
706.492	550
706.92	557.8
707.326	563.3
707.732	556.7
708.139	555.4
708.545	553.1
708.973	555.3
709.38	559.8
709.786	549.4
710.193	573.1
710.6	554.3
711.028	554.3
711.435	559.8
711.842	557.6
712.249	556.8
712.656	558.9
713.064	568.4
713.492	551.2
713.9	557.3
714.307	565.3
714.715	563
715.123	562.5
715.53	560.5
715.938	563.1
716.367	560.2
716.775	564.4
717.184	554.8
717.592	556.6
718	573.2
718.408	592.4
718.816	601.8
719.225	565.3
719.633	561.2
720.042	550.8
720.472	555.9
720.881	580.8
721.29	564.9
721.699	550.4
722.108	558.9
722.517	563.1
722.926	553.8
723.335	565.9
723.744	557.8
724.154	558.6
724.563	561.5
724.973	563
725.382	558.9
725.792	552.8
726.202	552.8
726.612	567.8
727.022	555.1
727.432	554.6
779.813	557.9
780.223	603.9
780.634	552.9
781.044	552.3
781.454	559.8
781.865	571.5
782.276	550
782.686	567.5
783.097	562.9
783.508	551.6
783.919	561.5
784.33	570.7
784.741	572.3
785.152	562.4
785.563	543.5
785.974	556
786.386	567.7
786.776	554.4
787.188	557.4
787.599	555.5
788.011	565.1
788.423	560.5
788.835	555
789.247	546.6
789.659	556.7
790.071	551.6
790.483	598
790.874	555.6
791.286	564.8
791.699	554.3
792.111	557.9
792.524	558.4
792.937	559.4
793.349	542.3
793.741	549.9
794.154	552.5
794.567	574
794.98	553.7
795.393	548
795.785	567.5
796.198	553.4
796.612	558.7
797.026	556
797.439	545.9
797.831	552.9
798.245	545.8
798.659	547.6
799.073	549.4
799.487	552
799.88	551
800.294	553
800.708	559.4
801.123	555.9
801.516	569.5
801.93	544.1
802.345	540.7
802.76	557.5
803.153	562.9
803.568	569.3
803.983	563.1
804.377	557.7
804.792	543
805.207	546.8
805.601	553.9
806.016	585
806.432	545.5
806.826	586.4
807.242	571.3
807.658	558.4
808.052	551.6
808.468	553.1
808.884	545.1
809.279	553.9
809.695	561.8
810.111	571.8
810.506	563.2
810.922	575.9
811.339	550.7
811.734	567.4
812.151	554.5
812.546	553.6
812.963	550.5
813.38	560.7
813.776	559.3
814.193	577
814.589	547.6
815.006	547.6
815.402	551.7
815.82	548
816.237	557.6
816.633	555
817.051	552.3
817.448	558.1
817.866	550.7
818.262	576.5
818.68	553.7
819.077	552.6
819.495	551.8
819.892	597.7
820.311	550.6
820.708	549.1
821.127	551.5
821.524	566.3
821.943	563.6
822.34	572
822.759	557.1
823.157	555.9
823.576	574.6
823.974	562.1
824.393	561.8
824.791	551.9
825.189	540
825.609	550.4
826.007	559
826.427	541.8
826.826	552.4
827.246	551.5
827.644	539.4
828.043	560.2
828.463	551.9
828.862	564.1
829.261	560.1
829.682	547.2
830.081	560.6
830.502	549.3
830.901	561.3
831.301	549.8
831.722	541.3
832.121	553.4
832.521	550.9
832.943	549.7
833.342	552.7
833.742	547.3
834.164	555.1
834.564	541.5
834.965	548.5
835.386	551.3
835.787	551.7
836.188	547.9
836.588	558.5
837.01	550
837.411	542.3
837.812	564.7
838.213	553.5
838.636	551.6
839.037	618.1
839.438	555.1
839.84	555.8
840.263	560.8
840.664	557
841.066	545.7
841.468	564.6
841.891	548.7
842.293	561
842.695	565.8
843.098	563.3
843.5	551.8
843.902	559
