#lambda/nm	C1
208.295	479.1
208.67	447
209.045	406.8
209.419	416.7
209.794	588.3
210.169	573.1
210.544	693.3
210.919	589.5
211.295	575.5
211.67	581.1
212.045	579
212.421	578.6
212.796	617.9
213.172	577.5
213.547	580.7
213.923	582.2
214.299	574.9
214.675	594.3
215.051	590.4
215.427	594.7
215.803	601.5
216.179	591.4
216.555	575.3
216.932	588.3
217.308	583.3
217.684	578.2
218.061	587.7
218.438	581.8
218.814	578.2
219.191	589.1
219.568	571.3
219.945	579.1
220.322	589.9
220.699	583.8
221.076	595.4
221.453	586.3
221.83	578.9
222.208	576.4
222.585	581.5
222.962	591.4
223.34	590.3
223.717	584.4
224.095	581.9
224.473	587.5
224.851	576
225.229	574.8
225.607	596.2
225.985	575.8
226.363	588.3
226.741	585.1
227.119	585
227.497	599.9
227.876	567.3
228.254	593.8
228.633	592.6
229.011	584.4
229.39	595.9
229.769	588.6
230.148	588.7
230.527	602.9
230.905	586.2
231.284	586
231.664	578.7
232.043	595.1
232.422	587.8
232.801	579.5
233.181	589.1
233.56	580.8
233.94	581.4
234.319	570.9
234.699	580.8
235.079	622.3
235.458	622.9
235.838	598.4
236.218	575.3
236.598	574.5
236.978	578.2
237.358	580
237.738	580
238.119	588.7
238.499	573.6
238.88	579.5
239.26	598.5
239.641	573.6
240.021	582.6
240.402	581.6
240.783	582.2
241.163	587.1
241.544	585.6
241.925	581.8
242.306	598.9
242.687	581.3
243.069	582
243.45	586.7
243.831	581.8
244.212	581.6
244.594	619.7
244.975	587.5
245.357	588.9
245.739	577.4
246.12	586.6
246.502	597.8
246.884	583.9
247.266	589
247.648	588.7
248.03	606.1
248.412	589.1
248.794	587.6
249.176	583
249.559	594.7
249.941	576.7
250.323	574.3
250.706	577.7
251.089	583.6
251.471	589.8
251.854	585.9
252.237	588
252.62	591.3
253.002	583.4
253.385	582.2
253.769	596.4
254.152	590.6
254.535	591.8
254.918	581.3
255.301	581.6
255.685	582.5
256.068	576.3
256.452	609.4
256.835	588.3
257.219	588.8
257.603	594.7
257.986	577.2
258.37	590.6
258.754	576.9
259.138	587.2
259.522	596.1
259.906	579.7
260.29	581.4
260.675	582
261.059	584.5
261.443	579.9
261.828	591.2
262.212	593.5
262.597	571
262.981	578.7
263.366	593.1
263.751	592.5
264.136	580
264.521	580.7
264.906	577.2
265.291	589.6
265.676	580.1
266.061	593.4
266.446	603
266.831	587.3
267.217	604.5
267.602	592.6
267.987	592
268.373	581
268.759	591.9
269.144	590.2
269.53	587.1
269.916	580.4
270.302	580.6
270.688	590.4
271.074	589
271.46	597.7
271.846	613.7
272.232	587
272.618	579.4
273.004	578.5
273.391	595.9
273.777	590.2
274.164	588.7
274.55	599.4
274.937	585.3
275.324	577
275.71	591.3
276.097	589.3
276.484	582.4
276.871	591
277.258	583.8
277.645	577.5
278.032	581.3
278.419	577.1
278.807	583.3
279.194	580.9
279.581	578.1
279.969	591.1
280.356	583.2
280.744	591.2
281.131	606.9
281.519	596.5
281.907	577.3
282.295	576.5
282.682	596.5
283.07	587.9
283.458	594.4
283.846	595.7
284.235	598.5
284.623	593.8
285.011	573.3
285.399	584.1
285.788	579.4
286.176	575.3
286.565	598.3
286.953	584.9
287.342	581.2
287.731	577.7
288.119	579.6
288.508	580.5
288.897	586.2
289.286	574.3
289.675	588.2
290.064	592.9
290.453	588.2
290.821	585.5
291.21	600
291.599	586.3
291.989	586.1
292.378	593.6
292.768	604.2
293.157	585.2
293.547	591.4
293.936	584.7
294.326	578.6
294.716	589.6
295.106	578.2
295.496	594.6
295.886	595.7
296.276	584.7
296.666	579.9
297.056	576.9
297.446	578.6
297.836	600.1
298.227	579.9
298.617	587.7
299.008	602.4
299.398	582
299.789	580.4
300.179	588.8
300.57	598.5
300.961	585.7
301.352	581.2
301.742	595
302.133	584.9
302.524	581.4
302.915	589.1
303.307	580.6
303.698	595.5
304.089	588
304.48	588.4
304.872	589
305.263	586.4
305.655	577.2
306.046	587.1
306.438	590.7
306.829	581
307.221	600.5
307.613	592
308.005	598.3
308.397	603.8
308.789	606.5
309.181	608.8
309.573	601.9
309.965	598.2
310.357	583.7
310.749	591.8
311.142	582.8
311.534	572.9
311.926	593.7
312.319	584.5
312.711	578.8
313.104	598.4
313.497	583
313.889	620.6
314.282	603
314.675	606.9
315.068	587.2
315.461	593.2
315.854	614.5
316.247	593.2
316.64	583.4
317.033	587.8
317.405	599.3
317.798	586.1
318.192	593.3
318.585	580.5
318.979	597.5
319.372	586
319.766	586.4
320.16	598.8
320.553	597.7
320.947	606.4
321.341	586.1
321.735	582.1
322.129	570.3
322.523	613
322.917	580.3
323.311	598
323.705	586.5
324.099	592.3
324.494	604.1
324.888	599.4
325.282	586.8
325.677	596.8
326.071	592.3
326.466	601.3
326.861	590.9
327.255	597.9
327.65	602.1
328.045	603.1
328.44	588.4
328.835	583.8
329.23	581.4
329.625	610.1
330.02	576.5
330.415	605
330.81	593.2
331.206	585.3
331.601	585.9
331.996	599.3
332.37	599.9
332.766	582.9
333.161	611.9
333.557	584.6
333.953	586
334.348	872.8
334.744	586.5
335.14	581.2
335.536	579.2
335.932	595.2
336.328	582
336.724	592.9
337.12	585.4
337.516	590.8
337.913	586.2
338.309	603.2
338.705	588.4
339.102	597.6
339.498	585.2
339.895	602.9
340.291	580.1
340.688	593.6
341.085	574.7
341.481	582.7
341.878	579.4
342.275	601.9
342.672	577.6
343.069	576.9
343.466	574.8
343.842	598.3
344.239	578.5
344.636	587.1
345.033	580.4
345.431	583.9
345.828	585.8
346.225	583.3
346.623	596
347.02	582.6
347.418	597.3
347.816	598.1
348.213	575.9
348.611	585.6
349.009	581.9
349.407	598.7
349.805	577.4
350.203	576.6
350.601	596.9
350.999	576.9
351.397	578.6
351.795	585.8
352.193	590.7
352.57	590.6
352.969	591.4
353.367	577.5
353.766	574.9
354.164	581.1
354.563	591.8
354.961	586
355.36	579.8
355.759	582.5
356.158	570.4
356.557	577.4
356.956	569.5
357.355	568.7
357.754	586.2
358.153	588.2
358.552	602.5
358.951	578.5
359.35	587.3
359.75	578.4
360.149	572.3
360.527	567.2
360.926	572
361.326	583.8
361.726	578.4
362.125	569.8
362.525	587.8
362.925	578
363.325	580.3
363.724	578.9
364.124	575
364.524	568.1
364.924	579.5
365.324	590
365.725	562.5
366.125	590.1
366.525	577.1
366.904	575.7
367.304	563.8
367.705	595.2
368.105	591.5
368.506	572.1
368.906	573.4
369.307	581.2
369.708	581.8
370.108	563.9
370.509	587.7
370.91	570.6
371.311	577.3
371.712	583.9
372.113	574.9
372.514	567.5
372.894	576.3
373.295	575.1
373.696	588.6
374.097	584.6
374.499	607.7
374.9	583.3
375.301	575.5
375.703	576.9
376.105	572.6
376.506	584.9
376.908	579.9
377.309	579.9
377.711	577
378.113	571.8
378.493	582.4
378.895	569.3
379.297	584.8
379.699	564.9
380.102	576.9
380.504	584.2
380.906	574.6
381.308	599.5
381.71	580.4
382.113	585.1
382.515	575.7
382.918	584.2
383.299	586.8
383.701	591.5
384.104	580.2
384.507	563.9
384.909	574.4
385.312	569.7
385.715	576
386.118	579.7
386.521	564.1
386.924	587.3
387.327	569.2
387.709	565.3
388.112	560.9
388.515	574.3
388.918	582.7
389.322	577
389.725	575.3
390.129	594.9
390.532	585.8
390.936	575.5
391.339	568
391.743	580.9
392.125	569.1
392.529	585.6
392.933	588.1
393.337	579.5
393.74	572.2
394.144	575
394.548	567.3
394.953	575.4
395.357	583
395.761	571.8
396.144	581.1
396.548	574.8
396.952	576.6
397.357	576.9
397.761	571.2
398.166	571.1
398.57	578.2
398.975	567.4
399.379	582
399.763	620.9
400.168	577
400.572	580.7
400.977	568.3
401.382	591.1
401.787	587.2
402.192	598.9
402.597	589.1
403.002	566.4
403.386	587.6
403.791	599
404.197	570.4
404.602	576.8
405.007	578.3
405.413	568
405.818	569.2
406.224	574.7
406.608	570.3
407.014	574.6
407.42	589.6
407.825	579
408.231	588.9
408.637	577.6
409.043	587.4
409.449	577.2
409.834	579.2
410.24	580.2
410.646	586.5
411.052	585.4
411.458	578.3
411.865	584.2
412.271	589
412.677	585.9
413.062	587.4
413.469	568.1
413.875	603.7
414.282	591.2
414.689	584.5
415.095	584.9
415.502	578.6
415.888	578.9
416.294	571.1
416.701	614
417.108	568.8
417.515	583.9
417.923	576.4
418.33	598.1
418.715	585.1
419.123	576
419.53	572.4
419.937	579.9
420.345	592
420.752	572.8
421.16	597.3
421.546	583.6
421.953	585.8
422.361	568.9
422.769	575.1
423.177	573.2
423.585	598.6
423.992	602
424.379	588.9
424.787	584
425.195	597.8
425.603	579
426.011	593.3
426.419	594.9
426.806	582.7
427.214	584.4
427.623	592.7
428.031	600.2
428.44	582.9
428.848	585.9
429.235	593.1
429.644	581.2
430.053	577.3
430.461	598.5
430.87	610.8
431.279	587.4
431.666	576.6
432.075	587.2
432.484	591.4
432.893	583.7
433.302	604.5
433.711	627.3
434.099	587.4
434.508	587.4
434.918	584.1
435.327	596.7
435.737	596.2
436.125	598.2
436.534	596.1
436.944	599.8
437.353	598.4
437.763	614
438.173	596.1
438.561	612.6
438.971	589.4
439.381	596.9
439.791	606.9
440.201	591.4
440.589	603.5
440.999	605.2
441.409	602.6
441.819	595.5
442.23	614.5
442.619	614.6
443.029	608.5
443.439	610.8
443.85	615.2
444.26	621.6
444.649	618.2
445.06	608.2
445.471	607.3
445.881	617
446.292	621.9
446.682	635.9
447.092	599.9
447.503	668.5
447.914	614.7
448.325	608.1
448.715	617.7
449.126	610.5
449.537	614.9
449.948	616.4
450.338	617.4
450.75	617.5
451.161	612.8
451.572	620.9
451.984	612.1
452.374	605.3
452.786	613.5
453.197	619.7
453.609	617.2
453.999	599.8
454.411	605
454.823	625.8
455.235	616.3
455.647	615.5
456.037	619.8
456.449	605.6
456.862	609.1
457.274	618.1
457.665	610.6
458.077	623.5
458.489	631.4
458.902	615.3
459.293	624.5
459.705	612.3
460.118	616.2
460.53	621.9
460.921	615.5
461.334	619.8
461.747	621.8
462.16	632.8
462.551	626.2
462.964	622.6
463.377	606.5
463.79	614.7
464.182	627.3
464.595	608.8
465.008	615.7
465.421	621
465.813	611.8
466.226	616.9
466.64	608.5
467.053	653.1
467.445	622.7
467.859	612
468.272	611.8
468.686	629.4
469.078	610.4
469.492	597.8
469.906	614.6
470.298	619
470.712	606.2
471.126	645.7
471.54	594.8
471.933	600.9
472.347	613.9
472.761	609.9
473.175	599.4
473.568	610.2
473.982	600.7
474.397	608.2
474.79	610.3
475.204	616.4
475.619	611.4
476.033	616.8
476.426	608.2
476.841	608.9
477.256	635.1
477.649	599
478.064	604.8
478.479	605.1
478.872	606.9
479.287	595.8
479.702	596.5
480.118	612.3
480.511	611.2
480.927	591
481.342	606.6
481.736	612.5
482.151	602.7
482.566	616.2
482.96	605.1
483.376	618.3
483.792	602.4
484.186	607.5
484.602	607.6
485.017	608.4
485.412	604.6
485.827	611
486.243	603.3
486.638	629.1
487.054	610
487.47	621.7
487.865	604.3
488.281	598.4
488.697	594.2
489.092	598.7
489.508	594.8
489.925	611.2
490.32	590.3
490.736	597.9
491.153	603.5
491.548	605.1
491.964	610.9
492.381	590.9
492.776	607.2
493.193	605.6
493.61	606.9
494.006	605.9
494.422	607.1
494.84	596.8
495.235	610.4
495.652	601
496.069	607.7
496.465	591.9
496.883	595.1
497.3	625.8
497.696	592.8
498.113	605.2
498.509	587.9
498.927	585.7
499.344	594.1
499.741	586.6
500.158	605.5
500.576	603.6
500.973	595.9
501.39	586.6
501.787	586.5
502.205	594.4
502.623	587.5
503.02	580.7
503.438	586
503.856	592
504.253	592.3
504.671	584.7
505.068	589.5
505.486	591.3
505.905	606.6
506.302	597.6
506.72	603
507.118	586.3
507.536	591.6
507.955	587.4
508.352	590.1
508.771	599.9
509.169	597
509.587	586.5
510.006	591
510.404	581.3
510.823	582.5
511.221	585.3
511.64	588.1
512.038	598
512.457	590.5
512.877	583.9
513.275	584.2
513.694	583
514.092	588.5
514.512	588.6
514.91	586
515.33	586.2
515.749	588
516.148	585
516.568	591.8
516.966	586.3
517.386	583.8
517.785	582.8
518.205	583
518.603	580.7
519.024	573.3
519.444	586.8
519.843	589.3
520.263	589.8
520.662	587.4
521.082	580.5
521.481	588.6
521.902	582.9
522.301	586
522.722	579.1
523.121	580.3
523.542	574.5
523.963	575.3
524.362	577.9
524.783	581.8
525.183	575
525.604	583.5
526.003	577.8
526.425	575.2
526.824	584.2
527.246	584
527.646	582.4
528.067	582.4
528.467	583.2
528.888	584.6
529.289	582.5
529.71	583
530.11	577.3
530.532	573.7
530.932	576.3
531.354	568.8
531.755	613.9
532.176	580
532.577	577.1
532.999	579.9
533.4	571.7
533.822	591
534.223	576.3
534.645	576.3
535.046	575.5
535.468	579.9
535.869	588.5
536.292	567.8
536.693	573.8
537.115	576.4
537.516	571.3
537.939	572.7
538.34	591.9
538.742	590.2
539.165	579
539.566	580.6
539.989	568.3
540.391	575.3
540.814	575.6
541.216	585
541.639	578.1
542.041	584.4
542.464	569.2
542.866	568.7
543.268	566.7
543.691	581.2
544.093	580.2
544.517	595.6
544.919	565.8
545.343	594.2
545.745	564.1
546.147	574.3
546.571	568.5
546.974	564.3
547.398	573.9
547.8	584.8
548.224	570.5
548.627	566.6
549.03	579.5
549.454	566.8
549.857	561.7
550.281	564.1
550.684	571.9
551.087	579.5
551.512	573.5
551.915	578.8
552.34	573.6
552.743	564.3
553.146	574.8
553.571	569.5
553.975	590.5
554.399	563.7
554.803	621.9
555.207	569.9
555.632	563.3
556.036	574.4
556.461	559.7
556.865	572.6
557.268	558.4
557.694	566.3
558.098	574.2
558.502	570.6
558.927	563.3
559.332	569.2
559.736	571.4
560.162	570.1
560.566	564.4
560.992	576
561.396	572.9
561.801	560.7
562.227	570.4
562.631	570.9
563.036	565.9
563.462	574
563.867	569.7
564.272	553.1
564.698	567.2
565.103	553.7
565.508	585.3
565.935	569.7
566.34	566.5
566.745	576.4
567.172	564.1
567.577	585.5
567.982	582.3
568.409	572.1
568.815	558.6
569.22	563.6
569.626	572.4
570.053	557.7
570.459	574.6
570.865	573.8
571.292	576.1
571.698	570.7
572.104	556.1
572.531	560.9
572.937	578.8
573.343	569.3
573.75	562.3
574.177	569.5
574.583	576.5
574.99	561.1
575.396	571.6
575.824	565.7
576.231	571.3
576.637	564.2
577.065	591.7
577.472	561
577.879	565.2
578.286	580.7
578.714	558.7
579.121	564.1
579.528	569.8
579.935	573.4
580.364	565.9
580.771	549
581.178	559.2
581.585	570.1
582.014	568.8
582.421	556.2
582.829	565.3
583.236	574.6
583.644	558.7
584.073	561.7
584.481	564.9
584.889	557.6
585.296	566
585.726	561.1
586.134	556.7
586.542	559.1
586.95	581.6
587.358	556.4
587.787	567.7
588.196	557.7
588.604	562.2
589.012	560.7
589.421	553.2
589.851	559.9
590.259	570.2
590.668	557.6
591.076	599.5
591.485	558.9
591.894	561.8
592.324	574.7
592.733	573.9
593.142	554.4
593.551	561
593.96	600.5
594.369	553.1
594.8	559.3
595.209	561.3
595.618	547.5
596.028	557.3
596.437	562.2
596.847	563.2
597.256	564
597.687	569.1
598.097	563.9
598.507	555.1
598.917	567.5
599.327	570.7
599.736	565.4
600.146	575.1
600.556	562.6
600.988	570.7
601.398	560
601.808	574.8
602.219	555.4
602.629	559.6
603.039	566.6
603.45	590.8
603.86	563.7
604.271	578.4
604.703	563.8
605.114	562.2
605.525	561.6
605.935	572.6
606.346	584.5
606.757	568.7
607.168	566.3
607.579	556.1
607.99	575.7
608.402	561.3
608.813	564
609.224	558.9
609.636	557.7
610.047	553
610.48	563.8
610.892	560.4
611.303	574.1
611.715	560.2
612.127	550.4
612.539	559.8
612.95	562.4
613.362	553.9
613.774	553
614.186	556.5
614.599	558
615.011	564.9
615.423	551.6
615.835	556.3
616.248	551.4
616.66	563.4
617.073	554.3
617.485	553.2
617.898	560.6
618.311	563.7
618.723	558.6
619.136	587.2
619.549	573.7
619.962	581.3
620.375	563.1
620.788	565
621.201	559.2
621.614	568.6
622.028	558.5
622.441	566.1
622.854	576.2
623.268	559.5
623.681	567.5
624.095	560.2
624.509	567.7
624.922	560.3
625.336	547.9
625.728	558.9
626.142	569.1
626.556	577.5
626.97	568.9
627.384	557.8
627.799	565.6
628.213	571.3
628.627	562
629.041	560.2
629.456	559.2
629.87	566.3
630.285	570
630.699	568.9
631.093	562.2
631.507	566.8
631.922	564.4
632.337	574.4
632.752	547.4
633.167	564
633.582	554.6
633.997	559
634.412	556.7
634.806	563
635.221	551.6
635.637	565.6
636.052	547.2
636.468	561.6
636.883	578.8
637.299	564.6
637.715	549.6
638.109	558.6
638.525	551.5
638.941	575.2
639.357	563.5
639.773	570.4
640.189	554.6
640.584	560.5
641	563.3
641.416	550.2
641.832	554.7
642.249	556.3
642.665	556.9
643.06	565.1
643.477	565.1
643.894	543.5
644.31	557.4
644.727	558.3
645.123	556.3
645.54	550.2
645.957	556.3
646.374	566.4
646.77	554.4
647.187	580
647.604	560.7
648.021	545.6
648.439	553.5
648.835	557.1
649.252	559.8
649.67	556.5
650.088	562.6
650.484	566.3
650.902	567.6
651.32	562.1
651.738	555.4
652.134	564.4
652.552	580.3
652.971	566.7
653.389	562.5
653.786	572.4
654.204	560.6
654.622	551.1
655.019	555.8
655.438	566.1
655.857	560.3
656.275	561.2
656.673	550
657.091	621.3
657.51	557
657.908	564.1
658.327	570.1
658.746	547.2
659.144	556.5
659.563	572.9
659.982	565.1
660.38	547.9
660.8	564.3
661.219	563.7
661.617	557.3
662.037	555.9
662.457	572.3
662.855	545.9
663.275	591
663.695	560.8
664.094	555.5
664.514	559.5
664.934	552.7
665.333	562.8
665.753	557.5
666.152	546.8
666.572	552.5
666.993	571.2
667.392	560.2
667.812	555.6
668.212	555.6
668.632	566.2
669.053	549.5
669.453	567.9
669.874	559.9
670.273	562.2
670.694	553
671.116	572.5
671.515	566.8
671.937	558.3
672.337	553.4
672.758	556.4
673.158	565.6
673.58	547.5
673.98	560.3
674.402	567.8
674.824	560.5
675.224	554.9
675.646	549.6
676.047	554.4
676.469	551.5
676.869	558.5
677.292	556.7
677.693	555
678.115	548.6
678.516	560.2
678.939	561.4
679.34	560
679.762	561.6
680.164	560.8
680.586	547.4
680.988	559.8
681.411	580.4
681.812	552.7
682.236	550.9
682.637	552.7
683.061	548.7
683.462	563.8
683.864	553.1
684.288	560.7
684.69	548.6
685.114	570.6
685.516	567
685.94	556.6
686.342	559.2
686.766	553.4
687.168	551.6
687.571	576.6
687.995	557.9
688.398	551.2
688.822	555.8
689.225	573.2
689.628	575.7
690.052	559.9
690.456	562.8
690.88	558.6
691.284	549
691.687	561.6
692.112	553.7
692.515	548.3
692.919	557
693.344	560.5
693.747	555.9
694.173	550.6
694.577	566.9
694.98	553.9
695.406	553.9
695.81	559.2
696.214	560
696.64	561.9
697.044	565.4
697.448	564.7
697.874	554
698.279	557.5
698.684	550.2
699.11	557.5
699.514	551.6
699.919	552.4
700.324	542.3
700.75	556.4
701.156	559.1
701.561	569.7
701.987	556.5
702.393	564.1
702.798	564.1
703.203	560
703.63	551.2
704.036	552.3
704.442	553.9
704.847	548.9
705.274	551.4
705.68	557.1
706.086	562.4
706.492	551.5
706.92	551.3
707.326	566.5
707.732	555.9
708.139	549.6
708.545	546.4
708.973	548.2
709.38	553.5
709.786	549.2
710.193	571.4
710.6	557
711.028	552.5
711.435	556.6
711.842	556.4
712.249	554
712.656	553.5
713.064	565.5
713.492	554
713.9	550.3
714.307	551.7
714.715	554.1
715.123	560.4
715.53	559.9
715.938	565.1
716.367	550.8
716.775	554.5
717.184	546.6
717.592	556.3
718	560.9
718.408	585.3
718.816	601.2
719.225	563.3
719.633	557.7
720.042	549.9
720.472	553.7
720.881	574.8
721.29	559.3
721.699	546.8
722.108	563.5
722.517	554.8
722.926	548.4
723.335	564.1
723.744	554
724.154	553.7
724.563	558.9
724.973	556.6
725.382	556.9
725.792	552.1
726.202	550.6
726.612	565.9
727.022	550.8
727.432	552.1
779.813	550.7
780.223	599.3
780.634	551.8
781.044	551.5
781.454	552.6
781.865	562.8
782.276	547.2
782.686	567.2
783.097	556.4
783.508	553.8
783.919	556.6
784.33	566.4
784.741	568.8
785.152	554.2
785.563	549.4
785.974	550.3
786.386	564.8
786.776	553.8
787.188	553.2
787.599	548.1
788.011	560.7
788.423	556.6
788.835	547.4
789.247	551.3
789.659	546
790.071	550.8
790.483	589.3
790.874	550.5
791.286	554.6
791.699	546.2
792.111	553.5
792.524	557.2
792.937	551.5
793.349	546.7
793.741	548
794.154	550.4
794.567	572.6
794.98	550.2
795.393	549.1
795.785	564.8
796.198	550.3
796.612	553.7
797.026	550.3
797.439	542
797.831	550.2
798.245	540.6
798.659	551.7
799.073	549.4
799.487	547.1
799.88	552.2
800.294	549.3
800.708	557.7
801.123	556.5
801.516	571.8
801.93	542.3
802.345	539.5
802.76	550.1
803.153	561.8
803.568	567.4
803.983	563.6
804.377	552.8
804.792	541.7
805.207	539.8
805.601	556.3
806.016	585.2
806.432	545.3
806.826	583.1
807.242	564.7
807.658	552.8
808.052	547.8
808.468	555.3
808.884	544
809.279	557
809.695	568.1
810.111	569.5
810.506	556.4
810.922	573.5
811.339	549.5
811.734	561.6
812.151	551.5
812.546	542.1
812.963	544.4
813.38	553.6
813.776	548.8
814.193	577.5
814.589	553.3
815.006	556.9
815.402	551.2
815.82	554
816.237	548.6
816.633	558.5
817.051	549.8
817.448	557.8
817.866	548.3
818.262	575
818.68	552.2
819.077	550.7
819.495	555.2
819.892	594.2
820.311	545.6
820.708	546.7
821.127	550.3
821.524	565.5
821.943	558.5
822.34	565.4
822.759	553.8
823.157	547.9
823.576	561.1
823.974	557.9
824.393	557.2
824.791	544.4
825.189	542.8
825.609	543.5
826.007	550
826.427	540.9
826.826	550.7
827.246	552.2
827.644	538.5
828.043	563.1
828.463	548.7
828.862	559.5
829.261	556.5
829.682	540.6
830.081	563.2
830.502	545.9
830.901	558.4
831.301	544.7
831.722	545.5
832.121	553.4
832.521	545.7
832.943	551.2
833.342	556.1
833.742	550.5
834.164	553.6
834.564	543.9
834.965	549
835.386	547
835.787	554.7
836.188	545.1
836.588	552.9
837.01	551.6
837.411	541.5
837.812	561.4
838.213	556.6
838.636	546.5
839.037	615.6
839.438	553.7
839.84	552.8
840.263	557.4
840.664	557.8
841.066	550.9
841.468	554.1
841.891	545.7
842.293	561.1
842.695	551
843.098	559.8
843.5	554.1
843.902	556.9
844.326	558.9
844.729	551.3
845.131	565.2
845.534	549.5
845.937	567.4
846.34	566.2
846.764	544.2
847.167	553.5
