#lambda/nm	C1
208.295	481.7
208.67	445.9
209.045	408.4
209.419	413.1
209.794	589.4
210.169	570.9
210.544	691.6
210.919	587
211.295	581.4
211.67	590.4
212.045	583
212.421	578.5
212.796	621
213.172	577.1
213.547	578.5
213.923	581.9
214.299	577.2
214.675	596.1
215.051	590.5
215.427	586.4
215.803	601.2
216.179	588.2
216.555	582.7
216.932	595.8
217.308	584.9
217.684	582
218.061	588.9
218.438	588.2
218.814	581.9
219.191	592.6
219.568	578.5
219.945	589.6
220.322	591.6
220.699	590.7
221.076	592.8
221.453	586.5
221.83	576.7
222.208	578.9
222.585	582.1
222.962	586.5
223.34	594.7
223.717	582.2
224.095	583
224.473	586.3
224.851	585.3
225.229	576.1
225.607	602.5
225.985	573.8
226.363	591.4
226.741	585.9
227.119	590.5
227.497	592.8
227.876	577.7
228.254	593.3
228.633	587.5
229.011	591.5
229.39	592.4
229.769	585.1
230.148	585.9
230.527	602.7
230.905	585.5
231.284	591.3
231.664	573.3
232.043	597.1
232.422	592.1
232.801	580.2
233.181	589.8
233.56	585.9
233.94	579.1
234.319	574.4
234.699	582.2
235.079	620.4
235.458	616.9
235.838	603.1
236.218	582.9
236.598	571.8
236.978	572.9
237.358	583.7
237.738	580.6
238.119	588.1
238.499	577.5
238.88	581.4
239.26	598.5
239.641	570.9
240.021	581.3
240.402	586.9
240.783	579.4
241.163	581.4
241.544	589.9
241.925	579.5
242.306	595.3
242.687	573.1
243.069	579
243.45	586.4
243.831	572.8
244.212	591.7
244.594	615.3
244.975	596.1
245.357	592.2
245.739	577.8
246.12	584
246.502	594.5
246.884	579
247.266	581.8
247.648	585.1
248.03	602.1
248.412	590.4
248.794	590.3
249.176	580.1
249.559	587.5
249.941	578.7
250.323	572.4
250.706	583.8
251.089	583.6
251.471	583.4
251.854	582.9
252.237	582.2
252.62	599.9
253.002	589.7
253.385	584.8
253.769	600.2
254.152	595.7
254.535	592.7
254.918	577.5
255.301	584.7
255.685	588.9
256.068	582.5
256.452	608.3
256.835	596.5
257.219	592.4
257.603	597.9
257.986	574.7
258.37	588.7
258.754	574.5
259.138	592.4
259.522	589.9
259.906	572
260.29	586.8
260.675	582
261.059	590
261.443	580.9
261.828	594.5
262.212	589.6
262.597	577.9
262.981	586.8
263.366	590.9
263.751	583.8
264.136	583.7
264.521	585.2
264.906	577.5
265.291	597.9
265.676	583
266.061	591.7
266.446	600.9
266.831	584.5
267.217	601.8
267.602	587.8
267.987	584.7
268.373	579.9
268.759	593.5
269.144	588.7
269.53	583.6
269.916	584
270.302	582.2
270.688	594.1
271.074	585.8
271.46	595
271.846	615.2
272.232	581.3
272.618	581.9
273.004	586.1
273.391	596.1
273.777	591.8
274.164	592
274.55	606.4
274.937	594.3
275.324	585
275.71	590.5
276.097	597.4
276.484	582.1
276.871	591.8
277.258	590.2
277.645	579.9
278.032	583.1
278.419	589
278.807	594.1
279.194	582
279.581	577
279.969	591.6
280.356	588.1
280.744	587.4
281.131	606.5
281.519	598.7
281.907	581.6
282.295	581.7
282.682	598
283.07	586.4
283.458	596.9
283.846	596.4
284.235	600.9
284.623	606.3
285.011	585.2
285.399	590.6
285.788	582.6
286.176	575.5
286.565	593.9
286.953	584.3
287.342	583.8
287.731	579.5
288.119	576.8
288.508	584.2
288.897	587.4
289.286	574.9
289.675	588.8
290.064	598.3
290.453	581.4
290.821	582.8
291.21	604.6
291.599	582.9
291.989	585.5
292.378	586.2
292.768	605.8
293.157	587.2
293.547	591.6
293.936	585.2
294.326	582.7
294.716	594.6
295.106	586
295.496	591.8
295.886	597.7
296.276	585.9
296.666	585
297.056	580.8
297.446	578.6
297.836	605.1
298.227	583.2
298.617	587.8
299.008	597.2
299.398	584.1
299.789	587.7
300.179	595
300.57	601.9
300.961	581.7
301.352	585
301.742	590.9
302.133	593.4
302.524	583.8
302.915	590.5
303.307	577.9
303.698	595.8
304.089	588.7
304.48	583.9
304.872	592.1
305.263	581.1
305.655	585.5
306.046	590.6
306.438	594.4
306.829	584.1
307.221	599.8
307.613	596.8
308.005	591.7
308.397	600
308.789	607.7
309.181	607.8
309.573	601.4
309.965	600.6
310.357	580.1
310.749	588.1
311.142	586.2
311.534	584.6
311.926	594.8
312.319	587.3
312.711	586.5
313.104	602.4
313.497	581.6
313.889	623.1
314.282	605.8
314.675	612.3
315.068	588.4
315.461	593.1
315.854	617
316.247	595.9
316.64	590.9
317.033	592.1
317.405	597.6
317.798	591.3
318.192	593.4
318.585	580.3
318.979	594.1
319.372	577.5
319.766	587.4
320.16	594
320.553	603.2
320.947	611.9
321.341	579.5
321.735	588.4
322.129	580.5
322.523	614.9
322.917	583.6
323.311	596.5
323.705	592.2
324.099	589.3
324.494	604.3
324.888	603.4
325.282	586.9
325.677	592.4
326.071	600.3
326.466	595.8
326.861	594
327.255	603.4
327.65	597.3
328.045	609.4
328.44	597.4
328.835	585.1
329.23	580.6
329.625	606.9
330.02	589
330.415	603.1
330.81	591.4
331.206	593.2
331.601	587.7
331.996	593.8
332.37	594.7
332.766	577.2
333.161	605.8
333.557	585.7
333.953	581.7
334.348	954.4
334.744	587.5
335.14	579.7
335.536	584
335.932	596.1
336.328	583.8
336.724	596.7
337.12	588.7
337.516	584.1
337.913	589.1
338.309	599.3
338.705	587.9
339.102	599.9
339.498	583.4
339.895	604
340.291	580.2
340.688	593.1
341.085	575.5
341.481	587.3
341.878	586
342.275	607
342.672	580.8
343.069	576.8
343.466	569.6
343.842	590.5
344.239	575.8
344.636	588.6
345.033	576
345.431	580.5
345.828	583.3
346.225	581.8
346.623	595
347.02	585.8
347.418	592.2
347.816	607.4
348.213	581.9
348.611	586.8
349.009	579.8
349.407	595
349.805	575.1
350.203	569.7
350.601	595.4
350.999	581.6
351.397	577.9
351.795	581.6
352.193	588.4
352.57	586.7
352.969	595.7
353.367	577.9
353.766	578.5
354.164	585.3
354.563	593.2
354.961	582.3
355.36	582
355.759	585.6
356.158	576
356.557	579.7
356.956	580.3
357.355	570.6
357.754	589.2
358.153	589.5
358.552	600.5
358.951	579.9
359.35	596.1
359.75	577.2
360.149	569
360.527	568
360.926	572.4
361.326	585.7
361.726	583.6
362.125	579.2
362.525	587.5
362.925	578.8
363.325	579.9
363.724	577.8
364.124	575.6
364.524	570.6
364.924	575.6
365.324	592.4
365.725	563.8
366.125	586.7
366.525	583.7
366.904	572.9
367.304	561.8
367.705	595.9
368.105	597.2
368.506	580.3
368.906	585.4
369.307	580.8
369.708	578.7
370.108	566
370.509	592.7
370.91	566.5
371.311	583.7
371.712	583.3
372.113	581.7
372.514	571.6
372.894	578.1
373.295	576.1
373.696	592.5
374.097	586.3
374.499	607
374.9	584.4
375.301	574.7
375.703	588.2
376.105	570.4
376.506	582.4
376.908	588.2
377.309	583.2
377.711	577.2
378.113	578.2
378.493	583.4
378.895	576.4
379.297	592
379.699	569.1
380.102	584.4
380.504	586.1
380.906	581.3
381.308	606.9
381.71	577.7
382.113	592.7
382.515	578.4
382.918	581.9
383.299	579.8
383.701	588.6
384.104	585.6
384.507	565.7
384.909	574.8
385.312	565.3
385.715	571.7
386.118	577.6
386.521	571.6
386.924	588.5
387.327	571.9
387.709	565.4
388.112	561.3
388.515	575.3
388.918	580.2
389.322	585.2
389.725	575
390.129	604.7
390.532	586.2
390.936	582
391.339	573.9
391.743	583.1
392.125	573.5
392.529	588.8
392.933	588.5
393.337	577.9
393.74	578.7
394.144	586.6
394.548	572
394.953	576.5
395.357	589.1
395.761	581.3
396.144	581.1
396.548	576.8
396.952	583.1
397.357	580.8
397.761	575.6
398.166	575.3
398.57	573.9
398.975	571.8
399.379	586.3
399.763	627.5
400.168	582.5
400.572	581.7
400.977	579.2
401.382	594.2
401.787	590.6
402.192	594.3
402.597	590.1
403.002	567
403.386	595.9
403.791	597.3
404.197	572.3
404.602	580.9
405.007	577.1
405.413	577.4
405.818	574.5
406.224	572.9
406.608	576.1
407.014	571.5
407.42	593.8
407.825	582.5
408.231	589
408.637	581.4
409.043	594.1
409.449	580.2
409.834	576.2
410.24	581.8
410.646	591.1
411.052	589.7
411.458	580.8
411.865	591.3
412.271	590.8
412.677	581.4
413.062	585.9
413.469	575
413.875	605.2
414.282	595.7
414.689	584.1
415.095	585.2
415.502	572.9
415.888	582.6
416.294	570.9
416.701	615.3
417.108	572.8
417.515	591.7
417.923	583.7
418.33	604.4
418.715	588.9
419.123	573.4
419.53	579.7
419.937	579.3
420.345	590.6
420.752	579.8
421.16	598.3
421.546	588.5
421.953	593.5
422.361	577.3
422.769	580.5
423.177	577.9
423.585	605.3
423.992	602.3
424.379	591.4
424.787	586.7
425.195	601.8
425.603	578.3
426.011	593.6
426.419	593.3
426.806	586
427.214	586.3
427.623	592.3
428.031	604.5
428.44	589.6
428.848	593.4
429.235	601.2
429.644	589.1
430.053	587.4
430.461	612.6
430.87	626.9
431.279	621.4
431.666	609.4
432.075	622.8
432.484	643.6
432.893	642.9
433.302	674.1
433.711	711.8
434.099	689.3
434.508	697.9
434.918	719.4
435.327	745
435.737	758.6
436.125	786
436.534	808.8
436.944	827.3
437.353	846.2
437.763	891.5
438.173	886.6
438.561	927.9
438.971	923
439.381	959.6
439.791	986.6
440.201	994.8
440.589	1027.6
440.999	1062.5
441.409	1078.2
441.819	1083.2
442.23	1133.2
442.619	1147
443.029	1172.9
443.439	1194.8
443.85	1204.8
444.26	1221.9
444.649	1229.4
445.06	1247.7
445.471	1260.3
445.881	1295.9
446.292	1327.7
446.682	1338.3
447.092	1314
447.503	1387.4
447.914	1363.8
448.325	1366.6
448.715	1377.1
449.126	1371.2
449.537	1384.4
449.948	1379.2
450.338	1390.4
450.75	1408.3
451.161	1428
451.572	1431.1
451.984	1427.4
452.374	1429
452.786	1447.3
453.197	1453.8
453.609	1471.6
453.999	1457.8
454.411	1458.3
454.823	1471.7
455.235	1481.3
455.647	1477.9
456.037	1491.4
456.449	1477.5
456.862	1494.3
457.274	1492.4
457.665	1478.6
458.077	1493.3
458.489	1502.9
458.902	1496.3
459.293	1501.5
459.705	1498.5
460.118	1498.5
460.53	1497.2
460.921	1502.1
461.334	1501.8
461.747	1495.2
462.16	1521.9
462.551	1509.9
462.964	1500.3
463.377	1480.2
463.79	1479.9
464.182	1492.2
464.595	1466.8
465.008	1479.3
465.421	1484.8
465.813	1475.9
466.226	1462.7
466.64	1459.6
467.053	1504.3
467.445	1478.9
467.859	1478.6
468.272	1484.1
468.686	1472.5
469.078	1465
469.492	1457.6
469.906	1457.5
470.298	1453.9
470.712	1434.8
471.126	1480.4
471.54	1432.8
471.933	1427.9
472.347	1436.6
472.761	1443.9
473.175	1419.1
473.568	1431.6
473.982	1419.4
474.397	1428.6
474.79	1419.4
475.204	1425.4
475.619	1415.5
476.033	1418.6
476.426	1392.6
476.841	1386.7
477.256	1404.7
477.649	1376.5
478.064	1367.3
478.479	1365
478.872	1351.7
479.287	1354.4
479.702	1352.8
480.118	1360
480.511	1354.5
480.927	1331
481.342	1348.9
481.736	1337.6
482.151	1329.5
482.566	1340.7
482.96	1327
483.376	1339.4
483.792	1318.2
484.186	1334.4
484.602	1317.8
485.017	1318.2
485.412	1302.9
485.827	1308.4
486.243	1301.3
486.638	1326.5
487.054	1292.2
487.47	1310.9
487.865	1281.8
488.281	1277.4
488.697	1271.6
489.092	1274
489.508	1261.3
489.925	1266.5
490.32	1247.7
490.736	1249.2
491.153	1242.7
491.548	1238.8
491.964	1248
492.381	1221.2
492.776	1237.5
493.193	1223.8
493.61	1219.2
494.006	1211.8
494.422	1219
494.84	1198.7
495.235	1197.3
495.652	1190
496.069	1192.6
496.465	1174.7
496.883	1172.7
497.3	1194.6
497.696	1156.5
498.113	1164.6
498.509	1135.3
498.927	1133
499.344	1131.9
499.741	1127.9
500.158	1133.4
500.576	1134.1
500.973	1129
501.39	1103.6
501.787	1099.1
502.205	1101.2
502.623	1099.5
503.02	1086.4
503.438	1084.9
503.856	1084.9
504.253	1086.5
504.671	1073.7
505.068	1068.1
505.486	1067.5
505.905	1074.3
506.302	1061.6
506.72	1059
507.118	1040.8
507.536	1040.5
507.955	1041
508.352	1036
508.771	1038.2
509.169	1025.6
509.587	1009.6
510.006	1019.2
510.404	999.1
510.823	999.7
511.221	1000.6
511.64	988.1
512.038	1006.7
512.457	984.2
512.877	985.1
513.275	979
513.694	971.7
514.092	968
514.512	958.4
514.91	962.8
515.33	964.9
515.749	954.7
516.148	951.9
516.568	950.6
516.966	940.9
517.386	928.6
517.785	933
518.205	922.9
518.603	922.5
519.024	906.7
519.444	920.7
519.843	922.5
520.263	913.7
520.662	920.3
521.082	906.3
521.481	900.9
521.902	903.8
522.301	893.7
522.722	887.1
523.121	884.3
523.542	883.8
523.963	867.5
524.362	865.5
524.783	872.2
525.183	855.6
525.604	857.6
526.003	851.3
526.425	845.1
526.824	849
527.246	850.8
527.646	854.8
528.067	838.4
528.467	834.4
528.888	837.5
529.289	830.3
529.71	824.5
530.11	822.7
530.532	824.2
530.932	815.4
531.354	809.6
531.755	848.3
532.176	816
532.577	806.1
532.999	807.7
533.4	796.4
533.822	807.4
534.223	798.7
534.645	794.4
535.046	790.9
535.468	792.7
535.869	797.5
536.292	788.1
536.693	788.3
537.115	789
537.516	774.7
537.939	780.8
538.34	801.6
538.742	784
539.165	780.9
539.566	777.2
539.989	765.1
540.391	763.6
540.814	772.2
541.216	764.7
541.639	768.4
542.041	773.2
542.464	757
542.866	749.9
543.268	741.3
543.691	756.4
544.093	754.8
544.517	772.4
544.919	744.5
545.343	763
545.745	739.7
546.147	750.7
546.571	732.8
546.974	733.6
547.398	731.2
547.8	754.2
548.224	725.4
548.627	719
549.03	731.9
549.454	716.4
549.857	715.2
550.281	716
550.684	716.6
551.087	725.5
551.512	717.7
551.915	712.4
552.34	715.6
552.743	709.7
553.146	706.2
553.571	703.9
553.975	722.7
554.399	696.5
554.803	751
555.207	699.1
555.632	691.7
556.036	699.8
556.461	683.9
556.865	698.5
557.268	684.6
557.694	690.1
558.098	695.6
558.502	687.6
558.927	682.6
559.332	686.9
559.736	679.7
560.162	691.8
560.566	681.2
560.992	691.4
561.396	676
561.801	674.1
562.227	684.4
562.631	671.6
563.036	676.5
563.462	680
563.867	675.5
564.272	658.5
564.698	673.4
565.103	653.6
565.508	686.8
565.935	671.7
566.34	662.3
566.745	674
567.172	661.4
567.577	680.8
567.982	671
568.409	662.6
568.815	647.9
569.22	657.2
569.626	660.4
570.053	647.5
570.459	655.6
570.865	659.8
571.292	659.8
571.698	653.9
572.104	638.6
572.531	642.2
572.937	655.6
573.343	645
573.75	645.9
574.177	645
574.583	649.2
574.99	639.2
575.396	645.6
575.824	635.9
576.231	639.6
576.637	637.1
577.065	661.1
577.472	633
577.879	630.4
578.286	647
578.714	622.3
579.121	624.8
579.528	639.5
579.935	637.1
580.364	624.4
580.771	623.9
581.178	623
581.585	631.8
582.014	631.3
582.421	624.3
582.829	628.2
583.236	627.7
583.644	614
584.073	620.1
584.481	615.3
584.889	616.1
585.296	628.1
585.726	615.8
586.134	617.6
586.542	611.4
586.95	635.9
587.358	606.4
587.787	616.6
588.196	608.5
588.604	611.5
589.012	614.9
589.421	599.7
589.851	605.8
590.259	614.2
590.668	606.6
591.076	641
591.485	608.7
591.894	604.7
592.324	620.2
592.733	616.7
593.142	597.6
593.551	603.6
593.96	643.8
594.369	597.3
594.8	599.8
595.209	598.6
595.618	590.5
596.028	594.7
596.437	591.6
596.847	606
597.256	606
597.687	606.2
598.097	598
598.507	589.9
598.917	603.3
599.327	599.6
599.736	599.7
600.146	604
600.556	596.5
600.988	607.1
601.398	591.8
601.808	598.7
602.219	580.8
602.629	594.1
603.039	591.5
603.45	618.6
603.86	596
604.271	600.5
604.703	596
605.114	589.5
605.525	587.7
605.935	594
606.346	610.4
606.757	595.8
607.168	593.5
607.579	581.8
607.99	588.1
608.402	589.3
608.813	590
609.224	588.1
609.636	580.1
610.047	574.8
610.48	586.6
610.892	591.8
611.303	593.5
611.715	580.9
612.127	575.6
612.539	577
612.95	581.9
613.362	577.5
613.774	571.7
614.186	583
614.599	578
615.011	589.4
615.423	572.8
615.835	574.5
616.248	575.3
616.66	589.4
617.073	576.8
617.485	578.5
617.898	588.4
618.311	579.9
618.723	581.3
619.136	607.2
619.549	594.1
619.962	604
620.375	577.8
620.788	583.8
621.201	575
621.614	590.1
622.028	574.1
622.441	583
622.854	590.8
623.268	571.9
623.681	577.3
624.095	578.8
624.509	590.2
624.922	587.9
625.336	567.2
625.728	583.3
626.142	591.5
626.556	589.1
626.97	579
627.384	575.3
627.799	572.5
628.213	585.3
628.627	574.3
629.041	575.6
629.456	570.1
629.87	578.9
630.285	585.8
630.699	583.8
631.093	574.2
631.507	573.2
631.922	575.7
632.337	589.1
632.752	567.1
633.167	579
633.582	567.5
633.997	571
634.412	567.9
634.806	574.1
635.221	568.8
635.637	585
636.052	559
636.468	574.7
636.883	592.4
637.299	575.7
637.715	559.1
638.109	572.1
638.525	563.6
638.941	577.8
639.357	571.4
639.773	580.5
640.189	567.7
640.584	575.8
641	573.6
641.416	560.6
641.832	573.7
642.249	564.6
642.665	571.1
643.06	578.8
643.477	576.6
643.894	561.2
644.31	568.6
644.727	574.6
645.123	566.8
645.54	560
645.957	572
646.374	576.1
646.77	571.6
647.187	599.6
647.604	568.5
648.021	554.3
648.439	561.3
648.835	569.3
649.252	575.6
649.67	572.9
650.088	567.1
650.484	568.4
650.902	581.4
651.32	574.9
651.738	562.9
652.134	570.7
652.552	586.6
652.971	577.8
653.389	565.5
653.786	580.6
654.204	571.5
654.622	568.5
655.019	571.8
655.438	571.7
655.857	572.2
656.275	571.7
656.673	562.2
657.091	633.4
657.51	566.4
657.908	580.4
658.327	586.5
658.746	559.8
659.144	572.5
659.563	585.6
659.982	576.1
660.38	561.1
660.8	571
661.219	581.6
661.617	574.3
662.037	565.9
662.457	577.7
662.855	553
663.275	597
663.695	566.5
664.094	569.7
664.514	573.2
664.934	560.4
665.333	574.2
665.753	562.3
666.152	559.3
666.572	564.7
666.993	580
667.392	562
667.812	562.7
668.212	559
668.632	574.9
669.053	563.9
669.453	571.3
669.874	566.9
670.273	566.9
670.694	555.3
671.116	578.4
671.515	574
671.937	566.4
672.337	557.9
672.758	565.5
673.158	568.3
673.58	560.6
673.98	564
674.402	577.9
674.824	561.5
675.224	561.7
675.646	554.2
676.047	560.7
676.469	567
676.869	570.5
677.292	563.9
677.693	562.8
678.115	556.1
678.516	569.1
678.939	566.6
679.34	561.5
679.762	574
680.164	568.3
680.586	562.9
680.988	564.1
681.411	588.6
681.812	561.4
682.236	556
682.637	554.6
683.061	556
683.462	569.2
683.864	567.7
684.288	572.6
684.69	549.7
685.114	579.4
685.516	568.9
685.94	558.6
686.342	568.3
686.766	560.2
687.168	559.5
687.571	579.7
687.995	566.7
688.398	554.6
688.822	557.9
689.225	584.1
689.628	576.9
690.052	562
690.456	570.1
690.88	565.2
691.284	554.7
691.687	563.6
692.112	554
692.515	554
692.919	561.2
693.344	566.2
693.747	560.5
694.173	553
694.577	570
694.98	559.5
695.406	558
695.81	571.1
696.214	560.9
696.64	563.6
697.044	564
697.448	569.3
697.874	557
698.279	563.1
698.684	551.7
699.11	551.1
699.514	556.4
699.919	558.9
700.324	556.4
700.75	564.7
701.156	565.8
701.561	572.9
701.987	560.7
702.393	571.9
702.798	571.7
703.203	557.8
703.63	556.6
704.036	551.5
704.442	564.2
704.847	548.9
705.274	556.9
705.68	560.6
706.086	569.9
706.492	545.8
706.92	556.2
707.326	565
707.732	556.8
708.139	552
708.545	549.6
708.973	554.2
709.38	552.2
709.786	550.6
710.193	568.2
710.6	555.5
711.028	550.9
711.435	553.3
711.842	558.1
712.249	550.8
712.656	558.2
713.064	568.6
713.492	549.7
713.9	557.7
714.307	561.9
714.715	556.5
715.123	561
715.53	559.4
715.938	564.2
716.367	553.6
716.775	556.2
717.184	547.9
717.592	557
718	569.4
718.408	589
718.816	597.5
719.225	561
719.633	557.7
720.042	549.1
720.472	552.1
720.881	578
721.29	562.6
721.699	546.7
722.108	564.4
722.517	560.6
722.926	554.1
723.335	563.3
723.744	562.5
724.154	556.2
724.563	555
724.973	557.9
725.382	554.3
725.792	556
726.202	551.6
726.612	564.1
727.022	556.6
727.432	556.3
779.813	553.3
780.223	601.6
780.634	552
781.044	548.1
781.454	560.8
781.865	567.5
782.276	549
782.686	570.1
783.097	560.5
783.508	555
783.919	564.6
784.33	569.9
784.741	569.7
785.152	553.5
785.563	544.9
785.974	556.1
786.386	563.9
786.776	552
787.188	551.9
787.599	546
788.011	561.2
788.423	557.4
788.835	549.4
789.247	547.4
789.659	551.5
790.071	552.4
790.483	593
790.874	552.9
791.286	565.9
791.699	552.9
792.111	556.1
792.524	554.7
792.937	555.4
793.349	548.5
793.741	545.5
794.154	547.8
794.567	571.7
794.98	556.9
795.393	540.7
795.785	574
796.198	553.9
796.612	557.4
797.026	554.2
797.439	538.1
797.831	554.8
798.245	554
798.659	555.1
799.073	551.5
799.487	550.3
799.88	554.6
800.294	554.1
800.708	562.6
801.123	556.8
801.516	574
801.93	551.3
802.345	543
802.76	556.4
803.153	570.1
803.568	564.1
803.983	565.2
804.377	566.3
804.792	547.3
805.207	542.5
805.601	560.2
806.016	588.3
806.432	555.9
806.826	581.9
807.242	568.7
807.658	558.9
808.052	557
808.468	549.5
808.884	549.1
809.279	553.7
809.695	569.4
810.111	578.4
810.506	558.1
810.922	574.8
811.339	556.4
811.734	564.7
812.151	549.9
812.546	552.5
812.963	552.6
813.38	563.2
813.776	556.2
814.193	578.4
814.589	552.7
815.006	554.4
815.402	546.4
815.82	549.5
816.237	553.2
816.633	554.9
817.051	550.7
817.448	552.9
817.866	545.8
818.262	574.8
818.68	550.2
819.077	550.3
819.495	551.6
819.892	597.2
820.311	551.8
820.708	549.6
821.127	550.3
821.524	568.7
821.943	556.5
822.34	567.5
822.759	553.1
823.157	558
823.576	569.5
823.974	560.8
824.393	569.5
824.791	550.6
825.189	547.6
825.609	554.9
826.007	557
826.427	542.6
826.826	556.2
827.246	558.4
827.644	542.2
828.043	570.5
828.463	556.2
828.862	564.2
829.261	556.4
829.682	548.3
830.081	563.7
830.502	549.8
830.901	554.3
831.301	552.8
831.722	543.3
832.121	556.8
832.521	553.8
832.943	547.9
833.342	555.8
833.742	545.3
834.164	555.4
834.564	547.7
834.965	551.7
835.386	552.9
835.787	552.4
836.188	554.6
836.588	556.2
837.01	555.1
837.411	553.9
837.812	557.3
838.213	558
838.636	547.4
839.037	613.6
839.438	558.1
839.84	557
840.263	565.2
840.664	552
841.066	553
841.468	557.5
841.891	547.2
842.293	565.3
842.695	556.6
843.098	566.1
843.5	553.7
843.902	559.4
