#lambda/nm	C1
208.295	481.6
208.67	447.2
209.045	408.5
209.419	412.3
209.794	595.1
210.169	577.8
210.544	693.6
210.919	593
211.295	582.5
211.67	598.8
212.045	586.2
212.421	582.5
212.796	623.2
213.172	586
213.547	581.7
213.923	580.6
214.299	577.6
214.675	592.6
215.051	590.6
215.427	589.2
215.803	607
216.179	590.6
216.555	582.8
216.932	597.6
217.308	586.7
217.684	586.7
218.061	590.9
218.438	590.8
218.814	583.6
219.191	597.7
219.568	583.6
219.945	589.3
220.322	593.9
220.699	589.4
221.076	594.7
221.453	591.5
221.83	574.5
222.208	580.8
222.585	581.7
222.962	592.7
223.34	589.6
223.717	590
224.095	585.5
224.473	587
224.851	579
225.229	573
225.607	604
225.985	580.7
226.363	593.8
226.741	589
227.119	593.6
227.497	598.2
227.876	570.7
228.254	591.1
228.633	597.8
229.011	587.6
229.39	593.5
229.769	586.4
230.148	598
230.527	609.2
230.905	586.4
231.284	597.7
231.664	587.6
232.043	600.1
232.422	601.4
232.801	587
233.181	596.6
233.56	591.2
233.94	596.1
234.319	576.9
234.699	591.8
235.079	623.6
235.458	623.1
235.838	601.4
236.218	579.5
236.598	577.1
236.978	578.8
237.358	580.1
237.738	583.3
238.119	593.3
238.499	581.3
238.88	589.2
239.26	600.7
239.641	578.6
240.021	584
240.402	585.8
240.783	589.4
241.163	586.4
241.544	588.5
241.925	586.1
242.306	599.9
242.687	585.5
243.069	587.4
243.45	596.7
243.831	582.5
244.212	588.6
244.594	626.1
244.975	602
245.357	587.4
245.739	574.7
246.12	592.3
246.502	600.7
246.884	587.3
247.266	590.7
247.648	588.4
248.03	604.4
248.412	594.9
248.794	590.4
249.176	584.3
249.559	597
249.941	584.4
250.323	580.7
250.706	585.5
251.089	591.3
251.471	591.5
251.854	596.5
252.237	586.6
252.62	594.5
253.002	584.2
253.385	589.9
253.769	599.8
254.152	591
254.535	593.4
254.918	583.1
255.301	585
255.685	587.7
256.068	583
256.452	606.4
256.835	597.8
257.219	598
257.603	600.8
257.986	582.3
258.37	592.7
258.754	577.9
259.138	591.5
259.522	592.2
259.906	589.8
260.29	591.2
260.675	590.4
261.059	594.2
261.443	588.9
261.828	600.2
262.212	595.5
262.597	581.8
262.981	587.7
263.366	598.5
263.751	588.7
264.136	582.5
264.521	584.8
264.906	580.2
265.291	596.5
265.676	580.8
266.061	598.3
266.446	605.2
266.831	592.9
267.217	615.6
267.602	586.4
267.987	595.4
268.373	589.4
268.759	598.6
269.144	595.6
269.53	585.6
269.916	587.4
270.302	583.4
270.688	599.6
271.074	591.5
271.46	597.8
271.846	618.1
272.232	584.3
272.618	586.1
273.004	581.9
273.391	596.2
273.777	601.7
274.164	593.4
274.55	598.1
274.937	593
275.324	591.4
275.71	599.4
276.097	593.8
276.484	581.6
276.871	594
277.258	598.3
277.645	577.7
278.032	589.5
278.419	584.2
278.807	595.7
279.194	583.1
279.581	581.6
279.969	593.5
280.356	597.6
280.744	593.8
281.131	612.6
281.519	597.2
281.907	586.5
282.295	582.8
282.682	603.7
283.07	595.9
283.458	593.4
283.846	603
284.235	601.9
284.623	596.3
285.011	576.5
285.399	588.4
285.788	589.4
286.176	576.7
286.565	596.6
286.953	587.1
287.342	587
287.731	580.6
288.119	578.6
288.508	581.5
288.897	587.5
289.286	577.6
289.675	592.2
290.064	598.1
290.453	583.1
290.821	590.2
291.21	599
291.599	586
291.989	593.1
292.378	598.3
292.768	607.4
293.157	595.9
293.547	602.3
293.936	589.6
294.326	583.3
294.716	589.2
295.106	586.5
295.496	593.3
295.886	598.9
296.276	589.9
296.666	584.7
297.056	579.7
297.446	578.8
297.836	603.5
298.227	586.4
298.617	589.5
299.008	595.3
299.398	587.5
299.789	581.4
300.179	594.1
300.57	607.8
300.961	588.4
301.352	579.3
301.742	592.5
302.133	584.5
302.524	590.3
302.915	596.9
303.307	583.8
303.698	598.4
304.089	593.5
304.48	585.7
304.872	590.5
305.263	591.2
305.655	581.1
306.046	595.6
306.438	597.7
306.829	583.1
307.221	602.8
307.613	595.1
308.005	601.7
308.397	604.4
308.789	610.1
309.181	612.7
309.573	602.6
309.965	596.9
310.357	584.4
310.749	590.2
311.142	583.5
311.534	586.9
311.926	603.5
312.319	593.1
312.711	582.9
313.104	600.2
313.497	586.5
313.889	626.9
314.282	604.1
314.675	614.8
315.068	591.4
315.461	595.4
315.854	624.4
316.247	595.3
316.64	591.9
317.033	589.7
317.405	599.7
317.798	590.3
318.192	591.7
318.585	582.1
318.979	597.1
319.372	582.5
319.766	591.8
320.16	600.8
320.553	603.5
320.947	613.6
321.341	588
321.735	587.2
322.129	579.1
322.523	611.2
322.917	578.9
323.311	594.1
323.705	597.8
324.099	594.6
324.494	608.8
324.888	601.9
325.282	590.9
325.677	593.1
326.071	600.9
326.466	603
326.861	594.6
327.255	601.4
327.65	606.4
328.045	608.2
328.44	596.5
328.835	592.4
329.23	585.9
329.625	613.6
330.02	588.7
330.415	607.1
330.81	590.6
331.206	592.1
331.601	586
331.996	595.6
332.37	601.5
332.766	581.4
333.161	611.5
333.557	584
333.953	595.9
334.348	1014.7
334.744	589.9
335.14	586.6
335.536	585.4
335.932	590.9
336.328	585.8
336.724	594
337.12	591.7
337.516	593.7
337.913	588.2
338.309	604
338.705	596.1
339.102	600
339.498	588.4
339.895	606.8
340.291	591.2
340.688	599.2
341.085	588
341.481	589.9
341.878	589.5
342.275	612
342.672	585.5
343.069	585.2
343.466	575.6
343.842	595.9
344.239	584
344.636	587.5
345.033	577.6
345.431	585.6
345.828	595.9
346.225	585.8
346.623	592.2
347.02	587.4
347.418	599
347.816	601.4
348.213	582.5
348.611	593.4
349.009	588.2
349.407	600.8
349.805	581
350.203	577
350.601	597.4
350.999	588.2
351.397	582.4
351.795	586.7
352.193	591.6
352.57	597.3
352.969	599.8
353.367	583
353.766	579.4
354.164	585.1
354.563	600.2
354.961	592
355.36	587.1
355.759	584.4
356.158	583.9
356.557	588.2
356.956	578.2
357.355	575.9
357.754	591.6
358.153	590.2
358.552	617.9
358.951	586.4
359.35	593
359.75	586
360.149	576.9
360.527	570.5
360.926	572.2
361.326	586.6
361.726	585.4
362.125	575.6
362.525	592.7
362.925	580.5
363.325	585.9
363.724	589.7
364.124	578.9
364.524	578.9
364.924	585.7
365.324	592.7
365.725	573.4
366.125	587.7
366.525	584.2
366.904	578.1
367.304	567.7
367.705	601
368.105	591.4
368.506	577.9
368.906	582.1
369.307	583.5
369.708	585.9
370.108	565
370.509	596.8
370.91	575.8
371.311	580.3
371.712	589.4
372.113	581.4
372.514	573.1
372.894	584.7
373.295	578.7
373.696	600.6
374.097	593.4
374.499	612.9
374.9	583.1
375.301	576.1
375.703	585.7
376.105	575
376.506	590.4
376.908	585
377.309	579.4
377.711	580.6
378.113	582.2
378.493	589.1
378.895	574.2
379.297	592.2
379.699	575.5
380.102	581.8
380.504	580.6
380.906	578.5
381.308	606.1
381.71	583.3
382.113	593.7
382.515	582
382.918	584.8
383.299	574.3
383.701	591.9
384.104	585.3
384.507	560.3
384.909	585.7
385.312	572.8
385.715	574.5
386.118	575.8
386.521	567.9
386.924	592
387.327	580.2
387.709	571.8
388.112	566.4
388.515	580.1
388.918	586.1
389.322	587.1
389.725	578
390.129	600.1
390.532	589.1
390.936	579.4
391.339	572.9
391.743	582
392.125	575
392.529	591.7
392.933	595.3
393.337	585.4
393.74	576.8
394.144	585.9
394.548	582.3
394.953	581.4
395.357	590.9
395.761	577.1
396.144	583
396.548	579.6
396.952	585
397.357	587.5
397.761	580.9
398.166	580.7
398.57	579.7
398.975	572.4
399.379	586.4
399.763	626.4
400.168	582.6
400.572	583.9
400.977	575.8
401.382	593.4
401.787	594.8
402.192	601.1
402.597	592.5
403.002	570.3
403.386	598.6
403.791	597.2
404.197	574.4
404.602	580.6
405.007	584.9
405.413	575.2
405.818	578.7
406.224	575.1
406.608	578.8
407.014	574.6
407.42	597.7
407.825	579.6
408.231	592.7
408.637	583.9
409.043	596.4
409.449	577.2
409.834	574.3
410.24	581.9
410.646	593.9
411.052	594.7
411.458	581.1
411.865	586.4
412.271	590.6
412.677	585
413.062	588.1
413.469	578
413.875	609.1
414.282	596.1
414.689	583.6
415.095	589.9
415.502	576.2
415.888	584.7
416.294	570.8
416.701	620.3
417.108	577.5
417.515	589.1
417.923	577.9
418.33	602.3
418.715	595.5
419.123	578
419.53	577.1
419.937	590.8
420.345	598.1
420.752	579.9
421.16	594.1
421.546	582.2
421.953	594.2
422.361	575.5
422.769	587.8
423.177	584.5
423.585	607.2
423.992	599.5
424.379	597.2
424.787	600.1
425.195	608.6
425.603	585
426.011	598
426.419	602.3
426.806	588.4
427.214	584.9
427.623	595.4
428.031	602.6
428.44	592.1
428.848	600.5
429.235	607
429.644	592.8
430.053	596.7
430.461	618.2
430.87	629.2
431.279	621.5
431.666	615.4
432.075	622.8
432.484	641.6
432.893	639.8
433.302	678.2
433.711	710.4
434.099	691.4
434.508	698.9
434.918	703
435.327	744.4
435.737	757.9
436.125	773
436.534	792.7
436.944	824.1
437.353	849.4
437.763	879.7
438.173	884.1
438.561	922.1
438.971	921.4
439.381	960.3
439.791	981.4
440.201	991.1
440.589	1030.6
440.999	1061
441.409	1077.4
441.819	1087.4
442.23	1127.4
442.619	1127.2
443.029	1144.9
443.439	1175.5
443.85	1196.7
444.26	1226.7
444.649	1246.4
445.06	1263.8
445.471	1266.7
445.881	1291.3
446.292	1317.9
446.682	1338.5
447.092	1322.6
447.503	1378.6
447.914	1349.1
448.325	1352.6
448.715	1362.7
449.126	1356.6
449.537	1387.1
449.948	1397.7
450.338	1400.5
450.75	1413.7
451.161	1435
451.572	1431.5
451.984	1430.2
452.374	1444.1
452.786	1448
453.197	1458.6
453.609	1467.7
453.999	1442.2
454.411	1465.4
454.823	1480
455.235	1487.3
455.647	1479.1
456.037	1502.7
456.449	1479.8
456.862	1503.7
457.274	1498.2
457.665	1492
458.077	1511.2
458.489	1508.2
458.902	1487
459.293	1501.9
459.705	1494.1
460.118	1487.3
460.53	1512.6
460.921	1513.8
461.334	1495.5
461.747	1489.3
462.16	1507.1
462.551	1505.8
462.964	1490.3
463.377	1467.6
463.79	1469.3
464.182	1488.1
464.595	1466.1
465.008	1487.3
465.421	1473.1
465.813	1464.9
466.226	1476.8
466.64	1464.3
467.053	1543.3
467.445	1485.2
467.859	1480
468.272	1471.7
468.686	1487
469.078	1461.8
469.492	1446.4
469.906	1466.3
470.298	1448.6
470.712	1447.9
471.126	1485.9
471.54	1438.3
471.933	1437
472.347	1425.9
472.761	1428.9
473.175	1417.9
473.568	1415.3
473.982	1402.7
474.397	1415.3
474.79	1399.8
475.204	1415.6
475.619	1400.8
476.033	1394.5
476.426	1404.4
476.841	1382.8
477.256	1400.8
477.649	1371.7
478.064	1370.9
478.479	1375.8
478.872	1367.3
479.287	1341.4
479.702	1350.6
480.118	1372
480.511	1357.5
480.927	1349
481.342	1349.2
481.736	1341.9
482.151	1338.9
482.566	1358.9
482.96	1332.9
483.376	1344.6
483.792	1318.1
484.186	1328.5
484.602	1319.2
485.017	1313.8
485.412	1310.7
485.827	1309.3
486.243	1301.5
486.638	1336.6
487.054	1310.4
487.47	1302.4
487.865	1283
488.281	1267.9
488.697	1268.1
489.092	1269.8
489.508	1269.8
489.925	1260.3
490.32	1253.8
490.736	1256.2
491.153	1243.3
491.548	1248.6
491.964	1254.3
492.381	1224
492.776	1237.9
493.193	1210.2
493.61	1226.4
494.006	1209.1
494.422	1215.1
494.84	1198.4
495.235	1199.2
495.652	1199.8
496.069	1179.7
496.465	1151.8
496.883	1169.4
497.3	1198.2
497.696	1151.7
498.113	1156
498.509	1141.1
498.927	1144.1
499.344	1131.6
499.741	1126.9
500.158	1139.3
500.576	1145.9
500.973	1116.4
501.39	1112
501.787	1108.8
502.205	1116.1
502.623	1096.3
503.02	1085.8
503.438	1088.1
503.856	1089.8
504.253	1088.7
504.671	1079.3
505.068	1064.5
505.486	1063.4
505.905	1082.9
506.302	1064.9
506.72	1069.4
507.118	1048.9
507.536	1039.5
507.955	1038.8
508.352	1047.9
508.771	1032.2
509.169	1033.6
509.587	1018.2
510.006	1019.2
510.404	999.4
510.823	997.4
511.221	1004.9
511.64	992.6
512.038	1008
512.457	981.8
512.877	991.5
513.275	979.1
513.694	977
514.092	969.3
514.512	969.5
514.91	969.6
515.33	965.3
515.749	956
516.148	961.7
516.568	953.2
516.966	940.6
517.386	929.8
517.785	939.7
518.205	922.6
518.603	923.2
519.024	910.3
519.444	923.2
519.843	922.9
520.263	915.2
520.662	917.6
521.082	902.1
521.481	907.4
521.902	896
522.301	896.6
522.722	890.4
523.121	881.4
523.542	880
523.963	880.5
524.362	878.4
524.783	879.7
525.183	872
525.604	879.5
526.003	862.6
526.425	855.4
526.824	864.5
527.246	855.9
527.646	856.2
528.067	850.9
528.467	847.3
528.888	840.8
529.289	838.2
529.71	838.4
530.11	831.6
530.532	827
530.932	822.5
531.354	813.9
531.755	853.5
532.176	819.6
532.577	809.3
532.999	813.3
533.4	803.7
533.822	814.8
534.223	799.6
534.645	796.6
535.046	791.7
535.468	796.3
535.869	807.8
536.292	787.3
536.693	788.6
537.115	783.9
537.516	777.8
537.939	784.5
538.34	798.9
538.742	788.7
539.165	782.8
539.566	780.6
539.989	775.1
540.391	777.6
540.814	777.2
541.216	773.8
541.639	763.9
542.041	779.1
542.464	759.7
542.866	758
543.268	750.6
543.691	765.1
544.093	762.2
544.517	773.7
544.919	741.7
545.343	774.4
545.745	740.5
546.147	747.7
546.571	743.8
546.974	732.5
547.398	738.3
547.8	744.4
548.224	732.1
548.627	725.5
549.03	734.6
549.454	717.3
549.857	716.3
550.281	722
550.684	715.9
551.087	734.9
551.512	723.3
551.915	722.2
552.34	716.4
552.743	707.2
553.146	714.5
553.571	708.1
553.975	730.1
554.399	695.5
554.803	752.7
555.207	702.4
555.632	693.6
556.036	704.5
556.461	694.1
556.865	697.7
557.268	686.9
557.694	691.9
558.098	699.3
558.502	697.2
558.927	689.6
559.332	680.8
559.736	680.1
560.162	696.7
560.566	682.1
560.992	693.5
561.396	682.8
561.801	673.8
562.227	680.5
562.631	669
563.036	676.1
563.462	687.4
563.867	674.5
564.272	664.7
564.698	670.8
565.103	660.5
565.508	686
565.935	668
566.34	663
566.745	674.8
567.172	666.4
567.577	680.2
567.982	661
568.409	661.1
568.815	651
569.22	656.5
569.626	659.3
570.053	643.9
570.459	656.6
570.865	661.2
571.292	656.9
571.698	649.7
572.104	636.5
572.531	649.8
572.937	661.4
573.343	646
573.75	643.1
574.177	646.8
574.583	646.5
574.99	645
575.396	645.4
575.824	636.1
576.231	641.7
576.637	631.2
577.065	665
577.472	631.9
577.879	637.5
578.286	652.6
578.714	628.7
579.121	638.6
579.528	634.1
579.935	638.4
580.364	628.7
580.771	618.1
581.178	620.7
581.585	635.9
582.014	637.8
582.421	622.9
582.829	622.7
583.236	629.4
583.644	619.6
584.073	624.7
584.481	624.2
584.889	618.1
585.296	629
585.726	619.6
586.134	605.4
586.542	614.9
586.95	634.8
587.358	616.7
587.787	623.7
588.196	608.9
588.604	610.6
589.012	616.2
589.421	610.8
589.851	604.4
590.259	612.7
590.668	606.9
591.076	645.1
591.485	605.5
591.894	606.4
592.324	624.6
592.733	620.2
593.142	593.1
593.551	606.4
593.96	642.4
594.369	601.1
594.8	599.2
595.209	609.5
595.618	594.2
596.028	600.5
596.437	599.6
596.847	603.7
597.256	604.2
597.687	604
598.097	606.2
598.507	590.4
598.917	605.7
599.327	599.7
599.736	604.8
600.146	605.4
600.556	597.4
600.988	616.4
601.398	592.1
601.808	603.7
602.219	584.7
602.629	594
603.039	592.1
603.45	623.7
603.86	595
604.271	607.3
604.703	594.6
605.114	591.7
605.525	595.8
605.935	599
606.346	612.9
606.757	594.9
607.168	591.2
607.579	586.9
607.99	599.1
608.402	592.4
608.813	600
609.224	584
609.636	577.5
610.047	579.9
610.48	587.9
610.892	591.7
611.303	599.8
611.715	582.5
612.127	576.4
612.539	587.4
612.95	585.8
613.362	575.1
613.774	576.7
614.186	580.3
614.599	583.4
615.011	597.6
615.423	570.9
615.835	584.8
616.248	574.2
616.66	591.3
617.073	575.4
617.485	582.3
617.898	591
618.311	589.1
618.723	581.8
619.136	609.9
619.549	598.8
619.962	607.8
620.375	579.7
620.788	585.2
621.201	574.2
621.614	585.6
622.028	577
622.441	586.5
622.854	593.2
623.268	580.8
623.681	583.9
624.095	584.2
624.509	592.2
624.922	583.5
625.336	571.3
625.728	579.2
626.142	588.9
626.556	601.6
626.97	593.7
627.384	580.4
627.799	582.3
628.213	593.5
628.627	586.8
629.041	588.4
629.456	581.1
629.87	579.4
630.285	589.2
630.699	591.7
631.093	582.1
631.507	586.1
631.922	579.8
632.337	596.1
632.752	571.2
633.167	579.8
633.582	580.7
633.997	580.8
634.412	579.4
634.806	575.8
635.221	570.1
635.637	587.6
636.052	575.4
636.468	570.1
636.883	594.6
637.299	575.5
637.715	565.2
638.109	578.4
638.525	566.9
638.941	586.1
639.357	580.9
639.773	587.4
640.189	574.8
640.584	571.5
641	578.2
641.416	567.4
641.832	575.2
642.249	577.3
642.665	574.6
643.06	581
643.477	582.4
643.894	555.3
644.31	574.8
644.727	579.7
645.123	575.2
645.54	568.8
645.957	571.7
646.374	575.6
646.77	569.4
647.187	603.8
647.604	578.7
648.021	563.6
648.439	571.3
648.835	577.1
649.252	575.8
649.67	567.2
650.088	569.4
650.484	579.7
650.902	574.3
651.32	573.6
651.738	565
652.134	577
652.552	590.7
652.971	580
653.389	572.7
653.786	584.5
654.204	569.9
654.622	564.5
655.019	567
655.438	576.3
655.857	569.4
656.275	574.1
656.673	562.8
657.091	636.6
657.51	563.7
657.908	576.4
658.327	590.9
658.746	561.8
659.144	571.9
659.563	583.2
659.982	572.8
660.38	566.9
660.8	568.8
661.219	581.1
661.617	574
662.037	567.1
662.457	580
662.855	557.6
663.275	597
663.695	569.9
664.094	567.5
664.514	573.6
664.934	558.8
665.333	575.8
665.753	561
666.152	558.9
666.572	560.9
666.993	578.9
667.392	566.7
667.812	561.5
668.212	568
668.632	572.9
669.053	563.8
669.453	569.6
669.874	574.2
670.273	571.7
670.694	560
671.116	578.6
671.515	575.5
671.937	566.7
672.337	562.6
672.758	561.5
673.158	577.4
673.58	558.3
673.98	564.7
674.402	579.7
674.824	564.5
675.224	559.1
675.646	554.6
676.047	559.1
676.469	565.5
676.869	565.6
677.292	570.5
677.693	562.5
678.115	559.6
678.516	574.6
678.939	569.7
679.34	560.4
679.762	573.5
680.164	570.2
680.586	557.6
680.988	565.1
681.411	587.2
681.812	559.5
682.236	561
682.637	553.7
683.061	557
683.462	565.3
683.864	559.8
684.288	573.7
684.69	555.7
685.114	575.4
685.516	572
685.94	554.2
686.342	571.8
686.766	559
687.168	563.5
687.571	574.8
687.995	566
688.398	553.3
688.822	561.3
689.225	576.1
689.628	578.8
690.052	563.2
690.456	571.2
690.88	566.4
691.284	555.6
691.687	570.1
692.112	556
692.515	550.9
692.919	568.1
693.344	565.7
693.747	566.9
694.173	554.9
694.577	575.2
694.98	558
695.406	563.2
695.81	567
696.214	565.8
696.64	563.6
697.044	564.4
697.448	569.4
697.874	555.6
698.279	563.4
698.684	555.1
699.11	560.4
699.514	560.6
699.919	559.6
700.324	562.4
700.75	565.7
701.156	569.4
701.561	574.1
701.987	564.8
702.393	574.8
702.798	574.1
703.203	559.5
703.63	558.7
704.036	557.1
704.442	566
704.847	559.3
705.274	562.3
705.68	565.7
706.086	567.4
706.492	548.6
706.92	562
707.326	570.2
707.732	564.7
708.139	553.9
708.545	554.4
708.973	554
709.38	558.2
709.786	555.8
710.193	572.3
710.6	557.5
711.028	553.8
711.435	559.7
711.842	561
712.249	554.4
712.656	557.6
713.064	565.3
713.492	554.2
713.9	560.6
714.307	560.3
714.715	562.7
715.123	566
715.53	561.4
715.938	574.8
716.367	559
716.775	557.2
717.184	553
717.592	561.1
718	572
718.408	594.9
718.816	599.8
719.225	570.8
719.633	564.5
720.042	554.6
720.472	564.2
720.881	580.6
721.29	562.9
721.699	551
722.108	568.9
722.517	558.4
722.926	559.8
723.335	572.8
723.744	567
724.154	567.1
724.563	567.3
724.973	564.3
725.382	566.7
725.792	562
726.202	555.5
726.612	573.6
727.022	557.7
727.432	561.3
779.813	558.6
780.223	604.6
780.634	561.8
781.044	553.4
781.454	559.7
781.865	571
782.276	555.3
782.686	571.6
783.097	560.7
783.508	562.8
783.919	566.6
784.33	575.9
784.741	568
785.152	552.2
785.563	543.2
785.974	558.4
786.386	572
786.776	559.7
787.188	561.5
787.599	551.5
788.011	566.5
788.423	565.3
788.835	557.3
789.247	553.5
789.659	554.7
790.071	560.2
790.483	603.1
790.874	556.1
791.286	561.6
791.699	553.5
792.111	561.4
792.524	566
792.937	561.8
793.349	555.5
793.741	549.8
794.154	559.9
794.567	577
794.98	557.1
795.393	553.7
795.785	573
796.198	554
796.612	557.4
797.026	558.9
797.439	545.1
797.831	556.2
798.245	553.6
798.659	550.8
799.073	554.7
799.487	550.3
799.88	557.1
800.294	560.8
800.708	566.1
801.123	559.8
801.516	578.5
801.93	546.9
802.345	541
802.76	558.4
803.153	568.4
803.568	575.6
803.983	566.4
804.377	559.5
804.792	552.7
805.207	541.4
805.601	555.3
806.016	588.3
806.432	552.5
806.826	585.5
807.242	573.2
807.658	560.6
808.052	550
808.468	557.2
808.884	554.6
809.279	559.8
809.695	566.6
810.111	574.6
810.506	559.5
810.922	578.7
811.339	552.4
811.734	565.6
812.151	554.3
812.546	556.9
812.963	551.1
813.38	561.5
813.776	557.3
814.193	580.4
814.589	550.7
815.006	551.2
815.402	551.9
815.82	555.7
816.237	556.5
816.633	558.4
817.051	548.9
817.448	565.2
817.866	546.3
818.262	575.8
818.68	550.1
819.077	551.6
819.495	557.6
819.892	595.5
820.311	552.4
820.708	548.9
821.127	549.3
821.524	566.4
821.943	561.3
822.34	573.3
822.759	558.3
823.157	558.4
823.576	567.5
823.974	560.6
824.393	569
824.791	552.2
825.189	548.5
825.609	551.5
826.007	552.8
826.427	544.4
826.826	551.3
827.246	562.7
827.644	546.7
828.043	563.2
828.463	552.6
828.862	559.1
829.261	562.4
829.682	547.1
830.081	564.6
830.502	548.8
830.901	558.9
831.301	554
831.722	549.9
832.121	550.8
832.521	553.6
832.943	552.6
833.342	559.3
833.742	553.6
834.164	552.8
834.564	548.7
834.965	553.6
835.386	558.9
835.787	553.8
836.188	557
836.588	558.6
837.01	554.7
837.411	549.7
837.812	560.4
838.213	554.5
838.636	554
839.037	617.6
839.438	560.4
839.84	560.9
840.263	561.9
840.664	560.5
841.066	557.6
841.468	561.8
841.891	548
842.293	566.2
842.695	554.9
