#lambda/nm	C1
208.295	482.9
208.67	447.7
209.045	408.7
209.419	414
209.794	594.4
210.169	572.7
210.544	688.7
210.919	593.5
211.295	577.7
211.67	587
212.045	581.8
212.421	585.9
212.796	623.7
213.172	579.2
213.547	579.9
213.923	585.5
214.299	585.1
214.675	593.2
215.051	589.1
215.427	592.1
215.803	603.7
216.179	589.1
216.555	571.9
216.932	589.2
217.308	587
217.684	586.5
218.061	594.2
218.438	580.8
218.814	583.6
219.191	586.7
219.568	579.4
219.945	576
220.322	589.6
220.699	589.7
221.076	592.8
221.453	587.8
221.83	575.3
222.208	579.8
222.585	579.4
222.962	585.8
223.34	587
223.717	583.3
224.095	583.1
224.473	583.4
224.851	581.1
225.229	575.6
225.607	601.8
225.985	575.1
226.363	585.4
226.741	587.3
227.119	582.9
227.497	594.8
227.876	578.4
228.254	594.7
228.633	587.5
229.011	584.5
229.39	589.5
229.769	584.3
230.148	589.9
230.527	599.7
230.905	589.9
231.284	591.4
231.664	577.2
232.043	596.2
232.422	596.9
232.801	584.7
233.181	589.6
233.56	578.3
233.94	585.8
234.319	572.2
234.699	584
235.079	623.3
235.458	620
235.838	600.9
236.218	581.7
236.598	579
236.978	582.3
237.358	583.1
237.738	580.2
238.119	589.7
238.499	577.7
238.88	586.9
239.26	598.1
239.641	579.1
240.021	580.3
240.402	589.8
240.783	584.1
241.163	581.5
241.544	591.1
241.925	587.8
242.306	600.7
242.687	581.8
243.069	581.5
243.45	593.1
243.831	580.1
244.212	581.5
244.594	620.8
244.975	593.2
245.357	589.3
245.739	579.6
246.12	581.6
246.502	598
246.884	586.7
247.266	585.7
247.648	589.7
248.03	603.5
248.412	587.7
248.794	585.8
249.176	583.6
249.559	595.5
249.941	583.3
250.323	575.6
250.706	581.3
251.089	586.4
251.471	595.2
251.854	587.7
252.237	590.2
252.62	599.7
253.002	587.7
253.385	584.6
253.769	596.2
254.152	583.6
254.535	597.3
254.918	579.2
255.301	583
255.685	588.4
256.068	577.2
256.452	607.6
256.835	590.7
257.219	589.1
257.603	595.5
257.986	575.7
258.37	587.1
258.754	575.4
259.138	589.7
259.522	600.4
259.906	585.5
260.29	589.7
260.675	584.4
261.059	585.8
261.443	576.5
261.828	592.1
262.212	592.4
262.597	574.1
262.981	580.1
263.366	593.5
263.751	589.2
264.136	581.5
264.521	581.6
264.906	577.9
265.291	593.3
265.676	582.5
266.061	591.5
266.446	597.1
266.831	585.1
267.217	604.8
267.602	585.8
267.987	584.3
268.373	584.9
268.759	589.7
269.144	591.1
269.53	581.2
269.916	578.9
270.302	583.8
270.688	591.3
271.074	591.7
271.46	591.5
271.846	614.1
272.232	581.3
272.618	575.6
273.004	581
273.391	593.8
273.777	596.5
274.164	591.2
274.55	594.9
274.937	585.8
275.324	584.5
275.71	597.2
276.097	596.8
276.484	578.6
276.871	590.1
277.258	589.1
277.645	571.8
278.032	581.7
278.419	583.1
278.807	593.8
279.194	576.4
279.581	578.9
279.969	592.8
280.356	589.5
280.744	584.9
281.131	607.7
281.519	599.7
281.907	579.9
282.295	583.8
282.682	599
283.07	592.5
283.458	594.8
283.846	600.9
284.235	597.9
284.623	599.7
285.011	580.8
285.399	587.3
285.788	588.6
286.176	574.5
286.565	597.3
286.953	580.2
287.342	583.8
287.731	580.5
288.119	577.9
288.508	581.7
288.897	581.9
289.286	576.4
289.675	590.3
290.064	591.7
290.453	588.6
290.821	592.3
291.21	601.4
291.599	584.5
291.989	593.7
292.378	595.5
292.768	610.4
293.157	595.8
293.547	597.4
293.936	585.9
294.326	584.3
294.716	595.2
295.106	585.7
295.496	589.9
295.886	600
296.276	589.3
296.666	584.4
297.056	578.3
297.446	572.5
297.836	602.8
298.227	585.2
298.617	589
299.008	596.3
299.398	589.2
299.789	585
300.179	593.1
300.57	599.8
300.961	585.7
301.352	586.5
301.742	600.9
302.133	593.3
302.524	591.8
302.915	588.7
303.307	579.3
303.698	594.1
304.089	590.3
304.48	585.8
304.872	592.8
305.263	592.7
305.655	585.2
306.046	592.5
306.438	595.4
306.829	583.5
307.221	599.3
307.613	592.6
308.005	598.6
308.397	600.6
308.789	608.1
309.181	607.6
309.573	604.9
309.965	602
310.357	585
310.749	592.7
311.142	586.3
311.534	579.5
311.926	600.1
312.319	584.7
312.711	577.3
313.104	589.7
313.497	580.6
313.889	615.4
314.282	600.6
314.675	617.2
315.068	591.4
315.461	593.8
315.854	617.7
316.247	593.2
316.64	583.2
317.033	591.2
317.405	591.3
317.798	584.2
318.192	597.2
318.585	583.1
318.979	600
319.372	581.9
319.766	584.9
320.16	595.5
320.553	600.5
320.947	610.8
321.341	584.2
321.735	588.9
322.129	576.7
322.523	607.2
322.917	579
323.311	588.2
323.705	592.9
324.099	593.1
324.494	605.2
324.888	596.5
325.282	588.5
325.677	591.7
326.071	598.6
326.466	596.4
326.861	590.9
327.255	604.9
327.65	600.5
328.045	605.7
328.44	591.1
328.835	587.5
329.23	583.1
329.625	615.4
330.02	585.3
330.415	611
330.81	593.8
331.206	596.2
331.601	585.8
331.996	597.8
332.37	592.6
332.766	579.3
333.161	607.3
333.557	586.2
333.953	594.3
334.348	923.9
334.744	590.5
335.14	581.5
335.536	587.5
335.932	606.5
336.328	587.9
336.724	601.9
337.12	589
337.516	591.3
337.913	586.9
338.309	603.9
338.705	586.9
339.102	597.4
339.498	588
339.895	601.6
340.291	586.6
340.688	594.2
341.085	585.2
341.481	593.3
341.878	588.3
342.275	610.5
342.672	574.9
343.069	580.3
343.466	573.3
343.842	594.8
344.239	586.8
344.636	591.4
345.033	582.8
345.431	578.8
345.828	583.2
346.225	582
346.623	593.4
347.02	582.2
347.418	594.7
347.816	598.8
348.213	576.1
348.611	592.9
349.009	579.9
349.407	594.1
349.805	573.9
350.203	578.9
350.601	593.3
350.999	584.1
351.397	575.2
351.795	587.1
352.193	590.9
352.57	589.6
352.969	598.2
353.367	579.4
353.766	579.9
354.164	586.4
354.563	592.7
354.961	581.8
355.36	582.8
355.759	584.9
356.158	583.2
356.557	577.3
356.956	574.1
357.355	573.5
357.754	588.6
358.153	587.2
358.552	611.3
358.951	580.2
359.35	600.6
359.75	578
360.149	574.5
360.527	573.3
360.926	572.6
361.326	585.8
361.726	578.6
362.125	574.3
362.525	583.1
362.925	575.9
363.325	579.2
363.724	589.7
364.124	569.9
364.524	571.1
364.924	574
365.324	587.4
365.725	564.3
366.125	584
366.525	580
366.904	567.5
367.304	560.5
367.705	597.9
368.105	592.1
368.506	581.6
368.906	577.5
369.307	577
369.708	589.8
370.108	572.5
370.509	593.8
370.91	566.5
371.311	582.1
371.712	585.7
372.113	580.8
372.514	570
372.894	580
373.295	574.4
373.696	592.2
374.097	586.4
374.499	610.6
374.9	582.9
375.301	575.3
375.703	586
376.105	576.6
376.506	585.6
376.908	576
377.309	579.8
377.711	581.3
378.113	576.2
378.493	583.9
378.895	578
379.297	591.4
379.699	568.3
380.102	588.9
380.504	578.2
380.906	577.6
381.308	603.3
381.71	582.2
382.113	586
382.515	575.6
382.918	581.7
383.299	578.6
383.701	583.9
384.104	578.9
384.507	562.3
384.909	579.7
385.312	570.7
385.715	569.8
386.118	573.7
386.521	563.7
386.924	587.1
387.327	576.1
387.709	572.7
388.112	566.3
388.515	582
388.918	580.6
389.322	580.3
389.725	573.3
390.129	598.1
390.532	582.9
390.936	568.7
391.339	570.7
391.743	581.9
392.125	572.3
392.529	588
392.933	593
393.337	582.8
393.74	580.5
394.144	576.8
394.548	572.3
394.953	575.1
395.357	586.4
395.761	568.2
396.144	578
396.548	581.1
396.952	575.1
397.357	582.5
397.761	574.5
398.166	580.6
398.57	580.9
398.975	567.2
399.379	583.8
399.763	623.8
400.168	579.7
400.572	578.2
400.977	577.6
401.382	591.7
401.787	585.9
402.192	592.4
402.597	599.7
403.002	570.7
403.386	590.2
403.791	596.5
404.197	576.9
404.602	573.6
405.007	580.9
405.413	579.1
405.818	572.2
406.224	575
406.608	578.5
407.014	572.4
407.42	591.3
407.825	569.8
408.231	594.4
408.637	581.8
409.043	586.8
409.449	573.4
409.834	575.2
410.24	574.3
410.646	589.3
411.052	593.3
411.458	581.6
411.865	585.7
412.271	584.1
412.677	580.4
413.062	585.8
413.469	576.3
413.875	605.6
414.282	596.1
414.689	581.2
415.095	588.4
415.502	574.1
415.888	581.2
416.294	570.3
416.701	618.7
417.108	569.9
417.515	587.1
417.923	573.3
418.33	596.4
418.715	585.5
419.123	576.1
419.53	580.9
419.937	584.3
420.345	594.2
420.752	575
421.16	598
421.546	577.9
421.953	589.4
422.361	571.1
422.769	580.4
423.177	575.2
423.585	599.2
423.992	598.5
424.379	588.6
424.787	596
425.195	599.2
425.603	587.2
426.011	595.7
426.419	596.3
426.806	586.9
427.214	592.9
427.623	595.4
428.031	606.6
428.44	587
428.848	595.6
429.235	599.8
429.644	585.1
430.053	587
430.461	607.6
430.87	613.9
431.279	596.5
431.666	591.6
432.075	601.5
432.484	616.8
432.893	610.8
433.302	635.9
433.711	660.4
434.099	628.8
434.508	629.4
434.918	626.2
435.327	662.9
435.737	662.8
436.125	669.9
436.534	673.7
436.944	697.6
437.353	704.1
437.763	737.6
438.173	718.5
438.561	749.4
438.971	735.2
439.381	756.2
439.791	775
440.201	766.6
440.589	802.4
440.999	825.1
441.409	819.4
441.819	833.3
442.23	858.5
442.619	866.5
443.029	878.4
443.439	891
443.85	907.5
444.26	919.1
444.649	908.5
445.06	913.9
445.471	915.9
445.881	936.6
446.292	949.2
446.682	972
447.092	955.1
447.503	1017.7
447.914	972.4
448.325	979.7
448.715	989.2
449.126	990.5
449.537	992.3
449.948	1002.2
450.338	997.9
450.75	1022.2
451.161	1010.8
451.572	1028.1
451.984	1023.2
452.374	1012.6
452.786	1030.6
453.197	1037.4
453.609	1050
453.999	1033.3
454.411	1040.5
454.823	1061.9
455.235	1049.3
455.647	1046.3
456.037	1057.6
456.449	1041.3
456.862	1062.3
457.274	1059.8
457.665	1057.3
458.077	1066.2
458.489	1070
458.902	1057.9
459.293	1061.3
459.705	1061.6
460.118	1053.7
460.53	1071.7
460.921	1064.6
461.334	1069.9
461.747	1069.3
462.16	1082.5
462.551	1084.6
462.964	1072.8
463.377	1049.5
463.79	1062.6
464.182	1062.9
464.595	1053.5
465.008	1067.5
465.421	1061.2
465.813	1049.9
466.226	1062.6
466.64	1041.9
467.053	1093.8
467.445	1063.6
467.859	1050
468.272	1067.6
468.686	1069.4
469.078	1047.2
469.492	1037.8
469.906	1052.4
470.298	1052.9
470.712	1050.6
471.126	1080.3
471.54	1032.9
471.933	1033.4
472.347	1036.2
472.761	1037.4
473.175	1019.9
473.568	1035.7
473.982	1023.6
474.397	1031.4
474.79	1024.9
475.204	1037.9
475.619	1022.3
476.033	1034.6
476.426	1023.6
476.841	1015.1
477.256	1039.6
477.649	1004.8
478.064	1002.1
478.479	994.3
478.872	1005
479.287	999.7
479.702	1000.6
480.118	1001.4
480.511	1003.6
480.927	994.4
481.342	997.8
481.736	1003.1
482.151	994.5
482.566	1005.7
482.96	990.9
483.376	1003.3
483.792	982.1
484.186	987.7
484.602	983.7
485.017	980.3
485.412	977.8
485.827	994.6
486.243	980.2
486.638	994.4
487.054	975.4
487.47	978.3
487.865	964.1
488.281	957.7
488.697	958.2
489.092	954.2
489.508	946.2
489.925	965.6
490.32	934.5
490.736	944.9
491.153	948.5
491.548	947
491.964	947.8
492.381	921.8
492.776	934.3
493.193	940.7
493.61	931.9
494.006	924.7
494.422	932.6
494.84	916.4
495.235	934.1
495.652	910.9
496.069	913.9
496.465	902.8
496.883	914.2
497.3	937.2
497.696	899.4
498.113	903.3
498.509	881.3
498.927	887.9
499.344	886
499.741	885.7
500.158	894.5
500.576	893.6
500.973	883.5
501.39	871.1
501.787	870.2
502.205	868.3
502.623	855.4
503.02	854
503.438	851.4
503.856	865
504.253	866.6
504.671	858.1
505.068	848.5
505.486	845.6
505.905	870.2
506.302	849.4
506.72	848.2
507.118	830.3
507.536	833.5
507.955	832
508.352	831.2
508.771	833.4
509.169	834.7
509.587	820
510.006	826.9
510.404	811.3
510.823	812
511.221	809.4
511.64	801.1
512.038	825
512.457	811.6
512.877	808.1
513.275	799.7
513.694	799.6
514.092	787.9
514.512	802.1
514.91	793.3
515.33	789.5
515.749	790.1
516.148	790.7
516.568	783.4
516.966	785.9
517.386	781.8
517.785	778.4
518.205	783.2
518.603	769.3
519.024	763.7
519.444	764.3
519.843	779.3
520.263	773.7
520.662	769.4
521.082	767.6
521.481	763.7
521.902	764.4
522.301	762.2
522.722	756.1
523.121	754.7
523.542	744.9
523.963	747.4
524.362	753.9
524.783	738.9
525.183	738.8
525.604	740.5
526.003	739.3
526.425	733.5
526.824	741.7
527.246	738.4
527.646	741.8
528.067	733.5
528.467	733.6
528.888	729.3
529.289	720.8
529.71	719.7
530.11	715.9
530.532	722.6
530.932	706.1
531.354	704.3
531.755	746.3
532.176	714.3
532.577	710.4
532.999	705.6
533.4	698.6
533.822	712.1
534.223	704.2
534.645	697.6
535.046	694
535.468	698.3
535.869	711.2
536.292	683.9
536.693	696.6
537.115	693.8
537.516	682.6
537.939	689.6
538.34	710.9
538.742	703.1
539.165	690.6
539.566	687.7
539.989	685.4
540.391	684.6
540.814	687.5
541.216	687.1
541.639	679.9
542.041	685.6
542.464	677.9
542.866	671.1
543.268	674.3
543.691	683.8
544.093	682
544.517	690.1
544.919	664
545.343	702.7
545.745	663
546.147	675.3
546.571	672.4
546.974	658.8
547.398	671.5
547.8	676.6
548.224	669.1
548.627	659.5
549.03	669.2
549.454	653
549.857	647.4
550.281	654
550.684	650.1
551.087	671.4
551.512	656.4
551.915	661.7
552.34	650.6
552.743	642
553.146	649.7
553.571	646
553.975	665.1
554.399	640
554.803	691.6
555.207	645.4
555.632	635.5
556.036	648.7
556.461	630.5
556.865	640.9
557.268	628.8
557.694	635.1
558.098	645.1
558.502	639.8
558.927	635.8
559.332	639.6
559.736	636.2
560.162	633.8
560.566	637.7
560.992	641.3
561.396	636.5
561.801	634.5
562.227	637.7
562.631	634.8
563.036	627.3
563.462	635.2
563.867	630.4
564.272	615.1
564.698	628.7
565.103	619.7
565.508	643.4
565.935	619.9
566.34	618
566.745	635.2
567.172	619.9
567.577	641.5
567.982	631.7
568.409	623
568.815	612.1
569.22	621.3
569.626	625.3
570.053	605.8
570.459	621.3
570.865	624.6
571.292	620.2
571.698	624.4
572.104	608.1
572.531	611.2
572.937	622
573.343	612.8
573.75	615.5
574.177	614.9
574.583	620.8
574.99	607.5
575.396	617.3
575.824	607.9
576.231	616.2
576.637	609.2
577.065	628.9
577.472	603.7
577.879	608
578.286	621.7
578.714	605.1
579.121	605.9
579.528	605.4
579.935	609.6
580.364	609.7
580.771	590
581.178	596.2
581.585	612.6
582.014	608.5
582.421	604.3
582.829	599
583.236	604.5
583.644	596.7
584.073	601.3
584.481	604.3
584.889	591.6
585.296	603.5
585.726	601.4
586.134	594.6
586.542	595.3
586.95	610.8
587.358	591.7
587.787	598
588.196	583.9
588.604	594.8
589.012	594.2
589.421	585.6
589.851	587.9
590.259	601.5
590.668	589.9
591.076	632.7
591.485	580
591.894	595.1
592.324	609.2
592.733	605.2
593.142	579.6
593.551	589.2
593.96	625.2
594.369	579.6
594.8	579
595.209	585.5
595.618	570
596.028	584.4
596.437	575.4
596.847	582.3
597.256	586.2
597.687	590.9
598.097	584.3
598.507	571.6
598.917	591.9
599.327	587.8
599.736	590.4
600.146	594.1
600.556	584.7
600.988	595.6
601.398	580.6
601.808	597.5
602.219	572.6
602.629	578.8
603.039	580.6
603.45	603.1
603.86	578.5
604.271	594.3
604.703	583.5
605.114	575.3
605.525	578.3
605.935	582.2
606.346	594.4
606.757	582.1
607.168	576.8
607.579	566.1
607.99	583.5
608.402	577.6
608.813	581.1
609.224	577.7
609.636	564.6
610.047	569.4
610.48	576.3
610.892	584.4
611.303	586.3
611.715	576.3
612.127	570.1
612.539	573
612.95	573.5
613.362	569.6
613.774	565.3
614.186	568.6
614.599	573.8
615.011	579.7
615.423	569.8
615.835	568.4
616.248	565.9
616.66	580
617.073	569
617.485	572
617.898	579.6
618.311	578.4
618.723	577.9
619.136	602.5
619.549	587.7
619.962	595.7
620.375	575
620.788	579
621.201	577
621.614	584.1
622.028	577.1
622.441	577.2
622.854	583.9
623.268	572.5
623.681	573
624.095	579.4
624.509	581
624.922	576.6
625.336	567.1
625.728	576.5
626.142	587.7
626.556	588.3
626.97	577.9
627.384	566.4
627.799	572.8
628.213	581.4
628.627	574.3
629.041	569.3
629.456	573.1
629.87	572.1
630.285	579.7
630.699	582.1
631.093	571.4
631.507	578.2
631.922	580.6
632.337	585.1
632.752	565.7
633.167	575.4
633.582	567.4
633.997	568.2
634.412	569.5
634.806	563.5
635.221	560.5
635.637	576.2
636.052	563.4
636.468	573
636.883	589.1
637.299	568.9
637.715	553.9
638.109	567.9
638.525	558.3
638.941	577.9
639.357	571.3
639.773	581.5
640.189	563.6
640.584	564.4
641	568.1
641.416	559.8
641.832	558.9
642.249	563.6
642.665	568.9
643.06	568.7
643.477	572.5
643.894	551
644.31	564.9
644.727	568.6
645.123	567.4
645.54	556.9
645.957	574.5
646.374	568.8
646.77	565.5
647.187	596.2
647.604	563.5
648.021	553.9
648.439	556.1
648.835	562
649.252	563.3
649.67	559.2
650.088	563.4
650.484	567.7
650.902	572.3
651.32	570.4
651.738	561.3
652.134	564.1
652.552	584
652.971	566.7
653.389	562.1
653.786	580.6
654.204	564.3
654.622	557.9
655.019	567.2
655.438	565.9
655.857	568.6
656.275	574.2
656.673	559.6
657.091	632.4
657.51	557.4
657.908	568.6
658.327	577.1
658.746	557.8
659.144	559.1
659.563	580.2
659.982	566.7
660.38	554
660.8	567.4
661.219	576.1
661.617	568.1
662.037	564.5
662.457	576.5
662.855	551.2
663.275	599.5
663.695	569.2
664.094	558.4
664.514	565.2
664.934	558.8
665.333	572.1
665.753	557.8
666.152	557
666.572	560.4
666.993	575.5
667.392	556.8
667.812	561.9
668.212	556.4
668.632	574.8
669.053	557.4
669.453	568.7
669.874	564.2
670.273	568.9
670.694	556.9
671.116	572.3
671.515	571.6
671.937	557.5
672.337	553.3
672.758	560.7
673.158	571.2
673.58	554.8
673.98	565.2
674.402	571.3
674.824	565.8
675.224	565.4
675.646	556.1
676.047	559.4
676.469	563.6
676.869	570.3
677.292	564.6
677.693	557.4
678.115	560.2
678.516	571.1
678.939	567.8
679.34	558.4
679.762	573.3
680.164	565.4
680.586	556.2
680.988	567.1
681.411	593.3
681.812	558.9
682.236	552.1
682.637	556
683.061	547.1
683.462	565.7
683.864	560.6
684.288	566.9
684.69	553.3
685.114	570.2
685.516	570.2
685.94	558.5
686.342	568.8
686.766	555.9
687.168	562.7
687.571	581.9
687.995	566.6
688.398	551
688.822	559.8
689.225	578
689.628	583.2
690.052	560.3
690.456	573
690.88	565.3
691.284	553.2
691.687	563
692.112	544.8
692.515	550.9
692.919	562.8
693.344	561
693.747	559.6
694.173	554.8
694.577	568.3
694.98	565.8
695.406	559.4
695.81	565.3
696.214	562.4
696.64	561.3
697.044	562.3
697.448	572.9
697.874	555.8
698.279	561.9
698.684	547.2
699.11	552.6
699.514	551.2
699.919	554.2
700.324	554.5
700.75	559.6
701.156	556.6
701.561	565
701.987	566
702.393	568.4
702.798	568.8
703.203	550.1
703.63	553.1
704.036	553
704.442	558.5
704.847	550.1
705.274	562.5
705.68	560.8
706.086	568.3
706.492	550.7
706.92	553.2
707.326	568.7
707.732	551.4
708.139	553.5
708.545	543.3
708.973	557.6
709.38	555.6
709.786	548.2
710.193	567.8
710.6	559.6
711.028	547.4
711.435	557.1
711.842	555.9
712.249	555.5
712.656	559
713.064	569.9
713.492	553.3
713.9	551.6
714.307	567.5
714.715	559.3
715.123	555.1
715.53	562.3
715.938	568.4
716.367	558.3
716.775	560
717.184	553.6
717.592	556.1
718	570.8
718.408	590.4
718.816	599.2
719.225	565
719.633	568.1
720.042	550.6
720.472	559.5
720.881	582.5
721.29	564.5
721.699	551.4
722.108	560.5
722.517	561.8
722.926	558.1
723.335	569.8
723.744	560.5
724.154	557.3
724.563	562.3
724.973	564.6
725.382	556.2
725.792	557.6
726.202	556
726.612	568.2
727.022	555.6
727.432	553.1
779.813	556.4
780.223	600.3
780.634	556.6
781.044	552.2
781.454	561.1
781.865	564.4
782.276	546.9
782.686	566.1
783.097	555.4
783.508	560.1
783.919	560.7
784.33	566.6
784.741	564.7
785.152	545.2
785.563	543.5
785.974	551.9
786.386	565.5
786.776	557
787.188	561.9
787.599	546.4
788.011	556.4
788.423	558.9
788.835	555.1
789.247	547.9
789.659	557.5
790.071	549.7
790.483	594.5
790.874	549.9
791.286	561.5
791.699	554.4
792.111	557.1
792.524	554.5
792.937	557.4
793.349	542.7
793.741	545.9
794.154	551.8
794.567	571.9
794.98	556.2
795.393	542.4
795.785	573.6
796.198	541.9
796.612	555.4
797.026	546.9
797.439	536.6
797.831	551.2
798.245	540.3
798.659	551.5
799.073	552.1
799.487	548.5
799.88	557.5
800.294	554
800.708	560.5
801.123	558.5
801.516	570.7
801.93	545.8
802.345	544.3
802.76	553.3
803.153	569.7
803.568	566.1
803.983	563.5
804.377	553.7
804.792	544.8
805.207	544.4
805.601	557.6
806.016	586.7
806.432	553.6
806.826	581.9
807.242	572.1
807.658	558.3
808.052	550.2
808.468	551.4
808.884	553.2
809.279	553.9
809.695	569.3
810.111	574.9
810.506	558.9
810.922	571.9
811.339	553
811.734	564.9
812.151	553.2
812.546	552.3
812.963	552.2
813.38	553.8
813.776	553.1
814.193	574.7
814.589	553.9
815.006	551.1
815.402	546.1
815.82	552.5
816.237	552.8
816.633	558.5
817.051	556.9
817.448	557.7
817.866	552.1
818.262	575.1
818.68	552.3
819.077	552.8
819.495	554.1
819.892	593.8
820.311	548
820.708	549
821.127	549.9
821.524	566.4
821.943	552.6
822.34	578.7
822.759	558.9
823.157	561
823.576	572.9
823.974	559.1
824.393	562.3
824.791	554.6
825.189	551.3
825.609	549
826.007	554.1
826.427	544.3
826.826	555.2
827.246	560.9
827.644	539.5
828.043	560.6
828.463	550.9
828.862	564.5
829.261	560
829.682	547.1
830.081	559
830.502	549
830.901	555.3
831.301	554.1
831.722	544.2
832.121	553.7
832.521	553.9
832.943	549.6
833.342	554.6
833.742	546.8
834.164	553.5
834.564	545.6
834.965	552.4
835.386	549.5
835.787	550.2
836.188	551.2
836.588	559.1
837.01	550.4
837.411	547.3
837.812	561.4
838.213	555
838.636	546.8
839.037	612.8
839.438	556.1
839.84	556
840.263	560.2
840.664	562
841.066	547.1
841.468	552.7
841.891	552.5
842.293	563.5
842.695	558
843.098	560.5
843.5	548
843.902	561.7
844.326	552.5
