#lambda/nm	C1
208.295	478.3
208.67	445.6
209.045	406.2
209.419	415.1
209.794	581.9
210.169	563.2
210.544	680.8
210.919	580.2
211.295	572.4
211.67	576.3
212.045	577.7
212.421	577.9
212.796	609.1
213.172	576.4
213.547	575.8
213.923	573.6
214.299	564.4
214.675	578.6
215.051	584.3
215.427	579.7
215.803	593.9
216.179	580.2
216.555	571.8
216.932	583.5
217.308	580.1
217.684	579.4
218.061	578.1
218.438	585.2
218.814	579.3
219.191	585.6
219.568	569.4
219.945	575.6
220.322	589.3
220.699	583.4
221.076	585.4
221.453	581.2
221.83	573.3
222.208	572
222.585	571.4
222.962	580.5
223.34	581.2
223.717	577.4
224.095	575.3
224.473	579.7
224.851	569.8
225.229	566.3
225.607	592.7
225.985	563
226.363	579.3
226.741	576.5
227.119	577.4
227.497	589.6
227.876	568.3
228.254	586.5
228.633	585.9
229.011	577.9
229.39	584.6
229.769	576.5
230.148	591.5
230.527	596.2
230.905	582.5
231.284	586.3
231.664	576.6
232.043	594.5
232.422	585.3
232.801	577.3
233.181	581.3
233.56	579.6
233.94	577.4
234.319	563.5
234.699	574.1
235.079	611.6
235.458	611.1
235.838	597.3
236.218	570.8
236.598	569.8
236.978	566
237.358	571.8
237.738	573
238.119	586.7
238.499	564
238.88	578.2
239.26	593.6
239.641	569.7
240.021	570.2
240.402	573.7
240.783	575.1
241.163	574.3
241.544	583.7
241.925	579.1
242.306	588.6
242.687	572.2
243.069	574.3
243.45	585
243.831	570.9
244.212	571.2
244.594	611.1
244.975	583.6
245.357	579
245.739	566.3
246.12	578
246.502	586.8
246.884	574.8
247.266	571.3
247.648	578.1
248.03	594.4
248.412	582
248.794	584.5
249.176	576.1
249.559	588.3
249.941	566.8
250.323	568.7
250.706	574.2
251.089	577.2
251.471	585.7
251.854	584
252.237	580.3
252.62	590.2
253.002	576.4
253.385	582.3
253.769	591.1
254.152	580.2
254.535	582.9
254.918	569
255.301	578.3
255.685	574.3
256.068	564.9
256.452	604.3
256.835	584.7
257.219	581.8
257.603	586.1
257.986	569.9
258.37	581.9
258.754	568
259.138	581
259.522	592.1
259.906	577.8
260.29	578.9
260.675	575.1
261.059	576.5
261.443	577
261.828	587.1
262.212	583.5
262.597	566
262.981	577.4
263.366	587.4
263.751	579.3
264.136	575
264.521	573.9
264.906	574.5
265.291	591
265.676	578
266.061	581.3
266.446	596.5
266.831	583.4
267.217	592
267.602	578
267.987	580
268.373	574.7
268.759	591.9
269.144	586.1
269.53	576.7
269.916	580.3
270.302	571.5
270.688	583.3
271.074	582.8
271.46	592.7
271.846	606.6
272.232	576.4
272.618	573.8
273.004	575.3
273.391	584.8
273.777	590.8
274.164	586.9
274.55	587.7
274.937	581.7
275.324	577.5
275.71	589.3
276.097	584.8
276.484	563.6
276.871	573.8
277.258	579.1
277.645	570.4
278.032	575.9
278.419	577.4
278.807	587.7
279.194	564.9
279.581	571.4
279.969	582.9
280.356	574.6
280.744	575.2
281.131	599.2
281.519	587.9
281.907	570.4
282.295	568.2
282.682	583.5
283.07	577.5
283.458	585.4
283.846	586.8
284.235	585.7
284.623	585.4
285.011	571.6
285.399	582
285.788	578.2
286.176	568.3
286.565	594.6
286.953	569.8
287.342	580.8
287.731	570.9
288.119	567.8
288.508	576.6
288.897	578.5
289.286	563.6
289.675	579.3
290.064	583.9
290.453	573.7
290.821	573.7
291.21	595.2
291.599	569.2
291.989	575.4
292.378	584.5
292.768	595.3
293.157	584.8
293.547	585.4
293.936	575.6
294.326	573.6
294.716	583
295.106	572.2
295.496	583.1
295.886	591.2
296.276	577.6
296.666	573.9
297.056	576.7
297.446	568.2
297.836	591.4
298.227	576.2
298.617	584.5
299.008	596.4
299.398	575.7
299.789	575.2
300.179	586.6
300.57	596.2
300.961	572.5
301.352	576.6
301.742	587.6
302.133	574.5
302.524	577.7
302.915	580.7
303.307	575
303.698	588.2
304.089	583.7
304.48	583.6
304.872	586.8
305.263	580.6
305.655	577.9
306.046	587
306.438	581.8
306.829	573.2
307.221	599.3
307.613	585.5
308.005	586.7
308.397	594.5
308.789	597.6
309.181	601.5
309.573	598.1
309.965	587.6
310.357	581.2
310.749	584.8
311.142	568.1
311.534	577.8
311.926	589
312.319	578.1
312.711	575.4
313.104	594.9
313.497	574.7
313.889	620
314.282	586.7
314.675	605.4
315.068	581.1
315.461	589.2
315.854	607.8
316.247	585.8
316.64	578.4
317.033	584.2
317.405	587.1
317.798	581.5
318.192	582.3
318.585	572.5
318.979	579.7
319.372	575.3
319.766	576.5
320.16	589.7
320.553	592
320.947	600.4
321.341	574.3
321.735	581.3
322.129	565.5
322.523	608.4
322.917	575.5
323.311	591.7
323.705	584.5
324.099	588.4
324.494	598.2
324.888	592.1
325.282	582.2
325.677	579.5
326.071	587.9
326.466	590.5
326.861	581.2
327.255	591.9
327.65	594.5
328.045	594.7
328.44	590.4
328.835	584.2
329.23	574.7
329.625	602.8
330.02	572
330.415	603.5
330.81	588.6
331.206	586.6
331.601	581.6
331.996	590
332.37	592.2
332.766	575.9
333.161	603.6
333.557	576.4
333.953	577.8
334.348	947.7
334.744	578.2
335.14	579.3
335.536	576
335.932	588.9
336.328	571.8
336.724	585.4
337.12	574.2
337.516	574.4
337.913	583
338.309	587.8
338.705	581.8
339.102	585
339.498	575.3
339.895	596.8
340.291	579
340.688	587
341.085	570.9
341.481	575.7
341.878	578.2
342.275	596
342.672	572.1
343.069	574.5
343.466	563.7
343.842	592.6
344.239	577.9
344.636	580.3
345.033	576.1
345.431	572.6
345.828	582.9
346.225	572.2
346.623	591.1
347.02	578.8
347.418	589.9
347.816	591.2
348.213	568.6
348.611	584.7
349.009	567.8
349.407	584.4
349.805	565.6
350.203	568.6
350.601	587
350.999	574.3
351.397	570.7
351.795	577.9
352.193	588.4
352.57	584.7
352.969	589.6
353.367	568.2
353.766	565.9
354.164	575.6
354.563	587
354.961	574.9
355.36	573.5
355.759	571.6
356.158	569.9
356.557	570.7
356.956	565.6
357.355	565.2
357.754	584.1
358.153	581.7
358.552	599.3
358.951	571.4
359.35	582.7
359.75	573.8
360.149	571.5
360.527	561.6
360.926	564.1
361.326	578.2
361.726	576.9
362.125	565.6
362.525	577.5
362.925	574.7
363.325	579.6
363.724	571.1
364.124	567.9
364.524	567.8
364.924	572.6
365.324	581.4
365.725	564.9
366.125	573.6
366.525	578.1
366.904	564.1
367.304	556
367.705	586.5
368.105	587.7
368.506	573.7
368.906	576.1
369.307	574.4
369.708	576.9
370.108	565.3
370.509	582.2
370.91	571.2
371.311	571.4
371.712	575.2
372.113	565.4
372.514	563
372.894	569.9
373.295	569.7
373.696	582.2
374.097	581.7
374.499	593.4
374.9	566.8
375.301	564.8
375.703	575.3
376.105	565.9
376.506	573.6
376.908	580.8
377.309	571.1
377.711	571.8
378.113	562.9
378.493	573.5
378.895	564.7
379.297	579.6
379.699	559
380.102	573.1
380.504	572
380.906	564.9
381.308	594.5
381.71	565.3
382.113	584.7
382.515	572.3
382.918	577.4
383.299	569.6
383.701	582.6
384.104	568.9
384.507	557.6
384.909	568.3
385.312	557.8
385.715	564.5
386.118	568.3
386.521	559.3
386.924	577.9
387.327	565.7
387.709	564.2
388.112	552
388.515	571.6
388.918	564.3
389.322	570.2
389.725	567.2
390.129	585.8
390.532	570.7
390.936	568.5
391.339	562.8
391.743	576.3
392.125	563.5
392.529	582.2
392.933	589.3
393.337	573.5
393.74	570.6
394.144	574.2
394.548	562
394.953	567.7
395.357	581.1
395.761	568
396.144	571.6
396.548	568.8
396.952	570.8
397.357	572
397.761	570.7
398.166	565.3
398.57	574.3
398.975	563.5
399.379	574.9
399.763	613.5
400.168	565.7
400.572	569.6
400.977	566
401.382	589.4
401.787	580.7
402.192	584.8
402.597	591.7
403.002	560.9
403.386	578.3
403.791	588.4
404.197	567.1
404.602	573.7
405.007	571.9
405.413	570.7
405.818	564.4
406.224	567.4
406.608	567.1
407.014	562.1
407.42	578.6
407.825	565.5
408.231	578.6
408.637	576.2
409.043	583.4
409.449	564.6
409.834	565.8
410.24	572.6
410.646	581.3
411.052	582
411.458	570
411.865	577.4
412.271	583.5
412.677	573.6
413.062	579.6
413.469	558.8
413.875	594.5
414.282	583.3
414.689	575.4
415.095	578.3
415.502	570.3
415.888	572.9
416.294	556.7
416.701	607.4
417.108	562.9
417.515	580.3
417.923	571.8
418.33	594.9
418.715	580
419.123	570
419.53	573
419.937	576.3
420.345	586.6
420.752	569.2
421.16	583
421.546	573.4
421.953	581.5
422.361	566.9
422.769	572.6
423.177	566.6
423.585	593
423.992	592.3
424.379	584.3
424.787	580
425.195	595.1
425.603	576
426.011	586.8
426.419	589.3
426.806	576.6
427.214	577.7
427.623	587.4
428.031	586.1
428.44	572
428.848	587
429.235	588.9
429.644	575.3
430.053	570.1
430.461	582.4
430.87	594.4
431.279	582.9
431.666	563.6
432.075	573.4
432.484	578.9
432.893	572.4
433.302	590.6
433.711	616.9
434.099	575.8
434.508	569.5
434.918	560.1
435.327	580.3
435.737	573.5
436.125	569.1
436.534	569.6
436.944	573.3
437.353	576.7
437.763	591.5
438.173	561.2
438.561	580
438.971	559.8
439.381	569.3
439.791	571.2
440.201	549.6
440.589	571.4
440.999	578
441.409	574.6
441.819	561.9
442.23	582
442.619	578.1
443.029	573.7
443.439	578
443.85	584.9
444.26	586.4
444.649	575.2
445.06	567.3
445.471	566.1
445.881	568.1
446.292	581.3
446.682	592.3
447.092	553.2
447.503	617.8
447.914	569.8
448.325	568.7
448.715	568.4
449.126	563.8
449.537	570
449.948	571.9
450.338	565.1
450.75	576.6
451.161	570.9
451.572	577.4
451.984	563.5
452.374	559.4
452.786	567.1
453.197	569.1
453.609	578.5
453.999	559.1
454.411	559.6
454.823	579.3
455.235	572.1
455.647	566.4
456.037	571.5
456.449	557.7
456.862	570.3
457.274	569.5
457.665	555.6
458.077	576.4
458.489	577.4
458.902	565.9
459.293	567.4
459.705	565.7
460.118	559.3
460.53	568.6
460.921	565.1
461.334	569.1
461.747	566.3
462.16	574.1
462.551	582.8
462.964	572.3
463.377	554.4
463.79	565.4
464.182	576
464.595	558.9
465.008	568.3
465.421	567.5
465.813	562.3
466.226	569.1
466.64	564.7
467.053	610.7
467.445	574.7
467.859	566
468.272	571
468.686	581.7
469.078	563
469.492	556.5
469.906	564.7
470.298	571.3
470.712	562.5
471.126	598
471.54	549.6
471.933	557.9
472.347	559.1
472.761	559.7
473.175	552.3
473.568	559.3
473.982	557.4
474.397	561.8
474.79	561.4
475.204	568.2
475.619	559.8
476.033	570.7
476.426	563.1
476.841	559.1
477.256	582.9
477.649	555.7
478.064	556.5
478.479	560.1
478.872	556.1
479.287	545
479.702	557.9
480.118	559.5
480.511	561.3
480.927	556.1
481.342	556
481.736	569.5
482.151	556.8
482.566	573.1
482.96	557
483.376	570.6
483.792	556.9
484.186	568.2
484.602	562.8
485.017	557.4
485.412	557.2
485.827	570.2
486.243	558.9
486.638	581.2
487.054	566.8
487.47	583.3
487.865	557.9
488.281	563.9
488.697	551.1
489.092	560.5
489.508	558.9
489.925	570.7
490.32	551.7
490.736	564.7
491.153	571.3
491.548	568.5
491.964	571.5
492.381	553.5
492.776	563.8
493.193	562.5
493.61	567.2
494.006	566.1
494.422	565.5
494.84	559.2
495.235	570.1
495.652	568.9
496.069	560.7
496.465	555.6
496.883	559.7
497.3	587.8
497.696	559.1
498.113	576.6
498.509	554.4
498.927	550
499.344	553.9
499.741	558.7
500.158	568
500.576	569.8
500.973	564.7
501.39	554.2
501.787	558.1
502.205	558.7
502.623	557
503.02	553.5
503.438	556.9
503.856	560.6
504.253	567.3
504.671	562.4
505.068	558.1
505.486	562.3
505.905	577.9
506.302	561
506.72	575.3
507.118	548.1
507.536	559.3
507.955	558.3
508.352	559.5
508.771	568.3
509.169	563.6
509.587	554
510.006	561.5
510.404	548.3
510.823	555.8
511.221	553.6
511.64	556.1
512.038	574.1
512.457	560.8
512.877	558.3
513.275	557.6
513.694	561.9
514.092	558
514.512	559.3
514.91	556.7
515.33	564.8
515.749	561.1
516.148	561
516.568	558.3
516.966	560.1
517.386	560.3
517.785	562.7
518.205	562.3
518.603	558.1
519.024	550.2
519.444	564.2
519.843	569.3
520.263	564.9
520.662	568.1
521.082	558.8
521.481	562.8
521.902	561.4
522.301	560.4
522.722	562.9
523.121	557.2
523.542	558.6
523.963	557.2
524.362	564.5
524.783	564.9
525.183	556.9
525.604	557.7
526.003	552.2
526.425	555
526.824	556.4
527.246	564.6
527.646	566.5
528.067	560.7
528.467	564
528.888	560.3
529.289	551.5
529.71	562.5
530.11	559.4
530.532	552.7
530.932	552.8
531.354	550.8
531.755	587
532.176	564.8
532.577	553.7
532.999	558.4
533.4	556.6
533.822	564.4
534.223	565.7
534.645	559.5
535.046	554.3
535.468	560.4
535.869	575.2
536.292	553.1
536.693	557.8
537.115	557.4
537.516	549.3
537.939	556.3
538.34	579.5
538.742	566.8
539.165	561.6
539.566	556.8
539.989	554.3
540.391	556.8
540.814	552.6
541.216	561
541.639	560.9
542.041	562.9
542.464	559.8
542.866	554.1
543.268	546.6
543.691	559.9
544.093	565.5
544.517	574
544.919	554.6
545.343	579.7
545.745	555.1
546.147	556.9
546.571	560.3
546.974	551.7
547.398	562
547.8	571.5
548.224	558.5
548.627	548.2
549.03	563.3
549.454	554.2
549.857	545
550.281	550.4
550.684	553.5
551.087	571.7
551.512	559.9
551.915	563.4
552.34	557.2
552.743	555.4
553.146	551.1
553.571	558.1
553.975	577
554.399	553.5
554.803	598.6
555.207	550.9
555.632	548.2
556.036	558.1
556.461	547.9
556.865	555.6
557.268	546.4
557.694	555.3
558.098	560.2
558.502	556.9
558.927	550.4
559.332	552.5
559.736	556.8
560.162	561
560.566	555.6
560.992	561.8
561.396	561.8
561.801	559.2
562.227	558.2
562.631	555.9
563.036	559.1
563.462	563.9
563.867	558.5
564.272	554.9
564.698	560.4
565.103	546.3
565.508	569
565.935	557.5
566.34	555.3
566.745	565.6
567.172	544.9
567.577	575
567.982	565.6
568.409	562.8
568.815	547.2
569.22	551.3
569.626	565.7
570.053	544.5
570.459	558.1
570.865	567.3
571.292	561.2
571.698	559.6
572.104	544.4
572.531	549.4
572.937	564.5
573.343	557.4
573.75	553.9
574.177	556.3
574.583	566.5
574.99	556.8
575.396	561.4
575.824	554.5
576.231	561.2
576.637	551.4
577.065	582.6
577.472	556.1
577.879	553.6
578.286	565.7
578.714	547.5
579.121	556.2
579.528	557.8
579.935	562.2
580.364	558.6
580.771	544.2
581.178	549.6
581.585	558
582.014	561.8
582.421	552.9
582.829	555.9
583.236	562.7
583.644	551.3
584.073	547.3
584.481	556.1
584.889	550.9
585.296	556.2
585.726	556.8
586.134	544.9
586.542	550.9
586.95	562.2
587.358	544.4
587.787	558.7
588.196	540.5
588.604	556.1
589.012	557.4
589.421	548.6
589.851	550.1
590.259	552.1
590.668	554
591.076	589.4
591.485	551.6
591.894	556.3
592.324	570.8
592.733	564.8
593.142	544.7
593.551	548.1
593.96	561.7
594.369	548.2
594.8	549.4
595.209	551.8
595.618	537.3
596.028	556.1
596.437	548.9
596.847	552.4
597.256	556.9
597.687	558.8
598.097	556.9
598.507	542.3
598.917	556.8
599.327	559.3
599.736	554.3
600.146	561.3
600.556	552.9
600.988	563.8
601.398	553.5
601.808	558.3
602.219	544.7
602.629	551.5
603.039	557.6
603.45	577.7
603.86	557.2
604.271	564.7
604.703	557.5
605.114	552.5
605.525	560.4
605.935	558.6
606.346	575
606.757	561
607.168	548.2
607.579	547.1
607.99	566.7
608.402	557.9
608.813	557.5
609.224	552.6
609.636	549.2
610.047	546.2
610.48	549.9
610.892	562.6
611.303	559.5
611.715	551.5
612.127	546.5
612.539	550.3
612.95	554.1
613.362	543.2
613.774	536.7
614.186	551.2
614.599	552.2
615.011	562.7
615.423	542.2
615.835	550.8
616.248	545.8
616.66	560
617.073	549.8
617.485	549.9
617.898	556.4
618.311	555.6
618.723	546.6
619.136	583.3
619.549	569.2
619.962	570.1
620.375	546.5
620.788	549.7
621.201	545
621.614	555.3
622.028	551.2
622.441	554.2
622.854	559
623.268	546.1
623.681	556.1
624.095	552.8
624.509	557.6
624.922	554.8
625.336	541.7
625.728	549.2
626.142	561
626.556	567.9
626.97	554
627.384	547.4
627.799	545.7
628.213	564.4
628.627	554.1
629.041	546.8
629.456	546.6
629.87	552.2
630.285	555.9
630.699	566.9
631.093	549.2
631.507	556.6
631.922	553.7
632.337	564.8
632.752	541.3
633.167	557.6
633.582	550.3
633.997	548
634.412	552.3
634.806	544
635.221	544.5
635.637	565.4
636.052	540.6
636.468	550.9
636.883	570.2
637.299	556.4
637.715	539
638.109	550.2
638.525	539.1
638.941	561.3
639.357	550.5
639.773	561.2
640.189	549
640.584	550.4
641	558.3
641.416	540.1
641.832	549.9
642.249	550.6
642.665	553.8
643.06	556.7
643.477	563.7
643.894	542
644.31	549.5
644.727	550.3
645.123	548.6
645.54	550.7
645.957	553.5
646.374	552.6
646.77	550.8
647.187	579.9
647.604	554.1
648.021	542.2
648.439	548.8
648.835	556.6
649.252	550.2
649.67	553.3
650.088	555
650.484	553.3
650.902	559.1
651.32	558.7
651.738	545.3
652.134	558.4
652.552	568.2
652.971	559.8
653.389	547.1
653.786	564.9
654.204	556.2
654.622	545.8
655.019	557.3
655.438	557.3
655.857	553.2
656.275	554.1
656.673	546.8
657.091	612.9
657.51	546.5
657.908	560.2
658.327	571.7
658.746	544.7
659.144	554.9
659.563	564.2
659.982	555.4
660.38	544.4
660.8	556.2
661.219	559
661.617	562.1
662.037	555.6
662.457	558
662.855	538.2
663.275	581
663.695	551.1
664.094	545.4
664.514	556.5
664.934	544.8
665.333	556.6
665.753	544.2
666.152	547.3
666.572	546.8
666.993	561.7
667.392	551.5
667.812	550.1
668.212	544.8
668.632	561.2
669.053	549.2
669.453	558.2
669.874	549.7
670.273	553.8
670.694	541.2
671.116	562.1
671.515	562.6
671.937	548.7
672.337	548.9
672.758	540.4
673.158	561
673.58	540.9
673.98	559.1
674.402	561.7
674.824	548.2
675.224	549.1
675.646	542.7
676.047	548.8
676.469	556.7
676.869	553.6
677.292	557.3
677.693	553.8
678.115	545.3
678.516	553.8
678.939	557.5
679.34	549.8
679.762	558.4
680.164	555.8
680.586	544.3
680.988	559.4
681.411	575.1
681.812	544.4
682.236	543.3
682.637	543.8
683.061	541.8
683.462	551.5
683.864	546.4
684.288	558.2
684.69	545.6
685.114	557.9
685.516	563.5
685.94	543
686.342	558.5
686.766	548.4
687.168	551.3
687.571	568.7
687.995	547.2
688.398	542.9
688.822	545.2
689.225	558.7
689.628	568.8
690.052	545.9
690.456	555
690.88	550.9
691.284	541.7
691.687	553.9
692.112	543.3
692.515	542.6
692.919	554.1
693.344	552.3
693.747	546.2
694.173	545.5
694.577	561.8
694.98	550.9
695.406	551.9
695.81	550
696.214	555.6
696.64	551.7
697.044	551.2
697.448	564.5
697.874	546.1
698.279	550.8
698.684	538.9
699.11	542.2
699.514	544.9
699.919	548.9
700.324	540.2
700.75	552.5
701.156	550.1
701.561	556.7
701.987	550.9
702.393	558.5
702.798	555.3
703.203	552.9
703.63	544.9
704.036	545.1
704.442	550.3
704.847	546.2
705.274	549.4
705.68	551.2
706.086	560.5
706.492	537.2
706.92	549
707.326	558.3
707.732	548.8
708.139	542.6
708.545	546.4
708.973	550
709.38	549.5
709.786	544.9
710.193	564.4
710.6	550.9
711.028	540.3
711.435	547.4
711.842	552.2
712.249	547.6
712.656	541.6
713.064	558.7
713.492	544.6
713.9	549.8
714.307	552.2
714.715	549.2
715.123	547.9
715.53	551.1
715.938	553
716.367	551
716.775	543.2
717.184	540.9
717.592	542.5
718	557.5
718.408	578.7
718.816	592.1
719.225	549.5
719.633	548
720.042	537
720.472	546.3
720.881	571.2
721.29	552.3
721.699	540.8
722.108	548.1
722.517	553.4
722.926	543.7
723.335	553.9
723.744	545
724.154	548.3
724.563	549
724.973	548.5
725.382	548.1
725.792	540.8
726.202	545.4
726.612	557.1
727.022	549.3
727.432	548.8
779.813	543.3
780.223	590.2
780.634	548.1
781.044	540.8
781.454	542.4
781.865	559.1
782.276	538.1
782.686	559.6
783.097	543
783.508	540.7
783.919	549
784.33	558.5
784.741	553.8
785.152	544.6
785.563	537.1
785.974	545.9
786.386	556.1
786.776	544.4
787.188	550.5
787.599	544.1
788.011	548
788.423	555.1
788.835	546.5
789.247	540.4
789.659	540.7
790.071	539.9
790.483	585.3
790.874	546.5
791.286	552.6
791.699	542.7
792.111	546.5
792.524	553.3
792.937	549.2
793.349	541.1
793.741	545.6
794.154	543.5
794.567	562
794.98	542.6
795.393	538.9
795.785	557.1
796.198	542.8
796.612	546.4
797.026	546.4
797.439	536.1
797.831	543
798.245	536.4
798.659	539.8
799.073	542
799.487	540.1
799.88	541.5
800.294	547.4
800.708	552.4
801.123	543.2
801.516	560.8
801.93	535.8
802.345	529.6
802.76	547
803.153	556.5
803.568	557
803.983	553
804.377	551.9
804.792	538.7
805.207	533.4
805.601	543.1
806.016	575.5
806.432	543.4
806.826	570.8
807.242	562.8
807.658	551.7
808.052	549
808.468	547.1
808.884	539.6
809.279	541.9
809.695	557.4
810.111	562.1
810.506	543
810.922	560.2
811.339	537.2
811.734	554.5
812.151	545.3
812.546	540.5
812.963	539.8
813.38	550.5
813.776	542.8
814.193	561.9
814.589	539.3
815.006	544.1
815.402	544.5
815.82	543.8
816.237	548.1
816.633	550.4
817.051	540.6
817.448	545
817.866	537.1
818.262	559.9
818.68	541.5
819.077	541.1
819.495	547.3
819.892	581.9
820.311	541
820.708	542.2
821.127	544.1
821.524	554.7
821.943	545.2
822.34	563.4
822.759	549.2
823.157	545.1
823.576	558
823.974	554.2
824.393	552.6
824.791	541.1
825.189	540
825.609	548.1
826.007	546.2
826.427	538.7
826.826	554
827.246	552.9
827.644	531.9
828.043	554.2
828.463	538.7
828.862	552.6
829.261	549.6
829.682	539.8
830.081	549.8
830.502	540.1
830.901	546.6
831.301	543.3
831.722	534.4
832.121	546
832.521	542.6
832.943	544.2
833.342	542.2
833.742	536.9
834.164	538.6
834.564	536.8
834.965	548.6
835.386	540.2
835.787	541.7
836.188	541.1
836.588	543.8
837.01	546.5
837.411	537.8
837.812	548.9
838.213	544.3
838.636	544.2
839.037	611.5
839.438	550
839.84	547.5
840.263	550.8
840.664	549.3
841.066	544.7
841.468	545.4
841.891	540.9
842.293	555.3
842.695	551.7
843.098	553.8
843.5	540.9
843.902	547.5
844.326	545.9
844.729	547.3
845.131	556.9
845.534	544.7
845.937	558.4
846.34	556.7
846.764	541.5
847.167	550.3
847.571	540.6
