#lambda/nm	C1
208.295	482.8
208.67	447.2
209.045	409.2
209.419	414.1
209.794	594.2
210.169	578
210.544	691.6
210.919	590.5
211.295	581
211.67	596.5
212.045	583.8
212.421	590.4
212.796	629.1
213.172	581.8
213.547	584.6
213.923	585.8
214.299	592.8
214.675	595.2
215.051	592.9
215.427	593.9
215.803	610.4
216.179	595.1
216.555	577.9
216.932	600.4
217.308	591.6
217.684	588.6
218.061	598.4
218.438	593.1
218.814	576.5
219.191	593.7
219.568	581
219.945	587.4
220.322	595
220.699	592.7
221.076	601.2
221.453	596.5
221.83	581.7
222.208	580.6
222.585	583.8
222.962	594.1
223.34	592.3
223.717	596.4
224.095	587.7
224.473	596.2
224.851	583.4
225.229	580.8
225.607	600.1
225.985	576.2
226.363	591.2
226.741	592.7
227.119	593.9
227.497	605.9
227.876	580
228.254	593.4
228.633	596.7
229.011	590.8
229.39	597.6
229.769	595.1
230.148	597.9
230.527	609.2
230.905	597.2
231.284	592.1
231.664	588.8
232.043	599.1
232.422	600.4
232.801	584.3
233.181	596.7
233.56	593.4
233.94	591.8
234.319	584.1
234.699	589
235.079	630.1
235.458	630.5
235.838	601.7
236.218	586
236.598	578.2
236.978	587.6
237.358	585.5
237.738	587.7
238.119	600.1
238.499	580.8
238.88	592.9
239.26	605.9
239.641	578.5
240.021	581.4
240.402	592.7
240.783	590.2
241.163	588.6
241.544	592.1
241.925	587.9
242.306	602.7
242.687	587
243.069	588.8
243.45	598.1
243.831	583.3
244.212	585.9
244.594	623.2
244.975	594.8
245.357	596.7
245.739	582.4
246.12	592
246.502	602.4
246.884	591.7
247.266	586.3
247.648	597.7
248.03	608.8
248.412	592
248.794	595.9
249.176	587.3
249.559	597
249.941	582.5
250.323	585
250.706	582.3
251.089	589.4
251.471	591.2
251.854	590.2
252.237	589.9
252.62	599.5
253.002	594.5
253.385	593.4
253.769	608.2
254.152	594.9
254.535	596.8
254.918	587
255.301	587.9
255.685	587
256.068	585.6
256.452	618.3
256.835	599.7
257.219	598.3
257.603	610.1
257.986	586.7
258.37	600.3
258.754	584.4
259.138	597.6
259.522	600.7
259.906	590.2
260.29	592.8
260.675	590.5
261.059	595.7
261.443	583.2
261.828	592.5
262.212	596.5
262.597	583.3
262.981	585.7
263.366	595.7
263.751	593.2
264.136	584.3
264.521	589.3
264.906	582.3
265.291	600.7
265.676	584.7
266.061	597.5
266.446	609.8
266.831	593.6
267.217	607.2
267.602	596.4
267.987	590.8
268.373	585.9
268.759	601.7
269.144	601.8
269.53	590.5
269.916	592.4
270.302	588.4
270.688	591
271.074	591.4
271.46	606.1
271.846	616.7
272.232	589.3
272.618	583
273.004	586.2
273.391	594.3
273.777	596.4
274.164	592.2
274.55	603.2
274.937	587
275.324	586.6
275.71	593.2
276.097	598.3
276.484	584.7
276.871	596.1
277.258	593
277.645	585.2
278.032	588.8
278.419	587.7
278.807	598.2
279.194	585.1
279.581	587.8
279.969	598.3
280.356	598.3
280.744	591.5
281.131	613.5
281.519	598.3
281.907	580
282.295	585.7
282.682	596.7
283.07	598.4
283.458	595.8
283.846	608.9
284.235	600.4
284.623	599.2
285.011	586.1
285.399	584.8
285.788	593.8
286.176	578.2
286.565	601.4
286.953	584.6
287.342	587.1
287.731	585
288.119	583.4
288.508	586.5
288.897	596.1
289.286	584.4
289.675	590.9
290.064	597.5
290.453	586.4
290.821	590.8
291.21	610.5
291.599	585.6
291.989	596
292.378	604.9
292.768	608
293.157	594.8
293.547	601.2
293.936	587.9
294.326	586.7
294.716	599.7
295.106	591.7
295.496	597.2
295.886	604.7
296.276	585.5
296.666	585.5
297.056	589.3
297.446	583.6
297.836	609.8
298.227	589.5
298.617	596.5
299.008	605.8
299.398	586.7
299.789	586.9
300.179	598.8
300.57	609.5
300.961	591.9
301.352	587.4
301.742	601
302.133	593.8
302.524	588
302.915	591.9
303.307	589
303.698	598
304.089	597.2
304.48	588.5
304.872	595.7
305.263	597.4
305.655	586
306.046	599.2
306.438	595.6
306.829	588
307.221	606.1
307.613	598.4
308.005	602.8
308.397	603
308.789	618.4
309.181	621.6
309.573	608.8
309.965	602.3
310.357	592.6
310.749	594.1
311.142	589.4
311.534	589.8
311.926	599.9
312.319	589.9
312.711	587.8
313.104	606.4
313.497	593.5
313.889	631
314.282	606.2
314.675	618.9
315.068	590.9
315.461	597.4
315.854	623.3
316.247	601.3
316.64	600.5
317.033	594.2
317.405	606.9
317.798	589
318.192	595.6
318.585	591.1
318.979	595
319.372	590.8
319.766	595.9
320.16	608.1
320.553	606.2
320.947	612.8
321.341	587.8
321.735	592.9
322.129	579.2
322.523	621.6
322.917	589.3
323.311	604.9
323.705	596.4
324.099	593.2
324.494	610.4
324.888	602.5
325.282	593.4
325.677	593
326.071	605.5
326.466	609.7
326.861	597
327.255	605.8
327.65	603.3
328.045	609.7
328.44	600.8
328.835	597.1
329.23	589.1
329.625	619.8
330.02	589.2
330.415	615.1
330.81	596
331.206	601.1
331.601	588.9
331.996	603.7
332.37	607.8
332.766	588
333.161	611.9
333.557	589
333.953	594.7
334.348	944.2
334.744	591.8
335.14	588
335.536	587.7
335.932	608.4
336.328	591.7
336.724	602
337.12	594.4
337.516	596.9
337.913	590.4
338.309	602.7
338.705	593
339.102	606.8
339.498	587.8
339.895	605.9
340.291	585.5
340.688	595.5
341.085	588
341.481	588.6
341.878	590.8
342.275	610.9
342.672	579.2
343.069	582.1
343.466	577
343.842	599.2
344.239	591.4
344.636	590
345.033	584.5
345.431	577.2
345.828	592.2
346.225	588.7
346.623	598.5
347.02	587.6
347.418	598.3
347.816	610.6
348.213	585.7
348.611	600.6
349.009	593.2
349.407	605.2
349.805	587.1
350.203	584.1
350.601	602.1
350.999	585.3
351.397	587.1
351.795	589.4
352.193	596.4
352.57	597.5
352.969	598.2
353.367	577.7
353.766	585.4
354.164	594.1
354.563	597.5
354.961	590.3
355.36	591.6
355.759	594.1
356.158	581
356.557	588.4
356.956	584.2
357.355	578.5
357.754	590.1
358.153	595.1
358.552	616.3
358.951	593
359.35	603.4
359.75	583
360.149	582.1
360.527	583.3
360.926	580.1
361.326	588.6
361.726	583.4
362.125	581.1
362.525	597.8
362.925	589
363.325	593.8
363.724	591.4
364.124	580.8
364.524	579.5
364.924	587.9
365.324	595
365.725	577.7
366.125	593.4
366.525	586.4
366.904	578.8
367.304	567.9
367.705	604.6
368.105	596.9
368.506	581.1
368.906	579.7
369.307	579
369.708	588.4
370.108	578.7
370.509	593.9
370.91	581.9
371.311	586
371.712	587.6
372.113	587.5
372.514	571.9
372.894	586.4
373.295	576.9
373.696	595.8
374.097	593.3
374.499	610.8
374.9	593
375.301	576
375.703	590.4
376.105	584.2
376.506	587
376.908	589.4
377.309	582.5
377.711	584.4
378.113	576
378.493	586.5
378.895	579.4
379.297	591.9
379.699	572.4
380.102	591.9
380.504	584.5
380.906	578.9
381.308	608.5
381.71	579.9
382.113	592.3
382.515	586
382.918	585.1
383.299	585.6
383.701	588.5
384.104	588.8
384.507	568.7
384.909	580.6
385.312	572.1
385.715	573.9
386.118	583.8
386.521	571.7
386.924	592.6
387.327	580.7
387.709	573.5
388.112	570.1
388.515	585.3
388.918	586.1
389.322	590.7
389.725	582.9
390.129	605.4
390.532	587.5
390.936	586.2
391.339	579.1
391.743	586.9
392.125	576.7
392.529	592.9
392.933	597.1
393.337	587
393.74	585
394.144	584.7
394.548	579.3
394.953	588.7
395.357	596.8
395.761	585.9
396.144	590.1
396.548	585.7
396.952	589
397.357	585.6
397.761	583
398.166	582.5
398.57	581.1
398.975	575.8
399.379	584
399.763	630.6
400.168	587
400.572	583.7
400.977	576.2
401.382	604.2
401.787	595.1
402.192	599.7
402.597	598.4
403.002	573.6
403.386	594.5
403.791	599.2
404.197	577.5
404.602	586.2
405.007	585.5
405.413	578.6
405.818	581.3
406.224	571.8
406.608	579.2
407.014	571.6
407.42	600.3
407.825	582.2
408.231	589.4
408.637	586.1
409.043	600.4
409.449	586.4
409.834	580.5
410.24	589.2
410.646	598.2
411.052	595.3
411.458	589.6
411.865	591.2
412.271	597.8
412.677	588.2
413.062	595.2
413.469	574.9
413.875	614.8
414.282	598.1
414.689	590.5
415.095	592.7
415.502	581.9
415.888	583.6
416.294	572.7
416.701	622.4
417.108	580.5
417.515	596.3
417.923	581.6
418.33	602.5
418.715	601.7
419.123	577.5
419.53	579.7
419.937	586.6
420.345	598.5
420.752	583.2
421.16	596.3
421.546	591.2
421.953	598.3
422.361	579.2
422.769	582.8
423.177	583.7
423.585	612.4
423.992	608.2
424.379	595.4
424.787	594.4
425.195	606.7
425.603	587.3
426.011	602.2
426.419	601.5
426.806	589.7
427.214	587.6
427.623	602.1
428.031	605.3
428.44	593.4
428.848	599.7
429.235	603.9
429.644	592.2
430.053	589.9
430.461	605
430.87	609.4
431.279	603.6
431.666	581
432.075	590.7
432.484	594.9
432.893	584.5
433.302	611.3
433.711	627.8
434.099	592.3
434.508	584.9
434.918	570.6
435.327	592.4
435.737	590.9
436.125	588.1
436.534	585.1
436.944	587.6
437.353	584.7
437.763	606.8
438.173	576.9
438.561	590.9
438.971	569.8
439.381	585.8
439.791	589.6
440.201	568.3
440.589	584.6
440.999	592.3
441.409	585.3
441.819	574.2
442.23	588.3
442.619	582.7
443.029	580.1
443.439	586.1
443.85	596.8
444.26	602.4
444.649	592.8
445.06	589.2
445.471	580.5
445.881	589.6
446.292	598.2
446.682	605.4
447.092	572.6
447.503	629.6
447.914	585.1
448.325	584.9
448.715	588.3
449.126	581.1
449.537	585.1
449.948	582.2
450.338	581.6
450.75	590.7
451.161	588.6
451.572	586.8
451.984	575.9
452.374	571.3
452.786	584.4
453.197	584.9
453.609	591.7
453.999	575.9
454.411	578.8
454.823	588.6
455.235	585.1
455.647	584.5
456.037	590.8
456.449	568.7
456.862	586.6
457.274	581.1
457.665	569.7
458.077	589.4
458.489	590.3
458.902	580.9
459.293	584.6
459.705	585.6
460.118	577.4
460.53	584.4
460.921	583.8
461.334	580.2
461.747	578.6
462.16	596.4
462.551	589.5
462.964	584.2
463.377	568.6
463.79	578.2
464.182	586.5
464.595	572.1
465.008	584.2
465.421	589.5
465.813	577.6
466.226	583.5
466.64	574.6
467.053	621.4
467.445	595.7
467.859	580.6
468.272	580.1
468.686	592.6
469.078	577.8
469.492	568.7
469.906	580.6
470.298	585.8
470.712	574.1
471.126	607.9
471.54	565.4
471.933	571.9
472.347	575.5
472.761	569.5
473.175	570.4
473.568	575.7
473.982	566.4
474.397	577.4
474.79	577.2
475.204	581.5
475.619	577.7
476.033	582.1
476.426	578.5
476.841	568.3
477.256	599.7
477.649	570.2
478.064	568
478.479	575.6
478.872	571.9
479.287	562.4
479.702	569.2
480.118	575.8
480.511	576.3
480.927	560.9
481.342	576.6
481.736	575.5
482.151	571.8
482.566	589.9
482.96	581.7
483.376	583.5
483.792	574
484.186	585.2
484.602	574.5
485.017	576.6
485.412	575.7
485.827	579
486.243	580.7
486.638	602
487.054	585.5
487.47	590.4
487.865	571.1
488.281	574.8
488.697	572.6
489.092	579.1
489.508	571.9
489.925	586.6
490.32	570.9
490.736	583.3
491.153	583.7
491.548	583.1
491.964	590.2
492.381	564.6
492.776	583.1
493.193	576.9
493.61	584.8
494.006	576.6
494.422	582.5
494.84	568.5
495.235	582.9
495.652	576.7
496.069	577.8
496.465	570.5
496.883	579.4
497.3	597.2
497.696	567.9
498.113	586.5
498.509	567.7
498.927	563
499.344	567.7
499.741	568.5
500.158	577.4
500.576	586.8
500.973	573.2
501.39	568.5
501.787	566.9
502.205	573.1
502.623	570.4
503.02	567
503.438	573
503.856	573.4
504.253	576.1
504.671	582.5
505.068	573.7
505.486	571.4
505.905	591.7
506.302	576.2
506.72	583.4
507.118	564.8
507.536	568.8
507.955	566.7
508.352	577.6
508.771	580
509.169	580.7
509.587	563.3
510.006	574.4
510.404	563.3
510.823	570.5
511.221	573.5
511.64	573.3
512.038	583.6
512.457	570.5
512.877	573.6
513.275	575.9
513.694	575.7
514.092	573.2
514.512	576.4
514.91	569.7
515.33	577.3
515.749	579.7
516.148	581.9
516.568	574.1
516.966	574
517.386	572.2
517.785	572.9
518.205	574.1
518.603	564.9
519.024	574.9
519.444	577.2
519.843	582.7
520.263	581.5
520.662	575.1
521.082	572.8
521.481	575
521.902	571.7
522.301	574
522.722	580.9
523.121	571.8
523.542	575
523.963	577.1
524.362	574.1
524.783	576.5
525.183	570.2
525.604	573.7
526.003	571.9
526.425	567
526.824	576.3
527.246	582.4
527.646	582.2
528.067	569.3
528.467	570.4
528.888	576.6
529.289	579.7
529.71	568.4
530.11	570.7
530.532	570.8
530.932	566.2
531.354	564.7
531.755	604.1
532.176	575.2
532.577	570.5
532.999	569.7
533.4	566
533.822	575.1
534.223	571.1
534.645	569.3
535.046	565.4
535.468	576.3
535.869	586.7
536.292	566.7
536.693	566.8
537.115	579.4
537.516	566.9
537.939	569.3
538.34	589.9
538.742	584.7
539.165	570.6
539.566	572.2
539.989	564.8
540.391	572.5
540.814	572.7
541.216	572
541.639	574.8
542.041	579.2
542.464	569.6
542.866	563.9
543.268	561.4
543.691	577.1
544.093	581.4
544.517	591.6
544.919	562.7
545.343	594.1
545.745	565.3
546.147	574.7
546.571	572.8
546.974	567.7
547.398	572
547.8	589
548.224	574.9
548.627	561.7
549.03	581
549.454	561.4
549.857	554.5
550.281	559.7
550.684	567.5
551.087	584.1
551.512	573.5
551.915	577.5
552.34	573.4
552.743	569.5
553.146	572.8
553.571	566.3
553.975	590.7
554.399	561.3
554.803	614.2
555.207	569
555.632	563
556.036	577.3
556.461	560.4
556.865	571.5
557.268	556.5
557.694	566
558.098	571.6
558.502	572.5
558.927	568
559.332	565.4
559.736	566.7
560.162	572.6
560.566	567.7
560.992	570.9
561.396	565.5
561.801	569.7
562.227	574.3
562.631	567
563.036	571.5
563.462	579.3
563.867	573.7
564.272	556.7
564.698	573.9
565.103	562.6
565.508	589.5
565.935	572.3
566.34	571.3
566.745	577.8
567.172	568.5
567.577	586.6
567.982	587
568.409	572.2
568.815	562.5
569.22	571.2
569.626	575.3
570.053	560.7
570.459	572
570.865	573.3
571.292	574.2
571.698	571.6
572.104	554.2
572.531	565.2
572.937	582.6
573.343	564.9
573.75	573.1
574.177	570.2
574.583	572.8
574.99	570.2
575.396	576.3
575.824	560.7
576.231	574.8
576.637	566.4
577.065	595.1
577.472	568.8
577.879	568.3
578.286	583.2
578.714	563.2
579.121	567.7
579.528	572.1
579.935	576.2
580.364	568.2
580.771	554.1
581.178	564.1
581.585	566.6
582.014	569.7
582.421	565
582.829	566.4
583.236	579.3
583.644	564.1
584.073	570
584.481	568.6
584.889	563.4
585.296	574.5
585.726	570.9
586.134	569.6
586.542	566.4
586.95	589
587.358	557.7
587.787	572.8
588.196	562.5
588.604	568
589.012	573.7
589.421	560.8
589.851	563.5
590.259	571.6
590.668	567
591.076	608.5
591.485	557.4
591.894	566.1
592.324	579.2
592.733	580.2
593.142	550.7
593.551	567.3
593.96	601.2
594.369	559.9
594.8	561.4
595.209	572.7
595.618	550.9
596.028	564.6
596.437	565.9
596.847	570.9
597.256	569.5
597.687	571.2
598.097	565.3
598.507	564.2
598.917	569.9
599.327	570.1
599.736	569.9
600.146	576.8
600.556	566.5
600.988	574.8
601.398	566.9
601.808	581
602.219	558.6
602.629	569.3
603.039	566.5
603.45	588.2
603.86	570.6
604.271	584.9
604.703	575.3
605.114	566.1
605.525	567.1
605.935	578.2
606.346	588.4
606.757	574
607.168	560.8
607.579	563.7
607.99	579.5
608.402	568.9
608.813	573.2
609.224	562.8
609.636	560.5
610.047	558.3
610.48	571.2
610.892	573.9
611.303	574.2
611.715	565
612.127	556.5
612.539	563.4
612.95	571.8
613.362	555.4
613.774	558.9
614.186	565.1
614.599	564.7
615.011	573.5
615.423	556.5
615.835	561
616.248	563.2
616.66	569.4
617.073	555.7
617.485	565.4
617.898	576.8
618.311	574.1
618.723	567.3
619.136	600.1
619.549	582.4
619.962	582.7
620.375	561.1
620.788	572.1
621.201	561.5
621.614	574.7
622.028	567.7
622.441	573
622.854	576.1
623.268	562.3
623.681	571.4
624.095	569.3
624.509	572.5
624.922	573.5
625.336	553.9
625.728	571.1
626.142	577.3
626.556	585.8
626.97	567.6
627.384	559
627.799	567.2
628.213	575.2
628.627	565.6
629.041	557.7
629.456	563.6
629.87	570.4
630.285	572.5
630.699	571.8
631.093	563.4
631.507	567.8
631.922	572.8
632.337	582.8
632.752	558.7
633.167	566.4
633.582	564.4
633.997	561.2
634.412	565.8
634.806	570.4
635.221	558.2
635.637	573.5
636.052	554.1
636.468	567.8
636.883	581.4
637.299	563.4
637.715	554.2
638.109	565.3
638.525	551.6
638.941	577.2
639.357	569.3
639.773	573.2
640.189	559.5
640.584	560.8
641	572.5
641.416	561.8
641.832	566.3
642.249	564.3
642.665	568.8
643.06	572.2
643.477	575.1
643.894	561.1
644.31	565.3
644.727	566.2
645.123	565.4
645.54	555.5
645.957	572
646.374	571.7
646.77	567.5
647.187	591.3
647.604	567.4
648.021	555.1
648.439	559.5
648.835	570.2
649.252	570.6
649.67	567.3
650.088	566.7
650.484	572.7
650.902	571.3
651.32	574.5
651.738	565.9
652.134	564.9
652.552	580.5
652.971	570.8
653.389	562.8
653.786	569.9
654.204	570.6
654.622	560.4
655.019	563.1
655.438	567.6
655.857	563.7
656.275	565.1
656.673	557.6
657.091	627.3
657.51	558.9
657.908	570.2
658.327	581.5
658.746	553.4
659.144	564.9
659.563	578
659.982	569.3
660.38	558.5
660.8	566.8
661.219	582.7
661.617	568
662.037	564.3
662.457	577.4
662.855	553.2
663.275	591.4
663.695	569.5
664.094	563.6
664.514	565.8
664.934	557
665.333	572.6
665.753	564.2
666.152	552.8
666.572	560.4
666.993	576
667.392	562.7
667.812	568.1
668.212	562.7
668.632	579
669.053	557.8
669.453	571.7
669.874	567.8
670.273	566.3
670.694	562
671.116	574
671.515	571.9
671.937	563.7
672.337	564.5
672.758	559
673.158	576.7
673.58	559.9
673.98	569.7
674.402	580.4
674.824	563.2
675.224	561
675.646	556.7
676.047	561.8
676.469	562.4
676.869	574.8
677.292	567.7
677.693	567.2
678.115	560.2
678.516	569.6
678.939	567.7
679.34	562.5
679.762	574.3
680.164	573.7
680.586	559.3
680.988	569.7
681.411	586.8
681.812	560.3
682.236	562.3
682.637	558.7
683.061	558.4
683.462	571.1
683.864	559.7
684.288	566.7
684.69	556.1
685.114	568.6
685.516	573.7
685.94	555
686.342	566.9
686.766	554.9
687.168	555.9
687.571	581.6
687.995	565.7
688.398	559.8
688.822	563.8
689.225	585.7
689.628	585.4
690.052	565.1
690.456	570.3
690.88	563.5
691.284	555
691.687	566.1
692.112	548.5
692.515	556.7
692.919	565.2
693.344	565.2
693.747	562
694.173	555.6
694.577	576.4
694.98	565.4
695.406	559.1
695.81	568.9
696.214	569.6
696.64	563.1
697.044	560.9
697.448	572.2
697.874	565.9
698.279	565.6
698.684	551.5
699.11	559
699.514	563.3
699.919	559.8
700.324	555.9
700.75	562
701.156	563.3
701.561	572
701.987	567.9
702.393	576.9
702.798	574.7
703.203	566.1
703.63	557.8
704.036	558.2
704.442	562.3
704.847	550.2
705.274	560.1
705.68	569.3
706.086	571.5
706.492	553.9
706.92	567.7
707.326	572.1
707.732	562
708.139	554.5
708.545	556.8
708.973	553.7
709.38	567.2
709.786	551.2
710.193	572.5
710.6	566.3
711.028	555.9
711.435	559.5
711.842	559.4
712.249	562.5
712.656	562.4
713.064	561.7
713.492	552.1
713.9	562.4
714.307	564.7
714.715	567
715.123	567.1
715.53	564.1
715.938	566.4
716.367	564.6
716.775	555.7
717.184	557.4
717.592	567
718	572.4
718.408	601.8
718.816	605.8
719.225	561.5
719.633	558.6
720.042	554.9
720.472	564
720.881	580.5
721.29	568.2
721.699	552.1
722.108	564.3
722.517	563.8
722.926	563.2
723.335	572.5
723.744	560.7
724.154	559
724.563	556.6
724.973	561.9
725.382	560.7
725.792	560.7
726.202	552
726.612	571.6
727.022	561.5
727.432	558.2
779.813	557.9
780.223	605.4
780.634	561.5
781.044	559
781.454	561.9
781.865	577.3
782.276	555.9
782.686	571
783.097	564.4
783.508	553.3
783.919	563.6
784.33	574.5
784.741	574.2
785.152	558.1
785.563	549.7
785.974	561.8
786.386	570.9
786.776	565.9
787.188	563.2
787.599	553.3
788.011	564
788.423	566
788.835	560.5
789.247	557.4
789.659	559.9
790.071	564.4
790.483	598.3
790.874	562.6
791.286	566.9
791.699	554.9
792.111	566.9
792.524	564.3
792.937	558.9
793.349	555.9
793.741	556.3
794.154	559.3
794.567	581.2
794.98	560
795.393	554.3
795.785	576.5
796.198	558.7
796.612	558.2
797.026	554.9
797.439	549.2
797.831	557
798.245	549.4
798.659	557.5
799.073	565.6
799.487	554.5
799.88	559.2
800.294	557.6
800.708	565.1
801.123	562.5
801.516	577.1
801.93	552.4
802.345	544.9
802.76	558.4
803.153	569.3
803.568	572.5
803.983	568.4
804.377	561
804.792	544.8
805.207	551
805.601	561.5
806.016	588.5
806.432	551
806.826	595.5
807.242	577.5
807.658	565.1
808.052	554.3
808.468	556.4
808.884	554.7
809.279	559.1
809.695	575.5
810.111	579.1
810.506	561.5
810.922	569.8
811.339	557.9
811.734	568.6
812.151	548.5
812.546	551.6
812.963	552.8
813.38	565.4
813.776	555.9
814.193	583.6
814.589	555.1
815.006	559.3
815.402	551.3
815.82	553
816.237	561.3
816.633	561.9
817.051	549.2
817.448	560.8
817.866	547.2
818.262	579.2
818.68	557.8
819.077	556.2
819.495	560.8
819.892	599.4
820.311	556
820.708	556.2
821.127	552.2
821.524	568.9
821.943	552.6
822.34	579.3
822.759	564.5
823.157	554.1
823.576	577.9
823.974	569.9
824.393	570.5
824.791	555.4
825.189	550.9
825.609	563.5
826.007	565.5
826.427	548.1
826.826	556.8
827.246	562.8
827.644	553.2
828.043	568.6
828.463	553.6
828.862	568.6
829.261	566.1
829.682	550.5
830.081	569.4
830.502	557.9
830.901	559.3
831.301	553.2
831.722	545.6
832.121	561.3
832.521	557.9
832.943	558.5
833.342	560.2
833.742	549.1
834.164	552
834.564	551.4
834.965	556.5
835.386	555
835.787	556.9
836.188	559.4
836.588	557.6
837.01	563
837.411	553.3
837.812	563.1
838.213	562.5
838.636	554.8
839.037	629.8
839.438	560.3
839.84	567.6
840.263	564.3
840.664	560.6
841.066	555.8
841.468	563.5
841.891	552.9
842.293	571
842.695	563.5
843.098	571.1
843.5	556.1
843.902	566.1
844.326	566.4
844.729	559.6
845.131	570
845.534	563.8
845.937	567.3
846.34	574.8
846.764	549.5
847.167	554.7
847.571	543.6
