#lambda/nm	C1
208.295	483.6
208.67	449.7
209.045	408.2
209.419	411.9
209.794	597
210.169	575.4
210.544	686.2
210.919	591.9
211.295	576.8
211.67	593
212.045	584.2
212.421	587.8
212.796	615.2
213.172	575.6
213.547	582.4
213.923	586.1
214.299	580.8
214.675	596
215.051	583.5
215.427	588.6
215.803	607.7
216.179	592.2
216.555	578.7
216.932	593.4
217.308	582.2
217.684	582.3
218.061	590.2
218.438	589
218.814	579.2
219.191	592.5
219.568	579
219.945	576.2
220.322	589.6
220.699	585.1
221.076	596
221.453	590.6
221.83	575.9
222.208	581.4
222.585	581.5
222.962	588.4
223.34	593
223.717	587.1
224.095	580.2
224.473	582.1
224.851	579.9
225.229	574.9
225.607	598.9
225.985	575.3
226.363	591.6
226.741	587.9
227.119	583.5
227.497	595.5
227.876	571.5
228.254	592.9
228.633	592.4
229.011	583.7
229.39	592.1
229.769	590.1
230.148	594.5
230.527	608
230.905	586.4
231.284	585.6
231.664	580.5
232.043	598
232.422	585.6
232.801	578.5
233.181	590.3
233.56	586
233.94	587.9
234.319	572.5
234.699	578.6
235.079	616.4
235.458	617
235.838	602.8
236.218	572.2
236.598	575.6
236.978	577.5
237.358	578.3
237.738	584.7
238.119	591.3
238.499	580.3
238.88	585.1
239.26	600.5
239.641	577.4
240.021	579.6
240.402	583.3
240.783	580.5
241.163	577.4
241.544	589.3
241.925	581.5
242.306	600
242.687	579.9
243.069	585.5
243.45	590.6
243.831	579.6
244.212	577.5
244.594	615
244.975	594.8
245.357	584.3
245.739	575.3
246.12	583.1
246.502	600.2
246.884	582.7
247.266	584.9
247.648	588
248.03	604.4
248.412	588.7
248.794	585.9
249.176	577.5
249.559	597.5
249.941	579.9
250.323	580.1
250.706	583
251.089	589.8
251.471	595.9
251.854	586
252.237	583.6
252.62	593.8
253.002	584.5
253.385	583.9
253.769	599.5
254.152	587.2
254.535	591.9
254.918	580.6
255.301	590.5
255.685	581.4
256.068	578.4
256.452	603.2
256.835	589
257.219	589.4
257.603	593.8
257.986	572.2
258.37	592
258.754	574.1
259.138	595.4
259.522	600.7
259.906	589.4
260.29	584
260.675	586.9
261.059	587.6
261.443	571.3
261.828	592.2
262.212	591.7
262.597	571.6
262.981	579.3
263.366	596.3
263.751	584.8
264.136	584.5
264.521	587.8
264.906	581.8
265.291	595.6
265.676	589.9
266.061	594.6
266.446	609.2
266.831	594
267.217	606.6
267.602	589.6
267.987	589.2
268.373	583.6
268.759	594.1
269.144	593.7
269.53	582.8
269.916	583.3
270.302	585.6
270.688	592.6
271.074	588.8
271.46	597.1
271.846	619.4
272.232	584.7
272.618	577.5
273.004	583.3
273.391	588.9
273.777	596.7
274.164	588.9
274.55	600.2
274.937	585.9
275.324	581.5
275.71	588.6
276.097	589.5
276.484	582.5
276.871	593.5
277.258	594.1
277.645	576
278.032	588.8
278.419	579.6
278.807	589.4
279.194	581.6
279.581	585.1
279.969	595.5
280.356	584.1
280.744	589.6
281.131	605.7
281.519	597.6
281.907	587
282.295	584
282.682	596.4
283.07	588.7
283.458	597.7
283.846	593.8
284.235	599
284.623	595.2
285.011	577.2
285.399	585.3
285.788	582.5
286.176	580.1
286.565	591.1
286.953	586.4
287.342	580.6
287.731	580.8
288.119	573
288.508	583.1
288.897	586.7
289.286	575.5
289.675	592.9
290.064	592.5
290.453	584.6
290.821	584.7
291.21	602.1
291.599	581.5
291.989	590.7
292.378	596.1
292.768	603.7
293.157	591.6
293.547	597
293.936	585.6
294.326	580.1
294.716	586.3
295.106	580.3
295.496	589.9
295.886	597.9
296.276	585.9
296.666	581.8
297.056	580
297.446	575.9
297.836	610.8
298.227	582.2
298.617	587.2
299.008	597.6
299.398	587.6
299.789	579.3
300.179	591.1
300.57	603.6
300.961	585.9
301.352	585.3
301.742	595.6
302.133	590.7
302.524	587.8
302.915	588.2
303.307	580.8
303.698	590.9
304.089	600.2
304.48	585.4
304.872	590.6
305.263	587.6
305.655	579.7
306.046	594.7
306.438	591.9
306.829	583.6
307.221	605.5
307.613	591.1
308.005	601.9
308.397	601.2
308.789	609.9
309.181	616.1
309.573	603.7
309.965	600.9
310.357	585.4
310.749	589.3
311.142	583.7
311.534	587
311.926	592.8
312.319	590.9
312.711	584.3
313.104	589.5
313.497	588.2
313.889	622.8
314.282	607.7
314.675	612.7
315.068	592.9
315.461	592.4
315.854	616.4
316.247	594
316.64	587
317.033	592.1
317.405	595.9
317.798	589.3
318.192	588.6
318.585	578.6
318.979	593.7
319.372	585.3
319.766	588.2
320.16	598.9
320.553	605.1
320.947	607
321.341	577.7
321.735	587
322.129	578.3
322.523	608.8
322.917	576.5
323.311	597.7
323.705	586.7
324.099	588.1
324.494	605.6
324.888	594.3
325.282	586.9
325.677	588.5
326.071	593.3
326.466	600.3
326.861	592.4
327.255	600.4
327.65	602
328.045	604.4
328.44	592.2
328.835	586.6
329.23	579.7
329.625	610.5
330.02	589.4
330.415	605
330.81	593.8
331.206	593
331.601	580.9
331.996	594.3
332.37	601.3
332.766	584.6
333.161	610.6
333.557	584.4
333.953	588.6
334.348	1008.6
334.744	586.6
335.14	580.7
335.536	588.7
335.932	598.1
336.328	587.4
336.724	597.4
337.12	586.8
337.516	585.9
337.913	586.9
338.309	603.1
338.705	590.9
339.102	595.2
339.498	583.8
339.895	599.8
340.291	588.5
340.688	595.1
341.085	584.6
341.481	586.1
341.878	587.7
342.275	604.3
342.672	581.4
343.069	580
343.466	576.5
343.842	596.6
344.239	580.3
344.636	588.2
345.033	582.8
345.431	584.3
345.828	591.1
346.225	581
346.623	598.7
347.02	594.5
347.418	599.7
347.816	599.2
348.213	575.9
348.611	587.1
349.009	576
349.407	597.9
349.805	574.4
350.203	576.6
350.601	599.7
350.999	583.7
351.397	587
351.795	581.7
352.193	592.6
352.57	584.3
352.969	596.7
353.367	579.4
353.766	584.3
354.164	583.9
354.563	596.2
354.961	591.9
355.36	585.3
355.759	588.3
356.158	577.3
356.557	582.2
356.956	576.8
357.355	574.8
357.754	584.7
358.153	590.9
358.552	611.6
358.951	585.9
359.35	597.2
359.75	580.2
360.149	570.8
360.527	570.7
360.926	575.2
361.326	590.5
361.726	583.9
362.125	579.3
362.525	589.2
362.925	583.2
363.325	580.6
363.724	581.1
364.124	577.2
364.524	576.9
364.924	580.9
365.324	591.5
365.725	566.3
366.125	588
366.525	578.8
366.904	580.6
367.304	561.5
367.705	597.1
368.105	599
368.506	584.7
368.906	582.9
369.307	580.9
369.708	585.5
370.108	570.5
370.509	592.8
370.91	574.2
371.311	582.2
371.712	583.3
372.113	581.1
372.514	575.6
372.894	584.1
373.295	576.9
373.696	592.4
374.097	590.7
374.499	609.3
374.9	584.3
375.301	576.4
375.703	583
376.105	575.4
376.506	585.9
376.908	585.2
377.309	582.4
377.711	582.1
378.113	571.9
378.493	580.4
378.895	577.2
379.297	585.9
379.699	572
380.102	584.1
380.504	576
380.906	572.9
381.308	606.7
381.71	579.6
382.113	585.2
382.515	578
382.918	584.8
383.299	581.5
383.701	588.5
384.104	578.4
384.507	560.3
384.909	572.2
385.312	570.4
385.715	568.9
386.118	574.8
386.521	567.1
386.924	591.2
387.327	573.2
387.709	557.9
388.112	564
388.515	571.4
388.918	573.6
389.322	581.1
389.725	581
390.129	601.3
390.532	582.3
390.936	571.7
391.339	571.3
391.743	577.5
392.125	569.9
392.529	583.5
392.933	591.6
393.337	581.2
393.74	580.7
394.144	576.2
394.548	572.3
394.953	583.7
395.357	586.2
395.761	577.2
396.144	577.1
396.548	575.5
396.952	580.4
397.357	578.9
397.761	576.6
398.166	581.1
398.57	576.4
398.975	563.3
399.379	584
399.763	631.2
400.168	578
400.572	575.8
400.977	581.2
401.382	598.4
401.787	587.6
402.192	595.8
402.597	592.3
403.002	566.9
403.386	586.6
403.791	597.8
404.197	576
404.602	578.9
405.007	578.8
405.413	576.1
405.818	574.3
406.224	567.2
406.608	575.6
407.014	572.3
407.42	598.4
407.825	578
408.231	588.6
408.637	579.8
409.043	594.2
409.449	574.7
409.834	571.9
410.24	575.3
410.646	595.8
411.052	596
411.458	586.3
411.865	578.6
412.271	588.7
412.677	581.4
413.062	586.8
413.469	566.6
413.875	610.8
414.282	592.8
414.689	579.7
415.095	590.1
415.502	565.3
415.888	582.6
416.294	568.7
416.701	615.8
417.108	567.4
417.515	584.6
417.923	572.3
418.33	597.8
418.715	589
419.123	580.7
419.53	577.2
419.937	583.6
420.345	596.6
420.752	577.1
421.16	592.6
421.546	580.9
421.953	591.4
422.361	573
422.769	586.7
423.177	578.6
423.585	603.7
423.992	602.8
424.379	593.4
424.787	589.2
425.195	601.6
425.603	581.1
426.011	588
426.419	593.2
426.806	577
427.214	586.1
427.623	592.3
428.031	596.2
428.44	589
428.848	591.8
429.235	595.3
429.644	585.9
430.053	578.8
430.461	598.7
430.87	607.2
431.279	593.8
431.666	573.4
432.075	582.7
432.484	590.7
432.893	582
433.302	600.8
433.711	618.5
434.099	588.8
434.508	583.8
434.918	575.3
435.327	591.7
435.737	584.1
436.125	581.8
436.534	582.3
436.944	583.4
437.353	583.2
437.763	607
438.173	574
438.561	592.6
438.971	565.4
439.381	580.6
439.791	586.3
440.201	561.4
440.589	588.2
440.999	584.8
441.409	576.8
441.819	565.7
442.23	584.2
442.619	581.8
443.029	576.5
443.439	576.1
443.85	593.7
444.26	592.2
444.649	588
445.06	582.7
445.471	576.9
445.881	577.5
446.292	592.2
446.682	593.1
447.092	565.6
447.503	628.3
447.914	577.2
448.325	581.1
448.715	581.4
449.126	569.6
449.537	579.6
449.948	581.7
450.338	581.6
450.75	586.8
451.161	577.3
451.572	584.3
451.984	569.5
452.374	561.5
452.786	582.4
453.197	585.6
453.609	582.8
453.999	565.9
454.411	570.2
454.823	583.8
455.235	582.7
455.647	575
456.037	586.4
456.449	565.2
456.862	580.2
457.274	575.9
457.665	568.8
458.077	580.2
458.489	588.3
458.902	571.6
459.293	577.1
459.705	580.7
460.118	573
460.53	580
460.921	575.1
461.334	574.3
461.747	575.5
462.16	590.4
462.551	593
462.964	579.6
463.377	566.6
463.79	578.2
464.182	584.2
464.595	570.1
465.008	577.4
465.421	577.9
465.813	575.1
466.226	575.3
466.64	568.6
467.053	622.5
467.445	584.7
467.859	581.4
468.272	579.7
468.686	589.4
469.078	576.1
469.492	563.2
469.906	578.9
470.298	579.4
470.712	570
471.126	603.7
471.54	562
471.933	570.4
472.347	577.1
472.761	570.2
473.175	562
473.568	569.1
473.982	558.9
474.397	569.6
474.79	568.7
475.204	579.6
475.619	570.7
476.033	574.8
476.426	572.9
476.841	563.2
477.256	595.6
477.649	568.8
478.064	566.7
478.479	563.2
478.872	567.4
479.287	559.9
479.702	561.6
480.118	571.6
480.511	563.4
480.927	563.6
481.342	569.3
481.736	574.9
482.151	570.3
482.566	583.6
482.96	576.5
483.376	584.7
483.792	567.4
484.186	579.1
484.602	570.3
485.017	575.3
485.412	572.6
485.827	574.5
486.243	573.5
486.638	588
487.054	578.6
487.47	585.5
487.865	566
488.281	566.4
488.697	563.3
489.092	570.7
489.508	565.7
489.925	584.1
490.32	562.7
490.736	577.3
491.153	571.7
491.548	575.5
491.964	582.8
492.381	557.4
492.776	579.2
493.193	571.1
493.61	579
494.006	568.7
494.422	578.9
494.84	564.7
495.235	581.2
495.652	571.1
496.069	572.7
496.465	563.4
496.883	572.2
497.3	591.4
497.696	564.2
498.113	578.2
498.509	561.8
498.927	557
499.344	568
499.741	562.7
500.158	579.5
500.576	578.4
500.973	573.2
501.39	567.3
501.787	565.3
502.205	572.4
502.623	562.1
503.02	558.3
503.438	568.6
503.856	567.7
504.253	579.9
504.671	569.7
505.068	566
505.486	563.8
505.905	583.6
506.302	566.9
506.72	579.2
507.118	566.3
507.536	567.4
507.955	567
508.352	573
508.771	573.9
509.169	577
509.587	566.1
510.006	576.5
510.404	565.7
510.823	564.4
511.221	566.9
511.64	564
512.038	577.2
512.457	571.1
512.877	567.9
513.275	558.4
513.694	565.5
514.092	560.6
514.512	568.7
514.91	565.5
515.33	565.4
515.749	571.2
516.148	572
516.568	574
516.966	564.2
517.386	563.1
517.785	561.7
518.205	564.9
518.603	563.5
519.024	567.2
519.444	567.1
519.843	576.5
520.263	573
520.662	569.4
521.082	567.1
521.481	568.8
521.902	561.6
522.301	575.4
522.722	576.7
523.121	566.4
523.542	561
523.963	566.2
524.362	574.1
524.783	571.3
525.183	562.4
525.604	571.3
526.003	565.3
526.425	560.4
526.824	574.7
527.246	572.3
527.646	574.4
528.067	570.7
528.467	570.1
528.888	568.5
529.289	563.8
529.71	571.4
530.11	561.7
530.532	565.5
530.932	557.5
531.354	560.3
531.755	601
532.176	576.8
532.577	563.9
532.999	569.4
533.4	563.3
533.822	577.9
534.223	563.2
534.645	564
535.046	565.8
535.468	570.5
535.869	580.8
536.292	560.1
536.693	564.5
537.115	567.9
537.516	562.6
537.939	562.2
538.34	580.6
538.742	580.3
539.165	569.3
539.566	565.4
539.989	562.7
540.391	556.1
540.814	566.7
541.216	566.3
541.639	566.9
542.041	577.8
542.464	568.3
542.866	564.6
543.268	556.5
543.691	570.4
544.093	573
544.517	585.8
544.919	555.5
545.343	589.5
545.745	560.5
546.147	573.8
546.571	560.5
546.974	554.2
547.398	569
547.8	580.4
548.224	568.4
548.627	562.2
549.03	575.1
549.454	559.4
549.857	557.5
550.281	564.1
550.684	566.4
551.087	577.8
551.512	572.4
551.915	573.3
552.34	565.4
552.743	562.6
553.146	568.6
553.571	566.9
553.975	585.6
554.399	560.4
554.803	608.8
555.207	563.2
555.632	564.3
556.036	563
556.461	556.6
556.865	569.1
557.268	557.7
557.694	565.4
558.098	568
558.502	564.1
558.927	564.1
559.332	566.5
559.736	565.5
560.162	571.2
560.566	561.4
560.992	571.4
561.396	572
561.801	565.4
562.227	568.3
562.631	565.1
563.036	568.1
563.462	573
563.867	565.6
564.272	559.8
564.698	573.1
565.103	550.9
565.508	579.9
565.935	571.5
566.34	563.5
566.745	577.5
567.172	561.3
567.577	584.2
567.982	580.8
568.409	564.1
568.815	555.7
569.22	567.4
569.626	570.9
570.053	554.7
570.459	567.3
570.865	568.4
571.292	571.3
571.698	565.6
572.104	552.7
572.531	566.8
572.937	568.2
573.343	561.9
573.75	561.2
574.177	570
574.583	572.4
574.99	565.5
575.396	564.5
575.824	564.9
576.231	569.5
576.637	564.8
577.065	591.8
577.472	559.6
577.879	564.9
578.286	581.8
578.714	556.5
579.121	557.7
579.528	574
579.935	572.4
580.364	563
580.771	546.4
581.178	557
581.585	572.1
582.014	565.5
582.421	566.5
582.829	561
583.236	567.2
583.644	561.7
584.073	559.7
584.481	567.1
584.889	559.7
585.296	563.6
585.726	568.2
586.134	558
586.542	565.5
586.95	582.5
587.358	553.3
587.787	564.8
588.196	556.7
588.604	559.3
589.012	561.1
589.421	559.8
589.851	552.5
590.259	571.2
590.668	567
591.076	599.3
591.485	557.7
591.894	557
592.324	578.2
592.733	573.5
593.142	552.6
593.551	565.6
593.96	593.1
594.369	558.8
594.8	560.9
595.209	556.8
595.618	548.3
596.028	559.5
596.437	550.8
596.847	560.9
597.256	564.6
597.687	563.7
598.097	558.5
598.507	553.7
598.917	566.1
599.327	569.6
599.736	565
600.146	569.9
600.556	566
600.988	577.3
601.398	559.1
601.808	575.9
602.219	555.5
602.629	559
603.039	564.8
603.45	585.3
603.86	570.1
604.271	577.8
604.703	564.4
605.114	560.9
605.525	562.1
605.935	566.8
606.346	585.8
606.757	571
607.168	562.9
607.579	556.3
607.99	569.8
608.402	569.6
608.813	564.3
609.224	560.1
609.636	553.4
610.047	558.3
610.48	562.2
610.892	565.7
611.303	572.4
611.715	559.7
612.127	559.4
612.539	558.3
612.95	569
613.362	551.3
613.774	554.5
614.186	556.1
614.599	558.4
615.011	567.5
615.423	554.9
615.835	560.1
616.248	548
616.66	565.3
617.073	548.7
617.485	556.6
617.898	567.2
618.311	560.7
618.723	562.5
619.136	588.8
619.549	578.1
619.962	580.3
620.375	559.1
620.788	562.8
621.201	559.8
621.614	566.4
622.028	555.6
622.441	566.3
622.854	577.1
623.268	556.9
623.681	565.9
624.095	564.7
624.509	569.7
624.922	568.6
625.336	552.7
625.728	566.1
626.142	570
626.556	580.8
626.97	575.1
627.384	551.2
627.799	560.2
628.213	571.1
628.627	560.2
629.041	553
629.456	556.4
629.87	558.3
630.285	568.1
630.699	567.4
631.093	558.6
631.507	565.3
631.922	568.6
632.337	573.6
632.752	556.7
633.167	565.2
633.582	556.6
633.997	561.1
634.412	554.9
634.806	559.5
635.221	550
635.637	569.8
636.052	552.1
636.468	562.5
636.883	577.3
637.299	555.6
637.715	550.4
638.109	555.4
638.525	550.4
638.941	574.5
639.357	563.2
639.773	576.3
640.189	554.3
640.584	558
641	562.3
641.416	548.6
641.832	559.1
642.249	561.6
642.665	563.8
643.06	566.2
643.477	569.8
643.894	548.6
644.31	563
644.727	556.7
645.123	560.4
645.54	557.9
645.957	560.1
646.374	566.7
646.77	565.7
647.187	587.8
647.604	561
648.021	547.5
648.439	554.7
648.835	565.6
649.252	561.5
649.67	563.3
650.088	556.6
650.484	559.9
650.902	560.7
651.32	563.2
651.738	554.9
652.134	563.7
652.552	577.2
652.971	565.5
653.389	559.4
653.786	572
654.204	560.4
654.622	556.2
655.019	560.7
655.438	561.4
655.857	561.7
656.275	560.6
656.673	560.7
657.091	628.3
657.51	558.8
657.908	569.8
658.327	576.5
658.746	555.6
659.144	560.3
659.563	576.7
659.982	561
660.38	557.7
660.8	564.1
661.219	571.3
661.617	566.7
662.037	559.5
662.457	568.7
662.855	549.2
663.275	587.9
663.695	557.3
664.094	559.3
664.514	562.2
664.934	558
665.333	567
665.753	557.3
666.152	550.8
666.572	553.2
666.993	573.3
667.392	557.1
667.812	562.9
668.212	555
668.632	565.9
669.053	559.9
669.453	566.5
669.874	560.9
670.273	559.8
670.694	549.9
671.116	571
671.515	572
671.937	555.7
672.337	557
672.758	558.3
673.158	566.2
673.58	550.6
673.98	562.2
674.402	571.6
674.824	558.8
675.224	555.5
675.646	552.6
676.047	555.8
676.469	557.6
676.869	563.6
677.292	556.1
677.693	551.5
678.115	556.1
678.516	564.1
678.939	563.8
679.34	559.9
679.762	575.1
680.164	568.2
680.586	554.5
680.988	564.6
681.411	585.9
681.812	555.6
682.236	556.8
682.637	550.9
683.061	552.3
683.462	559
683.864	555.7
684.288	563.5
684.69	550.5
685.114	567.7
685.516	568.6
685.94	558.2
686.342	563.6
686.766	555.7
687.168	553.7
687.571	579.7
687.995	563.3
688.398	552.8
688.822	560.9
689.225	577.9
689.628	578.6
690.052	558.2
690.456	562.9
690.88	556.7
691.284	552.5
691.687	568.7
692.112	552.8
692.515	553.5
692.919	558.8
693.344	556.6
693.747	552.3
694.173	549.9
694.577	563.6
694.98	559.8
695.406	556.3
695.81	557.6
696.214	560.1
696.64	565.6
697.044	562.1
697.448	568.9
697.874	558.3
698.279	563.5
698.684	550.7
699.11	554.3
699.514	557.1
699.919	551.7
700.324	552.7
700.75	558.8
701.156	558.9
701.561	571.4
701.987	566.7
702.393	568.5
702.798	571.1
703.203	563
703.63	549.8
704.036	553.6
704.442	562.5
704.847	552.6
705.274	557.7
705.68	562.7
706.086	565.6
706.492	544.8
706.92	552.4
707.326	564.3
707.732	556.1
708.139	550.9
708.545	545.5
708.973	553.7
709.38	554.9
709.786	542.1
710.193	568.1
710.6	555.9
711.028	552.7
711.435	554.5
711.842	554.5
712.249	551.2
712.656	557.2
713.064	568.5
713.492	548.8
713.9	555.6
714.307	565.8
714.715	557.4
715.123	561.4
715.53	562
715.938	563.5
716.367	556.3
716.775	554.1
717.184	553.5
717.592	555.7
718	567
718.408	589.5
718.816	596.9
719.225	561.5
719.633	552.7
720.042	549.4
720.472	553.5
720.881	577.5
721.29	557.7
721.699	549.5
722.108	555.2
722.517	557.5
722.926	552.4
723.335	568
723.744	557.9
724.154	555.4
724.563	555.6
724.973	564.1
725.382	558.2
725.792	555.5
726.202	543
726.612	571.1
727.022	555.6
727.432	552.3
779.813	548.7
780.223	597.3
780.634	555.5
781.044	555.7
781.454	555.3
781.865	568.9
782.276	545.8
782.686	566.3
783.097	556.3
783.508	553.5
783.919	560.1
784.33	573.4
784.741	573.3
785.152	550.7
785.563	547.6
785.974	550.3
786.386	568.4
786.776	553.3
787.188	558.8
787.599	547.7
788.011	565.8
788.423	559.2
788.835	551.2
789.247	547.4
789.659	553.6
790.071	557.8
790.483	592.3
790.874	553.6
791.286	569.4
791.699	555.4
792.111	555.4
792.524	562
792.937	560.4
793.349	544.9
793.741	547.7
794.154	547.9
794.567	572.3
794.98	553.6
795.393	546.6
795.785	566
796.198	553.4
796.612	551.4
797.026	552.1
797.439	538.2
797.831	556.3
798.245	549.8
798.659	551.5
799.073	551.9
799.487	550.2
799.88	551.2
800.294	555.4
800.708	561.3
801.123	554.4
801.516	570.1
801.93	548.1
802.345	541
802.76	554.1
803.153	571.5
803.568	566.3
803.983	565.9
804.377	558.8
804.792	544.9
805.207	544.8
805.601	555.4
806.016	588.3
806.432	549.3
806.826	582.4
807.242	569
807.658	559.7
808.052	557.7
808.468	547.6
808.884	552.6
809.279	555.2
809.695	569.9
810.111	573.5
810.506	557.1
810.922	578.9
811.339	549.4
811.734	560.1
812.151	552.6
812.546	547.4
812.963	547
813.38	558.6
813.776	556.6
814.193	571.2
814.589	549.6
815.006	552.3
815.402	554.2
815.82	546.3
816.237	557.8
816.633	557.3
817.051	550.6
817.448	550
817.866	542.7
818.262	577.9
818.68	549.8
819.077	546.8
819.495	555.7
819.892	594.6
820.311	550.3
820.708	542.7
821.127	549.1
821.524	567.1
821.943	560.3
822.34	571.3
822.759	557.7
823.157	555.4
823.576	562.4
823.974	560.6
824.393	564.9
824.791	548.8
825.189	550.5
825.609	554.9
826.007	556.2
826.427	548.5
826.826	553.5
827.246	560
827.644	540.4
828.043	558
828.463	551.5
828.862	562.4
829.261	565.4
829.682	544.9
830.081	567.3
830.502	548.9
830.901	560.3
831.301	549.6
831.722	541
832.121	558.2
832.521	552.8
832.943	549.7
833.342	556.8
833.742	547.7
834.164	553.4
834.564	545.3
834.965	556
835.386	550.2
835.787	560
836.188	549.3
836.588	553.4
837.01	554.8
837.411	551
837.812	555.2
838.213	554.4
838.636	551.9
839.037	621.7
839.438	557.5
839.84	559.4
840.263	556.5
840.664	559.5
841.066	555.1
841.468	554.9
841.891	546.8
842.293	562.8
842.695	560.3
843.098	565
843.5	548.6
843.902	560
844.326	563.1
844.729	553.1
845.131	561.3
845.534	556.8
845.937	565.2
846.34	563.5
846.764	548.2
847.167	562.3
847.571	546.4
