#lambda/nm	C1
208.295	488.5
208.67	446.7
209.045	411.2
209.419	415.9
209.794	596.2
210.169	576
210.544	694.2
210.919	594.9
211.295	578.9
211.67	593.6
212.045	585.4
212.421	587.4
212.796	620.7
213.172	587.8
213.547	585.6
213.923	589.1
214.299	584.9
214.675	593.4
215.051	600
215.427	597.4
215.803	608.7
216.179	592.9
216.555	580.6
216.932	596
217.308	587.9
217.684	583.9
218.061	596.9
218.438	592.3
218.814	582.9
219.191	595.5
219.568	579.8
219.945	589.6
220.322	595.9
220.699	591.8
221.076	596.1
221.453	597.8
221.83	584.9
222.208	585.3
222.585	583
222.962	594.4
223.34	592.5
223.717	587.9
224.095	589.6
224.473	588.3
224.851	580.9
225.229	579.9
225.607	608.3
225.985	575.9
226.363	594.1
226.741	586
227.119	591.7
227.497	602.9
227.876	574.2
228.254	596.2
228.633	594.4
229.011	587.7
229.39	596
229.769	595.8
230.148	598
230.527	607.5
230.905	595.3
231.284	584.3
231.664	581
232.043	600.5
232.422	596.5
232.801	586.1
233.181	593.5
233.56	590.4
233.94	588.2
234.319	571.8
234.699	585
235.079	629.1
235.458	626.5
235.838	606
236.218	587.9
236.598	581.3
236.978	579.9
237.358	584.3
237.738	585
238.119	601.7
238.499	579.9
238.88	589.1
239.26	601
239.641	580.9
240.021	585.4
240.402	594.1
240.783	588.7
241.163	588.8
241.544	594.5
241.925	588.7
242.306	602.9
242.687	585.8
243.069	591.1
243.45	601.6
243.831	582.5
244.212	589.7
244.594	629.6
244.975	597
245.357	593.6
245.739	579.3
246.12	590.5
246.502	598.6
246.884	585.8
247.266	588
247.648	593.4
248.03	605
248.412	595.3
248.794	595.3
249.176	585.6
249.559	597.6
249.941	582.3
250.323	578.3
250.706	583.1
251.089	586.1
251.471	590
251.854	592.8
252.237	593.6
252.62	597.8
253.002	593.4
253.385	589.8
253.769	602
254.152	592.8
254.535	597.3
254.918	585.2
255.301	590.9
255.685	583.2
256.068	582.9
256.452	609.2
256.835	601.2
257.219	599.3
257.603	602.9
257.986	582.6
258.37	597
258.754	585.2
259.138	601.4
259.522	599.5
259.906	586.5
260.29	594.6
260.675	587.9
261.059	599
261.443	583.8
261.828	596.5
262.212	597.1
262.597	579.8
262.981	585.3
263.366	598.2
263.751	595.2
264.136	585.9
264.521	586.6
264.906	574.5
265.291	595.5
265.676	589.9
266.061	594.2
266.446	607.7
266.831	586.6
267.217	609.6
267.602	590.1
267.987	593.4
268.373	585.6
268.759	598.7
269.144	594.4
269.53	591.7
269.916	580.3
270.302	585.8
270.688	593.7
271.074	593.3
271.46	603
271.846	620.3
272.232	590.6
272.618	587.7
273.004	584.9
273.391	603.1
273.777	603.3
274.164	593.3
274.55	603.4
274.937	589.1
275.324	588.6
275.71	593.3
276.097	596.6
276.484	584.2
276.871	590.1
277.258	592
277.645	578.6
278.032	593.9
278.419	590.5
278.807	590.7
279.194	584.4
279.581	583.1
279.969	594.4
280.356	590.7
280.744	587.7
281.131	612.9
281.519	599.5
281.907	588
282.295	587.2
282.682	605.1
283.07	593.4
283.458	598.7
283.846	606.7
284.235	600.8
284.623	602.9
285.011	583.7
285.399	591.1
285.788	592.3
286.176	582
286.565	606.7
286.953	587
287.342	591.6
287.731	590.2
288.119	586.5
288.508	590.3
288.897	593.7
289.286	572.8
289.675	589
290.064	599.3
290.453	585
290.821	592.2
291.21	606.1
291.599	591.2
291.989	592.8
292.378	596.9
292.768	606.6
293.157	597.6
293.547	594.4
293.936	584.3
294.326	582.3
294.716	593
295.106	590.8
295.496	595.9
295.886	600.8
296.276	586.5
296.666	587.9
297.056	589
297.446	581.4
297.836	606.9
298.227	585.1
298.617	588.6
299.008	606.3
299.398	588.4
299.789	583.8
300.179	597.6
300.57	607.2
300.961	586.3
301.352	586
301.742	601.2
302.133	589.2
302.524	592.4
302.915	589.9
303.307	588.7
303.698	597.6
304.089	599.5
304.48	593.2
304.872	598.7
305.263	593.2
305.655	584.7
306.046	596.5
306.438	597.4
306.829	585.4
307.221	606.3
307.613	600
308.005	603.4
308.397	607.8
308.789	610.4
309.181	619.5
309.573	611.1
309.965	603.7
310.357	590
310.749	596.4
311.142	585.8
311.534	589.2
311.926	605.1
312.319	594.7
312.711	583.2
313.104	605.6
313.497	587.5
313.889	620.3
314.282	605.6
314.675	613.8
315.068	595.9
315.461	596.9
315.854	622.4
316.247	594.3
316.64	594.5
317.033	597
317.405	603
317.798	593.1
318.192	596.7
318.585	585.4
318.979	597.5
319.372	590.5
319.766	590.1
320.16	607
320.553	603.7
320.947	613.3
321.341	590.5
321.735	592.1
322.129	582.4
322.523	619.2
322.917	584.9
323.311	596.4
323.705	595.8
324.099	600.9
324.494	606.2
324.888	611.4
325.282	590
325.677	591.1
326.071	596.2
326.466	611.7
326.861	597.1
327.255	608.9
327.65	604
328.045	608.2
328.44	592.1
328.835	591
329.23	585.5
329.625	614.7
330.02	584.1
330.415	611.3
330.81	592.5
331.206	589.2
331.601	589.7
331.996	598.3
332.37	600.9
332.766	579.6
333.161	618.9
333.557	587.9
333.953	596.2
334.348	922.2
334.744	594.2
335.14	587.8
335.536	586.6
335.932	602.8
336.328	591.6
336.724	602.7
337.12	589.1
337.516	597.9
337.913	587.3
338.309	599.5
338.705	597.9
339.102	603.2
339.498	592.7
339.895	602.3
340.291	583.2
340.688	598.8
341.085	585.8
341.481	591.5
341.878	588.1
342.275	608.7
342.672	583.2
343.069	585.9
343.466	573.4
343.842	602.1
344.239	582.2
344.636	590.5
345.033	584.5
345.431	584
345.828	589.8
346.225	580.6
346.623	600.7
347.02	594.4
347.418	596
347.816	603.4
348.213	582
348.611	593.2
349.009	585.5
349.407	604.7
349.805	579.6
350.203	580.6
350.601	593.9
350.999	587.4
351.397	576.6
351.795	583.2
352.193	600.1
352.57	590.8
352.969	600.8
353.367	582.9
353.766	583.4
354.164	593.7
354.563	598.5
354.961	591.1
355.36	584.3
355.759	585.5
356.158	580
356.557	582.2
356.956	580.1
357.355	578.4
357.754	593.2
358.153	592.4
358.552	615.7
358.951	586.3
359.35	593.9
359.75	586.8
360.149	579.4
360.527	574.5
360.926	579.1
361.326	587
361.726	587.7
362.125	576.5
362.525	595.3
362.925	589.7
363.325	587.6
363.724	590.9
364.124	578.4
364.524	580.5
364.924	586.1
365.324	588.7
365.725	570.3
366.125	589.6
366.525	584.8
366.904	575.8
367.304	567.4
367.705	602.2
368.105	600.9
368.506	584
368.906	583.9
369.307	584
369.708	590.4
370.108	578.6
370.509	595.3
370.91	582.3
371.311	582
371.712	585
372.113	580.6
372.514	574.5
372.894	586.4
373.295	579
373.696	598.6
374.097	594.9
374.499	612.7
374.9	583.6
375.301	579.8
375.703	589.4
376.105	577.5
376.506	583.9
376.908	585.9
377.309	585.3
377.711	586.9
378.113	585.7
378.493	582.8
378.895	581.8
379.297	590.4
379.699	573.9
380.102	588.8
380.504	586.7
380.906	583
381.308	610.3
381.71	581.9
382.113	595.8
382.515	581.6
382.918	586.8
383.299	585.5
383.701	588.6
384.104	591.1
384.507	570.1
384.909	578.3
385.312	572.2
385.715	575.4
386.118	577.7
386.521	572.5
386.924	591
387.327	576.3
387.709	570.8
388.112	568
388.515	578
388.918	582.4
389.322	586.7
389.725	582.8
390.129	606.3
390.532	587.8
390.936	577.2
391.339	579.8
391.743	585
392.125	574.9
392.529	594
392.933	597.9
393.337	580.9
393.74	580.5
394.144	586.4
394.548	577.9
394.953	575.2
395.357	585.3
395.761	582.5
396.144	588.4
396.548	580.2
396.952	581.8
397.357	587
397.761	583.8
398.166	578.7
398.57	579.6
398.975	576.4
399.379	586
399.763	627.2
400.168	579.2
400.572	579.6
400.977	578
401.382	597.8
401.787	597.8
402.192	599
402.597	604.5
403.002	573.9
403.386	598.7
403.791	602.9
404.197	572.8
404.602	579.9
405.007	587.3
405.413	574
405.818	578.2
406.224	576.8
406.608	578.8
407.014	575.5
407.42	597.3
407.825	577
408.231	597.8
408.637	589.9
409.043	601
409.449	577.9
409.834	572.5
410.24	579.8
410.646	591.2
411.052	592.6
411.458	585.1
411.865	587.9
412.271	587.5
412.677	580.6
413.062	589.4
413.469	578.1
413.875	607.9
414.282	600.1
414.689	587.9
415.095	592.9
415.502	580.4
415.888	585.7
416.294	571.6
416.701	626.2
417.108	577.1
417.515	589.6
417.923	585
418.33	607.3
418.715	595.5
419.123	578.9
419.53	582.6
419.937	595.9
420.345	605.2
420.752	580.8
421.16	602.6
421.546	585.7
421.953	594.6
422.361	570
422.769	585.3
423.177	573.2
423.585	610.6
423.992	608.9
424.379	589.7
424.787	592.6
425.195	603.7
425.603	585.7
426.011	598.9
426.419	599.4
426.806	588.8
427.214	582.9
427.623	599.6
428.031	605.2
428.44	587
428.848	603.7
429.235	604.6
429.644	588.7
430.053	587.2
430.461	594.7
430.87	609.6
431.279	595.4
431.666	584.1
432.075	586.3
432.484	593
432.893	583.8
433.302	602.9
433.711	628.8
434.099	595.6
434.508	585.7
434.918	575.1
435.327	590.7
435.737	585.2
436.125	589.2
436.534	586.1
436.944	587.8
437.353	587
437.763	605.3
438.173	578
438.561	598.7
438.971	569.6
439.381	580.2
439.791	584.8
440.201	561.4
440.589	589.9
440.999	594.1
441.409	586.1
441.819	572.8
442.23	589.2
442.619	596.6
443.029	591.3
443.439	585.4
443.85	594.7
444.26	606.5
444.649	589.6
445.06	583.1
445.471	578.1
445.881	582.7
446.292	595.1
446.682	602.6
447.092	573.5
447.503	633.2
447.914	583.7
448.325	583.2
448.715	577.5
449.126	579.3
449.537	578.2
449.948	583.5
450.338	583
450.75	597.6
451.161	589.6
451.572	587.6
451.984	574.6
452.374	562.9
452.786	578.9
453.197	584.8
453.609	590.3
453.999	568
454.411	576.2
454.823	584
455.235	585.8
455.647	578.2
456.037	579.1
456.449	565.8
456.862	578.4
457.274	580.4
457.665	563.8
458.077	584.6
458.489	593.7
458.902	582.6
459.293	579.6
459.705	580
460.118	575.2
460.53	582.3
460.921	577.5
461.334	589.9
461.747	582.1
462.16	594
462.551	591.9
462.964	585.1
463.377	573.8
463.79	577.2
464.182	590
464.595	575.4
465.008	587
465.421	583
465.813	583
466.226	579.1
466.64	576.4
467.053	629.4
467.445	590.3
467.859	578.9
468.272	580.2
468.686	589.5
469.078	579.9
469.492	566.7
469.906	578.8
470.298	584.1
470.712	568.3
471.126	611
471.54	564.3
471.933	574.7
472.347	576.7
472.761	572.3
473.175	565.2
473.568	574.8
473.982	569.4
474.397	576.1
474.79	576.1
475.204	591
475.619	570.5
476.033	583.2
476.426	575.9
476.841	576
477.256	601.1
477.649	571.9
478.064	563.3
478.479	572.6
478.872	573.2
479.287	563.6
479.702	563.3
480.118	570.9
480.511	571.3
480.927	569.9
481.342	566.2
481.736	581.3
482.151	568.2
482.566	578.1
482.96	580.8
483.376	583.1
483.792	568.5
484.186	578.2
484.602	572.9
485.017	572.3
485.412	574.5
485.827	586
486.243	574.7
486.638	599.8
487.054	585.9
487.47	593.1
487.865	571.9
488.281	568.2
488.697	570.7
489.092	574.7
489.508	566.4
489.925	585.4
490.32	564.1
490.736	577.1
491.153	578.7
491.548	580.6
491.964	586.6
492.381	563.8
492.776	575.8
493.193	572.9
493.61	581.4
494.006	579
494.422	583.2
494.84	570.7
495.235	582.6
495.652	580.7
496.069	574.9
496.465	565.2
496.883	575.2
497.3	599.2
497.696	566.4
498.113	578.8
498.509	565.4
498.927	564.4
499.344	569
499.741	565.5
500.158	586.5
500.576	582.4
500.973	574.6
501.39	567.4
501.787	566.4
502.205	574.3
502.623	568.2
503.02	565.1
503.438	568.5
503.856	572.2
504.253	574.7
504.671	568.7
505.068	565.7
505.486	569.1
505.905	591.2
506.302	572.5
506.72	588.8
507.118	569.9
507.536	570.9
507.955	573.1
508.352	573.5
508.771	578.5
509.169	576.8
509.587	568.6
510.006	565.5
510.404	561.9
510.823	565.7
511.221	562.9
511.64	577
512.038	583
512.457	572.3
512.877	574.5
513.275	573.1
513.694	573.4
514.092	570
514.512	580.2
514.91	567.6
515.33	573.4
515.749	576.2
516.148	578.8
516.568	572
516.966	575.5
517.386	568.8
517.785	570
518.205	570.3
518.603	566.9
519.024	566
519.444	576
519.843	580.5
520.263	573.5
520.662	581.2
521.082	570.6
521.481	576.9
521.902	572
522.301	573.9
522.722	573.6
523.121	574.2
523.542	574.3
523.963	566.9
524.362	569.9
524.783	576.2
525.183	573.5
525.604	576.4
526.003	561.6
526.425	562.6
526.824	575.1
527.246	578.1
527.646	581.1
528.067	577
528.467	574.5
528.888	581.9
529.289	572.3
529.71	573.2
530.11	562.5
530.532	569
530.932	569
531.354	559.6
531.755	603.1
532.176	580.5
532.577	572.8
532.999	574.6
533.4	565.8
533.822	585.2
534.223	571.4
534.645	568
535.046	572.4
535.468	572.4
535.869	584.8
536.292	568.1
536.693	570.8
537.115	572.9
537.516	567.9
537.939	570.5
538.34	586.9
538.742	581
539.165	574.5
539.566	571.3
539.989	559.9
540.391	565.9
540.814	570.5
541.216	574.3
541.639	572.8
542.041	582.3
542.464	568.9
542.866	564.5
543.268	568
543.691	576.2
544.093	575.7
544.517	591.5
544.919	561
545.343	595.8
545.745	562.1
546.147	575.1
546.571	569.2
546.974	563.9
547.398	567.1
547.8	589
548.224	570.6
548.627	558.6
549.03	579
549.454	565.5
549.857	563.2
550.281	566.1
550.684	565
551.087	579.4
551.512	568.6
551.915	572.9
552.34	573.9
552.743	570.5
553.146	570.8
553.571	568.7
553.975	592.9
554.399	560.2
554.803	612
555.207	565
555.632	565.7
556.036	570.3
556.461	558.4
556.865	569.7
557.268	560.9
557.694	574.6
558.098	569.1
558.502	573.7
558.927	565.5
559.332	569.1
559.736	563.4
560.162	573.7
560.566	566.3
560.992	574.9
561.396	571.8
561.801	567.5
562.227	570.2
562.631	569
563.036	574.2
563.462	575.9
563.867	572.3
564.272	551.9
564.698	574.8
565.103	559
565.508	588.2
565.935	571.6
566.34	570.1
566.745	579.5
567.172	571.4
567.577	589.1
567.982	583.2
568.409	574.5
568.815	558.7
569.22	573.1
569.626	574.1
570.053	559
570.459	572
570.865	569.5
571.292	578.3
571.698	578
572.104	556.7
572.531	566.4
572.937	579
573.343	569
573.75	565.5
574.177	573.8
574.583	573.2
574.99	567.9
575.396	579
575.824	566.7
576.231	574
576.637	563.2
577.065	595.5
577.472	568.3
577.879	566.5
578.286	581.3
578.714	556.7
579.121	569.4
579.528	573.1
579.935	576.5
580.364	568.8
580.771	558.8
581.178	562.7
581.585	568
582.014	571.6
582.421	568.4
582.829	564.7
583.236	577.2
583.644	567.7
584.073	568.8
584.481	568.8
584.889	561.3
585.296	570.4
585.726	563.9
586.134	560.8
586.542	561.7
586.95	589.4
587.358	556.8
587.787	572.6
588.196	561.3
588.604	569.3
589.012	572.7
589.421	558.3
589.851	563.9
590.259	574.2
590.668	569.5
591.076	606.4
591.485	559.5
591.894	558.1
592.324	577
592.733	578.1
593.142	553.9
593.551	563.5
593.96	595.5
594.369	553.6
594.8	558.5
595.209	564.7
595.618	553.9
596.028	560.5
596.437	559.6
596.847	564.3
597.256	571.9
597.687	568.2
598.097	563.1
598.507	556.6
598.917	570.5
599.327	572.9
599.736	570.7
600.146	574.8
600.556	563.2
600.988	576.2
601.398	561.7
601.808	581.1
602.219	557.2
602.629	566.4
603.039	568
603.45	589.1
603.86	570.7
604.271	583
604.703	569.4
605.114	568.2
605.525	564.4
605.935	569.4
606.346	591.4
606.757	574.6
607.168	567.2
607.579	563.1
607.99	580.2
608.402	567.2
608.813	576.4
609.224	563.3
609.636	559.5
610.047	558.1
610.48	568.1
610.892	569.9
611.303	577.1
611.715	571
612.127	559.5
612.539	562.8
612.95	563.8
613.362	553.8
613.774	557.4
614.186	553.8
614.599	567.6
615.011	573.6
615.423	553.5
615.835	560.4
616.248	555.1
616.66	576.4
617.073	556.1
617.485	565.6
617.898	569.6
618.311	568
618.723	565.3
619.136	594.7
619.549	576.8
619.962	588.2
620.375	567.3
620.788	567.8
621.201	556.2
621.614	568.8
622.028	561
622.441	569.9
622.854	579
623.268	557.3
623.681	570.8
624.095	562.4
624.509	567.9
624.922	569.5
625.336	551.9
625.728	563.6
626.142	573
626.556	577.1
626.97	574.4
627.384	564.8
627.799	561.6
628.213	575.2
628.627	560.2
629.041	567.3
629.456	566.7
629.87	569
630.285	576
630.699	575.5
631.093	568.3
631.507	568.8
631.922	575
632.337	584.8
632.752	562.8
633.167	566.2
633.582	566.7
633.997	558.1
634.412	565.4
634.806	564.5
635.221	559.7
635.637	575.8
636.052	552.6
636.468	574.2
636.883	583.3
637.299	562.2
637.715	554.7
638.109	565.2
638.525	557.6
638.941	580.1
639.357	566.5
639.773	572.8
640.189	564
640.584	563.8
641	572.6
641.416	555.4
641.832	564.6
642.249	561.3
642.665	566.1
643.06	569.7
643.477	571.7
643.894	547.9
644.31	563.5
644.727	566.6
645.123	565
645.54	557.1
645.957	569.9
646.374	564.5
646.77	564.3
647.187	596.7
647.604	566.1
648.021	551.1
648.439	558.4
648.835	572.5
649.252	571.8
649.67	563.6
650.088	563.1
650.484	567.4
650.902	571.1
651.32	573.8
651.738	559.1
652.134	571.3
652.552	580.6
652.971	572
653.389	562
653.786	581.8
654.204	565.9
654.622	560.8
655.019	565.6
655.438	572.2
655.857	570.2
656.275	561.3
656.673	557.3
657.091	631.8
657.51	560.5
657.908	573.3
658.327	580.9
658.746	554.7
659.144	559.5
659.563	574.9
659.982	566.3
660.38	556.1
660.8	558.9
661.219	573.9
661.617	573
662.037	568.7
662.457	572.8
662.855	550.6
663.275	593.4
663.695	563.6
664.094	565.3
664.514	565.4
664.934	554.8
665.333	574
665.753	556.9
666.152	556.4
666.572	560.8
666.993	573.5
667.392	561.2
667.812	561.8
668.212	555.8
668.632	573.1
669.053	561
669.453	570.8
669.874	567
670.273	566.2
670.694	558.1
671.116	574
671.515	572.3
671.937	557.1
672.337	562.5
672.758	561.1
673.158	572
673.58	553.5
673.98	564.9
674.402	575.1
674.824	562
675.224	556.6
675.646	556.2
676.047	560.8
676.469	565.5
676.869	573.1
677.292	564.7
677.693	554.2
678.115	558.2
678.516	568.7
678.939	568.1
679.34	559.1
679.762	577.7
680.164	568.2
680.586	556.9
680.988	570.7
681.411	591.6
681.812	562.1
682.236	555.5
682.637	558.9
683.061	558.4
683.462	571.1
683.864	559.3
684.288	575.5
684.69	555
685.114	572.8
685.516	570.4
685.94	555.6
686.342	570.3
686.766	554.7
687.168	559
687.571	580.4
687.995	560.1
688.398	556.6
688.822	560.7
689.225	578.3
689.628	584.1
690.052	565
690.456	570.1
690.88	564.2
691.284	550.2
691.687	568.5
692.112	558.4
692.515	556
692.919	565.9
693.344	566.5
693.747	560.1
694.173	552.9
694.577	573.3
694.98	560.3
695.406	559.7
695.81	568.4
696.214	567.2
696.64	560.6
697.044	565.9
697.448	576.4
697.874	562.3
698.279	556.9
698.684	554.1
699.11	556.7
699.514	559.3
699.919	561.2
700.324	560.8
700.75	568.1
701.156	561.3
701.561	571.1
701.987	567.3
702.393	570.3
702.798	574.3
703.203	563.6
703.63	557.2
704.036	559.6
704.442	563.4
704.847	554.9
705.274	559.5
705.68	570.1
706.086	571.6
706.492	554.4
706.92	558.4
707.326	571
707.732	565.4
708.139	562.2
708.545	551.3
708.973	563.4
709.38	566
709.786	555.2
710.193	575.2
710.6	564.6
711.028	551.5
711.435	564
711.842	560.1
712.249	561.8
712.656	554.6
713.064	573.1
713.492	552.5
713.9	560.2
714.307	565.5
714.715	562.9
715.123	570.8
715.53	565.3
715.938	567.2
716.367	561.5
716.775	557.7
717.184	548.6
717.592	560.6
718	570.8
718.408	588.4
718.816	606.1
719.225	567.2
719.633	563.1
720.042	556.9
720.472	563.8
720.881	582.5
721.29	565.9
721.699	553.2
722.108	563.8
722.517	560.5
722.926	558.8
723.335	566.6
723.744	558.3
724.154	563.1
724.563	567.8
724.973	563
725.382	558.6
725.792	551.8
726.202	553.6
726.612	571.5
727.022	557.7
727.432	563.3
779.813	564.2
780.223	603.8
780.634	559
781.044	560.3
781.454	562.1
781.865	574.6
782.276	552.7
782.686	571.3
783.097	561.1
783.508	560.6
783.919	565.2
784.33	567.9
784.741	572.4
785.152	549.7
785.563	552.6
785.974	558.8
786.386	574
786.776	558.5
787.188	562.8
787.599	549.5
788.011	569.7
788.423	568.1
788.835	558.2
789.247	550.2
789.659	555.5
790.071	554.3
790.483	599.3
790.874	560.1
791.286	567.3
791.699	557.1
792.111	557.3
792.524	563.4
792.937	557.5
793.349	554.5
793.741	556.1
794.154	550.6
794.567	573.6
794.98	551.1
795.393	550.6
795.785	571.3
796.198	552
796.612	558.4
797.026	556
797.439	540.4
797.831	558.8
798.245	548.9
798.659	551.2
799.073	555.3
799.487	550.7
799.88	564.2
800.294	556.6
800.708	558.9
801.123	556.9
801.516	573.7
801.93	547.9
802.345	549.1
802.76	558.5
803.153	565.9
803.568	565.7
803.983	569.6
804.377	565.1
804.792	548.2
805.207	548.8
805.601	565.5
806.016	592.2
806.432	552.4
806.826	582.2
807.242	575
807.658	561.5
808.052	554.9
808.468	557.6
808.884	558
809.279	561.5
809.695	574.7
810.111	577.9
810.506	560
810.922	578
811.339	554.9
811.734	561.4
812.151	556.3
812.546	555.5
812.963	554.1
813.38	560.4
813.776	561.3
814.193	580.3
814.589	559.9
815.006	555.4
815.402	550.1
815.82	551.6
816.237	561.6
816.633	560.5
817.051	550.9
817.448	561.6
817.866	554.1
818.262	575.5
818.68	552.8
819.077	555.1
819.495	560.9
819.892	600.3
820.311	551.4
820.708	556.5
821.127	553.1
821.524	567.8
821.943	557.6
822.34	579.4
822.759	559.2
823.157	557.6
823.576	574.4
823.974	565.7
824.393	574.6
824.791	553.7
825.189	555.4
825.609	560.6
826.007	555
826.427	547.9
826.826	557.5
827.246	563.1
827.644	540.9
828.043	566.2
828.463	547.5
828.862	569.4
829.261	562.3
829.682	552.5
830.081	568.8
830.502	550.8
830.901	562.9
831.301	553.2
831.722	549.3
832.121	561.6
832.521	557.2
832.943	555.9
833.342	558.3
833.742	551.6
834.164	555.8
834.564	546.8
834.965	560.5
835.386	555.8
835.787	553.2
836.188	560.8
836.588	558.3
837.01	556.7
837.411	552.4
837.812	559.6
838.213	558.8
838.636	552.2
839.037	622.5
839.438	556.7
839.84	561.2
840.263	563.5
840.664	561.3
841.066	551.8
841.468	560.7
841.891	556
842.293	575.3
842.695	563.9
843.098	561.2
843.5	554.2
843.902	560.4
844.326	561.3
844.729	560.5
845.131	564.1
845.534	558
845.937	570
846.34	573.3
846.764	554.2
847.167	559
847.571	551.3
847.974	556.9
848.377	551.3
