#lambda/nm	C1
208.295	486.1
208.67	448.6
209.045	413.7
209.419	414.6
209.794	594.9
210.169	576.4
210.544	698.6
210.919	590.3
211.295	584.6
211.67	590.6
212.045	585.6
212.421	587.7
212.796	624.1
213.172	584.8
213.547	588.5
213.923	589.1
214.299	584.2
214.675	598.3
215.051	597
215.427	599.3
215.803	610.7
216.179	594.1
216.555	581.3
216.932	596.2
217.308	587.5
217.684	590.6
218.061	594.3
218.438	594.3
218.814	582.1
219.191	595.6
219.568	583.7
219.945	584.8
220.322	592.6
220.699	591.3
221.076	599.9
221.453	594.9
221.83	581.4
222.208	588
222.585	587.5
222.962	592.5
223.34	585.7
223.717	588.7
224.095	590.4
224.473	590.9
224.851	586.3
225.229	586.8
225.607	604.5
225.985	577
226.363	584.9
226.741	593
227.119	588.9
227.497	597.4
227.876	578.7
228.254	595.2
228.633	598
229.011	589.9
229.39	592.2
229.769	592.1
230.148	593.6
230.527	607.4
230.905	591.3
231.284	587.7
231.664	584.9
232.043	603.4
232.422	596.5
232.801	586
233.181	596.5
233.56	583.5
233.94	590.7
234.319	579.5
234.699	587.6
235.079	632.4
235.458	622.7
235.838	606.9
236.218	579.4
236.598	577.8
236.978	583.5
237.358	580.2
237.738	586.4
238.119	591
238.499	580.2
238.88	583.3
239.26	604.2
239.641	577.1
240.021	576.3
240.402	584.4
240.783	584.2
241.163	589.6
241.544	585
241.925	588.9
242.306	595.7
242.687	583.8
243.069	585.9
243.45	593.2
243.831	581.8
244.212	585.5
244.594	625.8
244.975	594.8
245.357	588
245.739	585.7
246.12	589.2
246.502	594.9
246.884	587
247.266	583.1
247.648	594.7
248.03	612.4
248.412	592
248.794	592.6
249.176	575.9
249.559	597.2
249.941	581.9
250.323	579.8
250.706	581.4
251.089	584.8
251.471	593.6
251.854	592.9
252.237	586.8
252.62	599.7
253.002	590.5
253.385	584.3
253.769	604.4
254.152	581.8
254.535	595.9
254.918	589.4
255.301	588
255.685	588.2
256.068	576.9
256.452	612.1
256.835	600.1
257.219	593.5
257.603	598.8
257.986	586.7
258.37	595.1
258.754	579.8
259.138	596
259.522	605.9
259.906	586
260.29	595.8
260.675	594.6
261.059	587.5
261.443	580.2
261.828	593.2
262.212	592.4
262.597	581.8
262.981	584.6
263.366	597.9
263.751	592.1
264.136	588.1
264.521	587.5
264.906	579.6
265.291	604
265.676	588.5
266.061	594.6
266.446	600
266.831	590.6
267.217	612.6
267.602	593
267.987	596.2
268.373	586.7
268.759	597.6
269.144	596.1
269.53	583.4
269.916	587.8
270.302	585.7
270.688	590.9
271.074	592.2
271.46	603.3
271.846	618
272.232	592.3
272.618	585.8
273.004	586
273.391	604.2
273.777	598.4
274.164	595.9
274.55	602.6
274.937	590.5
275.324	586.7
275.71	595.5
276.097	601.7
276.484	584.2
276.871	595
277.258	592.8
277.645	582.8
278.032	592.6
278.419	587.1
278.807	594.9
279.194	586.7
279.581	586.3
279.969	594.4
280.356	594.8
280.744	592
281.131	618.9
281.519	599.5
281.907	583.4
282.295	587.8
282.682	601.4
283.07	597.4
283.458	597.7
283.846	604.8
284.235	592.3
284.623	596.4
285.011	581.3
285.399	588.8
285.788	592.5
286.176	578.8
286.565	601.2
286.953	582.6
287.342	587.8
287.731	582.5
288.119	588.3
288.508	587.5
288.897	588
289.286	573.4
289.675	597.4
290.064	605.4
290.453	588
290.821	591.2
291.21	613.1
291.599	587.3
291.989	590.9
292.378	600.3
292.768	607.2
293.157	594.5
293.547	599.7
293.936	588.5
294.326	587.5
294.716	593.7
295.106	589.9
295.496	595.8
295.886	600.4
296.276	595.1
296.666	583.5
297.056	588.1
297.446	578.9
297.836	608.1
298.227	589
298.617	590.6
299.008	603
299.398	584
299.789	586.6
300.179	595
300.57	603
300.961	588.6
301.352	586.5
301.742	599.1
302.133	590.1
302.524	595.4
302.915	592.6
303.307	579.4
303.698	601.9
304.089	590.6
304.48	592.4
304.872	594
305.263	594.8
305.655	589
306.046	592.4
306.438	601.9
306.829	590
307.221	607.1
307.613	595.5
308.005	599.2
308.397	608
308.789	610.8
309.181	618.9
309.573	613
309.965	599.5
310.357	593
310.749	596.9
311.142	586.2
311.534	590.9
311.926	599.3
312.319	596.8
312.711	586.2
313.104	605.1
313.497	591.7
313.889	627.8
314.282	605.4
314.675	619.1
315.068	590.3
315.461	596.1
315.854	618.8
316.247	599.1
316.64	590
317.033	589.5
317.405	599.7
317.798	591.2
318.192	590.6
318.585	590.6
318.979	596.9
319.372	585.5
319.766	590.5
320.16	603.1
320.553	606.1
320.947	614.1
321.341	588
321.735	589.9
322.129	578.7
322.523	616.5
322.917	584
323.311	601.2
323.705	594.2
324.099	598
324.494	607.6
324.888	605.7
325.282	592.2
325.677	593.9
326.071	600.9
326.466	609
326.861	601.4
327.255	603.7
327.65	603.9
328.045	611.5
328.44	595.9
328.835	594.2
329.23	587.4
329.625	618.5
330.02	586.8
330.415	610.8
330.81	601
331.206	587.6
331.601	588.6
331.996	601
332.37	602.6
332.766	585.8
333.161	614.5
333.557	588.6
333.953	593.6
334.348	1013.3
334.744	589.1
335.14	582.4
335.536	585.8
335.932	595.9
336.328	590.1
336.724	598.1
337.12	585.6
337.516	596.7
337.913	590.7
338.309	603.6
338.705	591.9
339.102	598.2
339.498	577.6
339.895	604
340.291	584.4
340.688	598.6
341.085	586.4
341.481	589
341.878	588
342.275	607.8
342.672	582.7
343.069	581.4
343.466	578.1
343.842	598.5
344.239	583.5
344.636	597.8
345.033	584.5
345.431	582.3
345.828	599.3
346.225	582.7
346.623	603.6
347.02	592.3
347.418	599.3
347.816	605.9
348.213	579.3
348.611	593.8
349.009	581.6
349.407	603.7
349.805	580.9
350.203	581
350.601	600.2
350.999	587.8
351.397	581
351.795	593.6
352.193	597.9
352.57	600
352.969	602.5
353.367	575.6
353.766	583.1
354.164	586.7
354.563	599.9
354.961	591.3
355.36	582.3
355.759	588.3
356.158	582.2
356.557	576.6
356.956	576.2
357.355	572.2
357.754	590.3
358.153	594.5
358.552	616.6
358.951	586.4
359.35	604
359.75	582.6
360.149	576.3
360.527	566.1
360.926	577.7
361.326	584.6
361.726	585.5
362.125	578.3
362.525	588.4
362.925	585.8
363.325	595.9
363.724	584.6
364.124	584.1
364.524	584.6
364.924	582.8
365.324	597.4
365.725	571.5
366.125	589.6
366.525	584.3
366.904	580.1
367.304	576.3
367.705	603.6
368.105	595.2
368.506	583.4
368.906	591.1
369.307	583.7
369.708	591.3
370.108	575.5
370.509	588
370.91	576.9
371.311	581.6
371.712	587.4
372.113	584.6
372.514	574
372.894	584.4
373.295	575.9
373.696	594.5
374.097	594.3
374.499	618.2
374.9	588.2
375.301	580.2
375.703	592.1
376.105	577.4
376.506	593.8
376.908	584.2
377.309	580.7
377.711	588.4
378.113	580.6
378.493	583.8
378.895	580.5
379.297	594.8
379.699	574.6
380.102	585.9
380.504	588.3
380.906	582.2
381.308	610
381.71	584.9
382.113	591
382.515	583.5
382.918	591.8
383.299	583.1
383.701	590.7
384.104	585.6
384.507	574.5
384.909	578.1
385.312	570.2
385.715	575.5
386.118	576.9
386.521	575
386.924	595.4
387.327	574.9
387.709	570.6
388.112	561.3
388.515	578.2
388.918	580.1
389.322	586.3
389.725	579.4
390.129	600.3
390.532	578.2
390.936	578.9
391.339	575.6
391.743	586.4
392.125	572.4
392.529	590.9
392.933	594.6
393.337	583.6
393.74	580.7
394.144	579.1
394.548	576.3
394.953	581.3
395.357	590
395.761	574.9
396.144	587.4
396.548	583.8
396.952	578.5
397.357	585.8
397.761	576.7
398.166	575.2
398.57	579.7
398.975	573.6
399.379	588.7
399.763	633.5
400.168	578.2
400.572	582.9
400.977	579.4
401.382	598.6
401.787	592.6
402.192	600
402.597	602.8
403.002	570.3
403.386	600.8
403.791	598.7
404.197	579.6
404.602	580.1
405.007	583.4
405.413	584.4
405.818	578.5
406.224	575.2
406.608	580.1
407.014	576.6
407.42	599
407.825	580.8
408.231	595.5
408.637	589.4
409.043	593
409.449	580
409.834	574.8
410.24	582
410.646	595.4
411.052	594
411.458	593.1
411.865	589.9
412.271	587.8
412.677	583.1
413.062	591
413.469	572.8
413.875	608.2
414.282	593.4
414.689	593.2
415.095	595.9
415.502	582.3
415.888	582.1
416.294	569.6
416.701	621.6
417.108	572.5
417.515	596
417.923	582.9
418.33	607
418.715	589.9
419.123	581.6
419.53	582.7
419.937	579.6
420.345	599.2
420.752	581.4
421.16	596.1
421.546	589.4
421.953	596.8
422.361	576.2
422.769	586
423.177	574.9
423.585	602.9
423.992	606.9
424.379	599.1
424.787	595.8
425.195	602.3
425.603	582.9
426.011	598.4
426.419	600.8
426.806	590.1
427.214	589.3
427.623	600.9
428.031	605.8
428.44	584.5
428.848	595.2
429.235	605.9
429.644	583.1
430.053	586.1
430.461	597.2
430.87	607.3
431.279	594.2
431.666	579.9
432.075	581.7
432.484	592.4
432.893	581.2
433.302	603.8
433.711	617.8
434.099	593.1
434.508	579.9
434.918	573.2
435.327	591.2
435.737	582.1
436.125	583.8
436.534	582.3
436.944	583.7
437.353	588.2
437.763	605.5
438.173	578.9
438.561	593.4
438.971	573
439.381	578.7
439.791	585.9
440.201	565.8
440.589	586.6
440.999	587.3
441.409	586.9
441.819	575.3
442.23	592.4
442.619	593.6
443.029	585.1
443.439	583.1
443.85	594.8
444.26	594.3
444.649	594.9
445.06	583.1
445.471	577.8
445.881	586
446.292	592.2
446.682	605.7
447.092	576
447.503	630.6
447.914	586.7
448.325	583
448.715	581.3
449.126	576.6
449.537	579.7
449.948	582.8
450.338	582.1
450.75	588.4
451.161	584.9
451.572	586
451.984	577.7
452.374	567.3
452.786	580.6
453.197	582.6
453.609	582.2
453.999	568.8
454.411	576.2
454.823	589.5
455.235	587.4
455.647	574.7
456.037	582.2
456.449	572.4
456.862	588.3
457.274	584.4
457.665	570.8
458.077	591.8
458.489	590.4
458.902	579.7
459.293	582.6
459.705	580.9
460.118	573.8
460.53	582.7
460.921	584.3
461.334	588.5
461.747	581
462.16	593.5
462.551	591.5
462.964	584
463.377	570.2
463.79	577.1
464.182	591.6
464.595	568.4
465.008	580.6
465.421	583.3
465.813	576.2
466.226	582.2
466.64	570.8
467.053	624.9
467.445	590.6
467.859	586.9
468.272	583
468.686	594
469.078	577.3
469.492	563.9
469.906	582.7
470.298	586
470.712	572
471.126	610
471.54	561.3
471.933	574.9
472.347	570.1
472.761	575
473.175	564.3
473.568	568.9
473.982	567.4
474.397	573.5
474.79	574.7
475.204	579.7
475.619	580.1
476.033	578.6
476.426	578.7
476.841	569.2
477.256	601.6
477.649	570.7
478.064	568.9
478.479	569.1
478.872	567.8
479.287	568.3
479.702	565.3
480.118	578.1
480.511	571.3
480.927	567.7
481.342	569.2
481.736	574.4
482.151	571.1
482.566	586.5
482.96	577.2
483.376	584.2
483.792	569.5
484.186	571.4
484.602	572.9
485.017	573.3
485.412	569.2
485.827	581.6
486.243	577.7
486.638	597
487.054	583.1
487.47	590.3
487.865	575.4
488.281	574.8
488.697	565.4
489.092	570.9
489.508	566.8
489.925	580.5
490.32	570
490.736	580.2
491.153	577.2
491.548	574.6
491.964	588.3
492.381	564.2
492.776	576.3
493.193	579.6
493.61	579.4
494.006	572.5
494.422	578.7
494.84	565.7
495.235	581.3
495.652	571.8
496.069	580.9
496.465	562.7
496.883	578.2
497.3	590.8
497.696	569.8
498.113	580.4
498.509	568.5
498.927	563.6
499.344	568.2
499.741	567.7
500.158	582.4
500.576	582
500.973	582.7
501.39	571.6
501.787	569.2
502.205	579.1
502.623	566.4
503.02	561.8
503.438	573
503.856	567.1
504.253	576.5
504.671	575.6
505.068	571
505.486	572.8
505.905	597.3
506.302	573.5
506.72	585.8
507.118	560.7
507.536	573.9
507.955	573.6
508.352	573.6
508.771	580.6
509.169	576.3
509.587	568.4
510.006	571.5
510.404	568.7
510.823	575.4
511.221	566.3
511.64	572.6
512.038	586.5
512.457	569.8
512.877	573.4
513.275	573.3
513.694	576.3
514.092	569.9
514.512	575.7
514.91	576
515.33	579.2
515.749	575.5
516.148	577.9
516.568	576.3
516.966	568.9
517.386	569.2
517.785	569.6
518.205	570.7
518.603	567.5
519.024	567.2
519.444	575.1
519.843	581.1
520.263	572.5
520.662	575.9
521.082	570.5
521.481	576.9
521.902	566.6
522.301	577.7
522.722	571.8
523.121	571.6
523.542	563.6
523.963	570.5
524.362	575.3
524.783	574.9
525.183	569
525.604	572.5
526.003	566.1
526.425	560.9
526.824	576.6
527.246	576.8
527.646	581.1
528.067	572.5
528.467	570.2
528.888	575
529.289	570.1
529.71	571
530.11	568.3
530.532	571
530.932	564.5
531.354	563.1
531.755	603.6
532.176	581.9
532.577	573.8
532.999	572.6
533.4	571.3
533.822	584
534.223	575
534.645	570.4
535.046	569.9
535.468	572.1
535.869	581.1
536.292	568.9
536.693	570.4
537.115	570.2
537.516	567.5
537.939	569.9
538.34	582.9
538.742	586.4
539.165	572.1
539.566	569.9
539.989	566
540.391	567.4
540.814	567.8
541.216	568.8
541.639	569.2
542.041	577.8
542.464	567.6
542.866	566.4
543.268	562.4
543.691	573.9
544.093	576.5
544.517	588.1
544.919	562.2
545.343	592.5
545.745	567.1
546.147	575.7
546.571	566.1
546.974	561.2
547.398	567.2
547.8	587
548.224	570.1
548.627	557.5
549.03	578
549.454	565.3
549.857	561.1
550.281	563.8
550.684	567.1
551.087	581.8
551.512	570.4
551.915	576.2
552.34	571.3
552.743	566.6
553.146	572.4
553.571	568.9
553.975	592.6
554.399	562.7
554.803	616.8
555.207	570.5
555.632	563.7
556.036	571.1
556.461	563.2
556.865	568.9
557.268	564.9
557.694	573.1
558.098	579.4
558.502	575.3
558.927	564.4
559.332	568.1
559.736	568.7
560.162	573.5
560.566	567.9
560.992	574.5
561.396	567.2
561.801	565.1
562.227	570.8
562.631	567.6
563.036	571.6
563.462	573.8
563.867	568.6
564.272	564.3
564.698	576
565.103	558.6
565.508	590
565.935	576.6
566.34	565.5
566.745	584.8
567.172	563.9
567.577	586.9
567.982	583.5
568.409	571.6
568.815	567.9
569.22	567.5
569.626	579.4
570.053	558.8
570.459	570.6
570.865	574.4
571.292	575.2
571.698	577.1
572.104	551.7
572.531	565.8
572.937	580
573.343	566.6
573.75	566.5
574.177	567.8
574.583	572.1
574.99	566
575.396	573.3
575.824	572.3
576.231	575.4
576.637	558.7
577.065	590
577.472	561
577.879	568.7
578.286	581.3
578.714	563.5
579.121	562.8
579.528	568.2
579.935	577.6
580.364	564.3
580.771	556
581.178	559.7
581.585	572.3
582.014	569.5
582.421	562.3
582.829	560.1
583.236	573.9
583.644	561.3
584.073	562.1
584.481	563.4
584.889	557.7
585.296	567.7
585.726	567.1
586.134	561.2
586.542	558.5
586.95	585.9
587.358	558.9
587.787	570.6
588.196	559.7
588.604	566.5
589.012	568.7
589.421	558.7
589.851	561.5
590.259	568
590.668	561.9
591.076	602.4
591.485	564.1
591.894	567.1
592.324	580.2
592.733	577.7
593.142	558.2
593.551	563.2
593.96	601.3
594.369	557.5
594.8	557.9
595.209	562.4
595.618	551
596.028	562.8
596.437	559.8
596.847	562.9
597.256	568.3
597.687	571.1
598.097	567.6
598.507	560.3
598.917	574.7
599.327	572.5
599.736	567.9
600.146	577.4
600.556	564.9
600.988	577
601.398	565.3
601.808	573.1
602.219	558.9
602.629	565.4
603.039	574.2
603.45	588.8
603.86	571.9
604.271	581.3
604.703	571
605.114	565.6
605.525	571.5
605.935	572.9
606.346	587.5
606.757	572.5
607.168	568.2
607.579	556.3
607.99	576.4
608.402	568
608.813	567.2
609.224	564.3
609.636	560.4
610.047	557
610.48	571.5
610.892	575.3
611.303	574.5
611.715	564.1
612.127	562.9
612.539	555.9
612.95	565.9
613.362	559.2
613.774	558.4
614.186	561.2
614.599	562.1
615.011	570
615.423	555.6
615.835	560.8
616.248	551.3
616.66	573.5
617.073	555.7
617.485	559.3
617.898	573.4
618.311	568.1
618.723	570.5
619.136	587.2
619.549	577.7
619.962	586.2
620.375	567.1
620.788	566.5
621.201	561.3
621.614	573.7
622.028	562.8
622.441	565.8
622.854	581.1
623.268	554.1
623.681	563
624.095	562.8
624.509	574.3
624.922	569.2
625.336	563.8
625.728	562.7
626.142	567.8
626.556	583
626.97	572.4
627.384	559.7
627.799	566
628.213	578.9
628.627	559.1
629.041	561.3
629.456	560.4
629.87	569
630.285	572.9
630.699	579.1
631.093	562.2
631.507	570.9
631.922	571
632.337	578.7
632.752	554.8
633.167	560.8
633.582	560.3
633.997	565.7
634.412	559
634.806	564.2
635.221	555.5
635.637	568.4
636.052	551.4
636.468	572.1
636.883	586.8
637.299	563.8
637.715	546
638.109	559
638.525	553.7
638.941	578.7
639.357	564.6
639.773	574.9
640.189	559.9
640.584	561.7
641	569.2
641.416	554.7
641.832	560.8
642.249	564.8
642.665	563.8
643.06	574.8
643.477	575.5
643.894	547.7
644.31	564.1
644.727	565.9
645.123	562.5
645.54	563.1
645.957	564.1
646.374	566.7
646.77	569.7
647.187	594.7
647.604	564.9
648.021	552.8
648.439	556.9
648.835	567.6
649.252	567.6
649.67	562.3
650.088	566.1
650.484	566.5
650.902	566.3
651.32	570.2
651.738	560.7
652.134	565.2
652.552	583.6
652.971	572.2
653.389	565.7
653.786	578.9
654.204	566.5
654.622	564
655.019	562.6
655.438	567.9
655.857	563.7
656.275	566
656.673	555.8
657.091	628.2
657.51	559.4
657.908	575.1
658.327	576.8
658.746	550.7
659.144	563.8
659.563	575.1
659.982	566.6
660.38	553.9
660.8	563.8
661.219	574.5
661.617	569.4
662.037	565.1
662.457	578.7
662.855	547
663.275	593.6
663.695	562.2
664.094	559
664.514	563.7
664.934	554.5
665.333	573.2
665.753	566.2
666.152	557.4
666.572	557.7
666.993	574.8
667.392	563.4
667.812	559.6
668.212	565.4
668.632	571.6
669.053	561.9
669.453	564.8
669.874	564
670.273	558.6
670.694	563
671.116	583.9
671.515	572.4
671.937	563.3
672.337	552.6
672.758	561.6
673.158	573.6
673.58	555.8
673.98	562.4
674.402	573.1
674.824	564.3
675.224	558.6
675.646	545.6
676.047	554.4
676.469	558.8
676.869	570.6
677.292	561.2
677.693	554
678.115	557.5
678.516	566.8
678.939	566.6
679.34	557.8
679.762	575.2
680.164	568
680.586	557.7
680.988	568.4
681.411	583.8
681.812	558.3
682.236	558.2
682.637	553.1
683.061	552
683.462	567.4
683.864	563.4
684.288	569.4
684.69	552.9
685.114	575.1
685.516	572.9
685.94	553.6
686.342	574
686.766	553.6
687.168	560.6
687.571	580.6
687.995	559
688.398	552.6
688.822	564.1
689.225	576.3
689.628	578.2
690.052	562.8
690.456	567.5
690.88	561.6
691.284	555.3
691.687	572.3
692.112	554.2
692.515	560.4
692.919	563.1
693.344	566
693.747	564.9
694.173	554.2
694.577	576.2
694.98	570
695.406	562.3
695.81	563.2
696.214	567.1
696.64	565.5
697.044	565.3
697.448	565.8
697.874	561.1
698.279	563.6
698.684	556.6
699.11	559.1
699.514	563.3
699.919	553.9
700.324	555.9
700.75	564.5
701.156	564
701.561	571.9
701.987	564
702.393	569
702.798	568.6
703.203	560.7
703.63	556.9
704.036	560.2
704.442	565.4
704.847	558.4
705.274	561.4
705.68	562
706.086	570.9
706.492	551.8
706.92	568.6
707.326	570.7
707.732	558.3
708.139	559.2
708.545	558.1
708.973	558.5
709.38	560.8
709.786	557.9
710.193	568.5
710.6	559.7
711.028	559.5
711.435	557.5
711.842	562.9
712.249	555.3
712.656	559.2
713.064	571.8
713.492	551.7
713.9	556.9
714.307	570.1
714.715	562.7
715.123	562.9
715.53	560.8
715.938	571.7
716.367	568.1
716.775	561.8
717.184	557.5
717.592	561.1
718	565.3
718.408	587.3
718.816	599.8
719.225	559.4
719.633	558.5
720.042	549.8
720.472	562.1
720.881	584.4
721.29	559.9
721.699	550.8
722.108	561.9
722.517	558.4
722.926	557
723.335	573.2
723.744	560.3
724.154	556.9
724.563	566
724.973	560.9
725.382	565.8
725.792	560.7
726.202	557.8
726.612	568.8
727.022	557.8
727.432	551.6
779.813	554.3
780.223	599.7
780.634	556.4
781.044	550.4
781.454	555.5
781.865	567.6
782.276	549
782.686	566.2
783.097	558.6
783.508	558.5
783.919	569
784.33	571.4
784.741	571.2
785.152	556
785.563	549.6
785.974	552.8
786.386	570.4
786.776	562.3
787.188	562.5
787.599	551.6
788.011	568.5
788.423	571.1
788.835	558.7
789.247	552.3
789.659	558.7
790.071	560.3
790.483	598.6
790.874	556.5
791.286	568.9
791.699	558.1
792.111	563.7
792.524	568.7
792.937	558.1
793.349	545.6
793.741	553.6
794.154	555.2
794.567	577.7
794.98	558.7
795.393	550.6
795.785	570.8
796.198	552.9
796.612	557.8
797.026	561.5
797.439	544
797.831	559.6
798.245	548.7
798.659	561
799.073	558.1
799.487	556.4
799.88	559.2
800.294	558
800.708	563.9
801.123	560.5
801.516	576.4
801.93	547.1
802.345	549.5
802.76	562.1
803.153	572
803.568	574.4
803.983	571.5
804.377	564.5
804.792	551.1
805.207	537.3
805.601	561.8
806.016	592.6
806.432	554.6
806.826	586.4
807.242	567.2
807.658	559.8
808.052	548.7
808.468	551.9
808.884	556.9
809.279	562.1
809.695	574.4
810.111	579.2
810.506	558.7
810.922	577.7
811.339	556
811.734	563.6
812.151	556.6
812.546	550
812.963	555.2
813.38	562.5
813.776	558.5
814.193	582.4
814.589	550.2
815.006	551.9
815.402	556.5
815.82	555.1
816.237	556.2
816.633	558.8
817.051	548.8
817.448	556.8
817.866	554.7
818.262	570.8
818.68	550.2
819.077	552.7
819.495	561.4
819.892	597.6
820.311	551.6
820.708	552.7
821.127	552.9
821.524	566.2
821.943	560.9
822.34	572
822.759	560.7
823.157	561.8
823.576	575.4
823.974	562.4
824.393	562.1
824.791	554.8
825.189	550.6
825.609	558.8
826.007	563.9
826.427	544.4
826.826	555.4
827.246	565.5
827.644	541
828.043	569.4
828.463	556.8
828.862	566.2
829.261	568.7
829.682	544.5
830.081	567.4
830.502	545.5
830.901	564.9
831.301	555.1
831.722	548.4
832.121	559.8
832.521	547.9
832.943	557.2
833.342	554.8
833.742	555.4
834.164	553.5
834.564	554.8
834.965	562.7
835.386	552
835.787	560.6
836.188	557.7
836.588	561.5
837.01	557.7
837.411	548.3
837.812	566.6
838.213	561.6
838.636	560.7
839.037	623.2
839.438	561.6
839.84	565.1
840.263	565.1
840.664	561.3
841.066	561
841.468	562.4
841.891	558.6
842.293	566.6
842.695	561.6
843.098	569.5
843.5	553.2
843.902	566.9
844.326	556.2
844.729	563.5
845.131	569.8
845.534	560.5
845.937	566.3
846.34	580.8
846.764	555
847.167	554.7
847.571	547.9
847.974	559.2
