#lambda/nm	C1
208.295	475
208.67	443
209.045	406.4
209.419	412.3
209.794	572.5
210.169	562.6
210.544	673.7
210.919	581.5
211.295	561.9
211.67	576.2
212.045	564.6
212.421	573.3
212.796	607.6
213.172	569.7
213.547	571
213.923	564.8
214.299	567.3
214.675	582.9
215.051	580
215.427	578.8
215.803	589.1
216.179	576.3
216.555	568.4
216.932	583.8
217.308	576.4
217.684	570.8
218.061	573.8
218.438	578.9
218.814	566.2
219.191	583.6
219.568	566
219.945	571.9
220.322	580.9
220.699	575.1
221.076	582.4
221.453	576.4
221.83	570.4
222.208	569.6
222.585	572.8
222.962	576.3
223.34	580.9
223.717	572.7
224.095	565.1
224.473	575.1
224.851	573.8
225.229	564.4
225.607	580.5
225.985	563.7
226.363	577
226.741	571.8
227.119	565.7
227.497	589.9
227.876	562.8
228.254	577.5
228.633	576.8
229.011	572.4
229.39	576.1
229.769	577.6
230.148	581.2
230.527	586.5
230.905	573.3
231.284	575.6
231.664	567.6
232.043	580.4
232.422	576.3
232.801	567
233.181	578.5
233.56	575.7
233.94	574.5
234.319	556.8
234.699	566.5
235.079	607.1
235.458	609.5
235.838	586.1
236.218	563.1
236.598	564.6
236.978	567.5
237.358	572.8
237.738	567.6
238.119	577.2
238.499	565.7
238.88	572.3
239.26	588.2
239.641	563.5
240.021	567.7
240.402	574.6
240.783	569.1
241.163	567.9
241.544	572.7
241.925	573.2
242.306	591.1
242.687	565.9
243.069	577.2
243.45	580.8
243.831	564.1
244.212	574.3
244.594	607
244.975	584.1
245.357	580
245.739	568.2
246.12	577
246.502	585.2
246.884	576.9
247.266	571.1
247.648	577.2
248.03	591.4
248.412	578.7
248.794	583.9
249.176	569.8
249.559	587.6
249.941	563.5
250.323	566.6
250.706	569.7
251.089	573.5
251.471	575.3
251.854	575.3
252.237	572.7
252.62	581.1
253.002	570.8
253.385	571.4
253.769	587.6
254.152	572.8
254.535	582.6
254.918	562.8
255.301	573.7
255.685	573.5
256.068	563.7
256.452	595.2
256.835	574
257.219	583.1
257.603	587
257.986	570.5
258.37	580.2
258.754	566
259.138	578.8
259.522	579.2
259.906	574.8
260.29	578.7
260.675	572.8
261.059	574
261.443	563.4
261.828	581.8
262.212	574.1
262.597	566.2
262.981	568.3
263.366	584.2
263.751	571.8
264.136	565.1
264.521	569.3
264.906	567
265.291	585.5
265.676	579.3
266.061	577
266.446	588.7
266.831	575.8
267.217	596.4
267.602	580.8
267.987	576
268.373	570
268.759	584.9
269.144	578.6
269.53	574.4
269.916	569.3
270.302	567.2
270.688	573.7
271.074	571.4
271.46	585.6
271.846	601.9
272.232	577.3
272.618	564.8
273.004	572.6
273.391	586.7
273.777	583.2
274.164	576.8
274.55	591.8
274.937	579.5
275.324	574.4
275.71	578.3
276.097	578.4
276.484	563.9
276.871	578
277.258	581.7
277.645	565.2
278.032	573
278.419	574.6
278.807	576.3
279.194	567.5
279.581	564.5
279.969	580.6
280.356	572.8
280.744	573.1
281.131	597.5
281.519	584.2
281.907	569.6
282.295	570.7
282.682	588.7
283.07	575.5
283.458	577
283.846	586.3
284.235	583.9
284.623	575.5
285.011	567.7
285.399	576.3
285.788	575.1
286.176	562
286.565	586.9
286.953	567.5
287.342	570.6
287.731	570.8
288.119	565.3
288.508	572.4
288.897	572.9
289.286	557.6
289.675	570.3
290.064	579.7
290.453	569.2
290.821	566.3
291.21	587
291.599	568.6
291.989	573.4
292.378	582.5
292.768	589.2
293.157	576.2
293.547	582.5
293.936	568.8
294.326	575.5
294.716	579.4
295.106	572.9
295.496	583.8
295.886	586.3
296.276	573.2
296.666	574.1
297.056	571.5
297.446	566.1
297.836	592.2
298.227	571.9
298.617	568.5
299.008	585.7
299.398	570.6
299.789	570.5
300.179	575.1
300.57	589.7
300.961	574.7
301.352	569.6
301.742	581.1
302.133	572.5
302.524	570
302.915	578
303.307	565.9
303.698	582.8
304.089	577.1
304.48	577.4
304.872	575.3
305.263	573.3
305.655	568.8
306.046	575.2
306.438	581.5
306.829	570.1
307.221	589.5
307.613	577.8
308.005	581.4
308.397	589.7
308.789	596.4
309.181	600.5
309.573	592.1
309.965	588.9
310.357	568.9
310.749	575.8
311.142	565.1
311.534	566.5
311.926	575.4
312.319	573.7
312.711	569.9
313.104	583.5
313.497	575.2
313.889	617.3
314.282	593.1
314.675	598.2
315.068	578.3
315.461	588.1
315.854	606.2
316.247	585.5
316.64	576.2
317.033	578.4
317.405	586.1
317.798	571
318.192	577.3
318.585	570
318.979	583.9
319.372	565.7
319.766	577.4
320.16	584.4
320.553	596.3
320.947	593.1
321.341	575.2
321.735	578.4
322.129	566
322.523	600.6
322.917	571.8
323.311	585.9
323.705	574.6
324.099	581.6
324.494	587.6
324.888	586
325.282	572.4
325.677	580
326.071	583.1
326.466	583.8
326.861	576.8
327.255	584.5
327.65	587.6
328.045	586.5
328.44	575.2
328.835	577.6
329.23	565.4
329.625	596.3
330.02	567.7
330.415	589.6
330.81	570.8
331.206	579.6
331.601	572.1
331.996	586
332.37	584.3
332.766	568.5
333.161	596
333.557	568.9
333.953	576.7
334.348	822.7
334.744	577
335.14	572.4
335.536	569.7
335.932	586.2
336.328	575.4
336.724	580.4
337.12	574.9
337.516	577.6
337.913	575.2
338.309	587.5
338.705	576.3
339.102	586.4
339.498	574.1
339.895	589.2
340.291	565.7
340.688	578.6
341.085	570.2
341.481	570.5
341.878	575
342.275	595.7
342.672	567.5
343.069	564.2
343.466	565.9
343.842	584
344.239	565.5
344.636	567.3
345.033	571.7
345.431	562.1
345.828	579.5
346.225	570.4
346.623	581.3
347.02	572.8
347.418	583.5
347.816	586.7
348.213	565.6
348.611	576.8
349.009	567.9
349.407	586.7
349.805	562.1
350.203	560.9
350.601	582.2
350.999	569.6
351.397	567.3
351.795	575.5
352.193	582.9
352.57	581.3
352.969	580.8
353.367	567.7
353.766	570.6
354.164	567.8
354.563	578.3
354.961	572.5
355.36	568.3
355.759	571.6
356.158	569.1
356.557	573.6
356.956	560.4
357.355	563.3
357.754	574.6
358.153	581.9
358.552	595.6
358.951	569.5
359.35	580.1
359.75	567.1
360.149	561.8
360.527	557
360.926	557.4
361.326	573.4
361.726	570.8
362.125	564.4
362.525	570.3
362.925	566.8
363.325	575.7
363.724	572.6
364.124	565.7
364.524	567.3
364.924	567.3
365.324	584.6
365.725	554.2
366.125	574.2
366.525	570.4
366.904	561.3
367.304	552.5
367.705	589.6
368.105	577.3
368.506	571.6
368.906	574.3
369.307	573.9
369.708	573.7
370.108	560.7
370.509	573.8
370.91	562.7
371.311	569.4
371.712	570.8
372.113	565.9
372.514	559.2
372.894	566.5
373.295	564.3
373.696	575.4
374.097	579.5
374.499	594.4
374.9	568.5
375.301	557.3
375.703	571.5
376.105	555.9
376.506	574.5
376.908	577.1
377.309	568.9
377.711	566.1
378.113	560.9
378.493	568.5
378.895	563.6
379.297	574.6
379.699	552.9
380.102	572.4
380.504	571.3
380.906	561.4
381.308	589.5
381.71	570.1
382.113	576.6
382.515	567.3
382.918	563.8
383.299	563.6
383.701	570
384.104	571.9
384.507	549.9
384.909	565.3
385.312	557.5
385.715	554.9
386.118	559.1
386.521	553.9
386.924	571.4
387.327	556.8
387.709	559.2
388.112	550.1
388.515	564.7
388.918	561.9
389.322	568.4
389.725	561.8
390.129	587
390.532	564.7
390.936	568.5
391.339	558.6
391.743	564.1
392.125	558.7
392.529	571.5
392.933	576.5
393.337	567.1
393.74	567.5
394.144	564.6
394.548	565.8
394.953	561.1
395.357	569.2
395.761	558.5
396.144	566.6
396.548	567.3
396.952	561.8
397.357	570.2
397.761	558.2
398.166	561.8
398.57	563.2
398.975	554.5
399.379	565.1
399.763	610.5
400.168	565.4
400.572	561.6
400.977	559.2
401.382	582
401.787	577.5
402.192	590
402.597	574.4
403.002	552.3
403.386	579.6
403.791	581.9
404.197	562.3
404.602	568.9
405.007	568.9
405.413	559.1
405.818	564.6
406.224	557.4
406.608	561.8
407.014	556
407.42	577.3
407.825	560.7
408.231	572.4
408.637	574.2
409.043	582.2
409.449	562.7
409.834	562.4
410.24	567.9
410.646	575.8
411.052	575
411.458	572.6
411.865	573.2
412.271	577.7
412.677	568.4
413.062	569
413.469	565.5
413.875	587.3
414.282	579.7
414.689	571.6
415.095	572.5
415.502	561
415.888	571
416.294	555.2
416.701	607.2
417.108	563.3
417.515	577.4
417.923	567.4
418.33	588.3
418.715	579.8
419.123	565
419.53	564.5
419.937	567
420.345	580.5
420.752	563.4
421.16	582.5
421.546	570.5
421.953	577
422.361	558.9
422.769	564.9
423.177	558.9
423.585	589.7
423.992	583.1
424.379	577.4
424.787	577.7
425.195	586.4
425.603	567
426.011	579.8
426.419	585.7
426.806	565.9
427.214	569.9
427.623	582.1
428.031	580.2
428.44	572.4
428.848	579
429.235	584
429.644	567.7
430.053	569.8
430.461	581.2
430.87	593.1
431.279	576.4
431.666	567
432.075	568.3
432.484	577.4
432.893	569.7
433.302	587.4
433.711	608.8
434.099	570.3
434.508	566.2
434.918	564.3
435.327	574.8
435.737	573.6
436.125	567.9
436.534	569.3
436.944	573.9
437.353	572.5
437.763	585.5
438.173	566.8
438.561	581.8
438.971	559.6
439.381	561.3
439.791	571.1
440.201	544.2
440.589	574
440.999	567.3
441.409	571.7
441.819	554.1
442.23	573.6
442.619	572.7
443.029	571.2
443.439	567.7
443.85	578
444.26	580.4
444.649	570.5
445.06	569.4
445.471	567.2
445.881	567.5
446.292	582.3
446.682	586
447.092	554.3
447.503	611.3
447.914	563.1
448.325	564.9
448.715	572.4
449.126	562.5
449.537	568.5
449.948	568.6
450.338	559.3
450.75	574.3
451.161	569.6
451.572	573.7
451.984	556.2
452.374	547.2
452.786	567.9
453.197	564.4
453.609	568.7
453.999	553.8
454.411	561.4
454.823	568.4
455.235	560.7
455.647	562.1
456.037	569.4
456.449	549.4
456.862	565.8
457.274	567.2
457.665	561.6
458.077	565
458.489	569.9
458.902	558
459.293	562.4
459.705	564.8
460.118	555.9
460.53	569
460.921	565.3
461.334	564.7
461.747	568.4
462.16	577
462.551	578.2
462.964	567.3
463.377	553.9
463.79	560.7
464.182	571.3
464.595	557.4
465.008	569.7
465.421	564.6
465.813	563.5
466.226	573
466.64	559
467.053	601.4
467.445	572.7
467.859	562.6
468.272	563.3
468.686	571.8
469.078	565.5
469.492	552.7
469.906	563.7
470.298	565.1
470.712	554.9
471.126	591
471.54	548.8
471.933	555.4
472.347	555.7
472.761	558.8
473.175	551.3
473.568	554.7
473.982	551.4
474.397	559.1
474.79	559.3
475.204	570.4
475.619	560.2
476.033	558.9
476.426	557
476.841	551.7
477.256	582.4
477.649	556.2
478.064	546.2
478.479	557.9
478.872	550.4
479.287	540.9
479.702	549.6
480.118	555.9
480.511	556.2
480.927	548.8
481.342	552.7
481.736	559.4
482.151	554.7
482.566	563.1
482.96	553.9
483.376	564.9
483.792	556
484.186	558.3
484.602	553.5
485.017	558.3
485.412	560.3
485.827	560.5
486.243	558.5
486.638	582.8
487.054	566.3
487.47	571
487.865	555.7
488.281	555.3
488.697	553.4
489.092	557
489.508	549.6
489.925	564.1
490.32	547.7
490.736	560.2
491.153	557.4
491.548	560.7
491.964	565.7
492.381	547.8
492.776	560.9
493.193	557.7
493.61	559.9
494.006	564.2
494.422	564.8
494.84	546.4
495.235	565.1
495.652	555.5
496.069	559.8
496.465	547.1
496.883	554.8
497.3	580.2
497.696	553.1
498.113	563.9
498.509	548.5
498.927	545.3
499.344	553.3
499.741	555.8
500.158	567.6
500.576	571.7
500.973	559
501.39	552.1
501.787	555.2
502.205	562
502.623	553.3
503.02	549.2
503.438	555.6
503.856	555.5
504.253	559.9
504.671	556.9
505.068	554.6
505.486	555.6
505.905	576
506.302	556.9
506.72	567.8
507.118	548.4
507.536	559
507.955	551.4
508.352	559
508.771	564.9
509.169	561.4
509.587	546.8
510.006	556.1
510.404	547.5
510.823	546.1
511.221	557.5
511.64	555.1
512.038	567.3
512.457	556.5
512.877	556.9
513.275	556.7
513.694	552.5
514.092	558.2
514.512	559.3
514.91	551.8
515.33	554.6
515.749	555.7
516.148	553.1
516.568	553.5
516.966	557.1
517.386	552.8
517.785	552.6
518.205	548
518.603	549.7
519.024	549.7
519.444	558.1
519.843	561.6
520.263	551
520.662	556.5
521.082	554
521.481	556.4
521.902	555.7
522.301	556.9
522.722	555.4
523.121	545.7
523.542	553.8
523.963	554.4
524.362	556.2
524.783	556.2
525.183	554
525.604	559.7
526.003	550.1
526.425	546.5
526.824	555.9
527.246	565.3
527.646	558
528.067	559.4
528.467	558.1
528.888	557.5
529.289	555.2
529.71	555
530.11	559.1
530.532	550.7
530.932	544.9
531.354	542.3
531.755	585.7
532.176	556.6
532.577	555.7
532.999	558.3
533.4	552
533.822	566.6
534.223	553.3
534.645	557.3
535.046	556.6
535.468	553.9
535.869	570.6
536.292	551.1
536.693	553.2
537.115	559.1
537.516	549.4
537.939	553.9
538.34	566.6
538.742	570.1
539.165	556.4
539.566	559
539.989	554.1
540.391	551.4
540.814	558.5
541.216	552.4
541.639	560.7
542.041	567.1
542.464	552.4
542.866	550.3
543.268	544
543.691	554.3
544.093	556.4
544.517	572.4
544.919	544.2
545.343	576.6
545.745	549.8
546.147	552.8
546.571	555.2
546.974	546.8
547.398	552.4
547.8	561.3
548.224	553.7
548.627	551.4
549.03	559.8
549.454	548.4
549.857	539.4
550.281	541.4
550.684	550.9
551.087	561.6
551.512	554.5
551.915	560.7
552.34	555.9
552.743	549.7
553.146	561
553.571	554.9
553.975	572.4
554.399	547.4
554.803	601.3
555.207	555.7
555.632	546.6
556.036	550.4
556.461	542.2
556.865	554.1
557.268	548.4
557.694	551.2
558.098	558.8
558.502	556
558.927	547.3
559.332	550.4
559.736	549.2
560.162	553
560.566	548.7
560.992	556.1
561.396	554.4
561.801	552.1
562.227	555.5
562.631	549.5
563.036	554.8
563.462	563.4
563.867	553.5
564.272	541.7
564.698	555.7
565.103	542.8
565.508	570
565.935	555.7
566.34	557.2
566.745	564.8
567.172	548.3
567.577	569.9
567.982	562.6
568.409	554
568.815	546.1
569.22	552
569.626	561.9
570.053	541.6
570.459	552.8
570.865	556.6
571.292	556.3
571.698	558.3
572.104	540.4
572.531	547.3
572.937	558.2
573.343	541.2
573.75	544.5
574.177	547.1
574.583	558.5
574.99	549.3
575.396	555.4
575.824	544.3
576.231	557.6
576.637	545.4
577.065	571.8
577.472	546.7
577.879	550.9
578.286	560.9
578.714	543.9
579.121	548.5
579.528	549.9
579.935	562.9
580.364	549.6
580.771	538.9
581.178	547.5
581.585	556.4
582.014	558.8
582.421	551.3
582.829	553.4
583.236	557.6
583.644	547.5
584.073	548.8
584.481	554.3
584.889	541.3
585.296	558.7
585.726	556.8
586.134	540.2
586.542	548.3
586.95	564.4
587.358	541.2
587.787	550.1
588.196	537.7
588.604	546.2
589.012	549.1
589.421	545.1
589.851	542.3
590.259	552.8
590.668	547.2
591.076	578.9
591.485	543.7
591.894	548
592.324	562.6
592.733	559.1
593.142	541.4
593.551	548.7
593.96	583.2
594.369	540.8
594.8	541.3
595.209	550
595.618	535.3
596.028	542
596.437	543.3
596.847	552.2
597.256	552.4
597.687	552.1
598.097	554.6
598.507	537.7
598.917	546.5
599.327	555.9
599.736	550.4
600.146	557.7
600.556	553.8
600.988	563.6
601.398	550.9
601.808	559.5
602.219	539.2
602.629	552.6
603.039	554.8
603.45	574.4
603.86	546.2
604.271	562.4
604.703	554.8
605.114	547.2
605.525	547.1
605.935	552.9
606.346	566.6
606.757	562.2
607.168	549.6
607.579	542.4
607.99	556.3
608.402	552.9
608.813	557.2
609.224	545.5
609.636	540
610.047	540.2
610.48	551.7
610.892	560
611.303	557.3
611.715	551.1
612.127	540.8
612.539	544.8
612.95	547.1
613.362	540.4
613.774	536.5
614.186	537.5
614.599	541.9
615.011	553.8
615.423	540
615.835	542.3
616.248	543.8
616.66	554.9
617.073	544.9
617.485	546.5
617.898	552.4
618.311	552.5
618.723	544
619.136	575
619.549	562.5
619.962	562.9
620.375	538.4
620.788	553
621.201	544.6
621.614	551.3
622.028	549.7
622.441	546.3
622.854	559.7
623.268	541.4
623.681	551.3
624.095	549.1
624.509	557.4
624.922	555.9
625.336	537.8
625.728	548.7
626.142	558
626.556	566
626.97	552.6
627.384	542.9
627.799	543.4
628.213	562.2
628.627	545.8
629.041	546
629.456	546.5
629.87	542.4
630.285	552.3
630.699	566.5
631.093	549.3
631.507	549.6
631.922	555.6
632.337	559.1
632.752	540.8
633.167	550.3
633.582	544
633.997	546.1
634.412	545
634.806	550.4
635.221	539.5
635.637	553.5
636.052	539.3
636.468	548.8
636.883	569.4
637.299	547.2
637.715	535.1
638.109	547
638.525	539
638.941	563.5
639.357	555.2
639.773	558.7
640.189	546.7
640.584	553.7
641	551.3
641.416	538.9
641.832	549
642.249	545.3
642.665	547.2
643.06	558.3
643.477	556.5
643.894	540.5
644.31	549.9
644.727	549.9
645.123	544.5
645.54	546.3
645.957	551.7
646.374	553
646.77	548.5
647.187	575.9
647.604	550.7
648.021	531.9
648.439	546.2
648.835	552.9
649.252	550.1
649.67	545.3
650.088	549.9
650.484	550.9
650.902	557.9
651.32	554.9
651.738	541.8
652.134	554.5
652.552	561.2
652.971	556.7
653.389	546.7
653.786	560.5
654.204	544.7
654.622	540
655.019	544.3
655.438	552.8
655.857	553.1
656.275	553.1
656.673	540.3
657.091	612.2
657.51	544.3
657.908	553.6
658.327	562
658.746	536.1
659.144	551.4
659.563	565.4
659.982	547.5
660.38	543
660.8	547
661.219	552.2
661.617	552.7
662.037	546.8
662.457	553.3
662.855	536.4
663.275	578.6
663.695	546.7
664.094	541.3
664.514	546.8
664.934	535.6
665.333	550.8
665.753	538.2
666.152	539
666.572	536
666.993	556.1
667.392	541.7
667.812	544.2
668.212	541.2
668.632	555.6
669.053	541.2
669.453	546.3
669.874	544.8
670.273	544.9
670.694	537.3
671.116	553.8
671.515	552.4
671.937	537.3
672.337	537.7
672.758	542.8
673.158	554
673.58	539.9
673.98	548.5
674.402	558.4
674.824	541.1
675.224	538.5
675.646	534.4
676.047	545
676.469	544.6
676.869	556.9
677.292	552.2
677.693	541.1
678.115	544.3
678.516	549
678.939	550.9
679.34	544.2
679.762	559.8
680.164	552.3
680.586	544
680.988	546.2
681.411	570.6
681.812	546.1
682.236	535.8
682.637	534.1
683.061	535.3
683.462	541.5
683.864	546.1
684.288	551.4
684.69	534.5
685.114	554.6
685.516	552.7
685.94	544.3
686.342	552.3
686.766	538.1
687.168	536
687.571	563
687.995	544.9
688.398	537.1
688.822	544
689.225	558.2
689.628	568.4
690.052	547.1
690.456	555.4
690.88	547.1
691.284	538.5
691.687	553.3
692.112	535.7
692.515	539.7
692.919	546.7
693.344	552.2
693.747	549
694.173	540.8
694.577	555.5
694.98	543.1
695.406	542.6
695.81	548.4
696.214	556.1
696.64	550.8
697.044	548.1
697.448	559.5
697.874	540.5
698.279	542
698.684	536.3
699.11	536.5
699.514	546.7
699.919	539.6
700.324	541.5
700.75	545
701.156	548.3
701.561	559.5
701.987	550.2
702.393	555
702.798	556.9
703.203	547.4
703.63	544.7
704.036	542.9
704.442	546.3
704.847	538.7
705.274	544.4
705.68	547.7
706.086	558.4
706.492	534.3
706.92	544.3
707.326	551.6
707.732	547.7
708.139	538.4
708.545	537.2
708.973	542.7
709.38	539
709.786	535.9
710.193	558.6
710.6	541.7
711.028	535.5
711.435	544
711.842	540.6
712.249	539.8
712.656	541.3
713.064	550.2
713.492	540.8
713.9	534.3
714.307	553.7
714.715	544.4
715.123	551.6
715.53	545.8
715.938	550.7
716.367	544.2
716.775	539.6
717.184	534.2
717.592	547.6
718	558
718.408	576.2
718.816	587.6
719.225	546.8
719.633	550.4
720.042	533.9
720.472	541.2
720.881	564.3
721.29	550.4
721.699	532.7
722.108	544.8
722.517	548.2
722.926	543
723.335	552.5
723.744	546.4
724.154	543.4
724.563	546.7
724.973	545.2
725.382	548.3
725.792	539.5
726.202	541.4
726.612	553.4
727.022	544.3
727.432	534
779.813	539.5
780.223	587.2
780.634	538.6
781.044	540.4
781.454	543.4
781.865	557.5
782.276	536.4
782.686	551.9
783.097	540.6
783.508	545.6
783.919	545.4
784.33	556.7
784.741	556.6
785.152	542.5
785.563	531.9
785.974	538.8
786.386	546.3
786.776	543.6
787.188	541.1
787.599	540.2
788.011	549.9
788.423	547.5
788.835	538.6
789.247	535.3
789.659	541.2
790.071	537.9
790.483	582.3
790.874	538.4
791.286	553.1
791.699	538.3
792.111	544.4
792.524	551.2
792.937	541.8
793.349	539.1
793.741	537
794.154	538.9
794.567	563.8
794.98	543.1
795.393	536
795.785	553.6
796.198	536.1
796.612	542
797.026	538.2
797.439	528.7
797.831	544.6
798.245	538.9
798.659	541.5
799.073	541.1
799.487	540.4
799.88	542.2
800.294	541.8
800.708	543.9
801.123	537.1
801.516	558.6
801.93	535.1
802.345	531.8
802.76	538.1
803.153	554.9
803.568	550.9
803.983	557.6
804.377	548.7
804.792	535.1
805.207	535.7
805.601	542.4
806.016	575.6
806.432	541.1
806.826	568.6
807.242	549.6
807.658	545.2
808.052	536.7
808.468	536.9
808.884	531.6
809.279	541.4
809.695	549.4
810.111	562.2
810.506	543.3
810.922	558.7
811.339	534.8
811.734	545.3
812.151	538.4
812.546	540.1
812.963	536.5
813.38	545
813.776	543.2
814.193	555.1
814.589	531.1
815.006	540.6
815.402	531.1
815.82	533.8
816.237	543.2
816.633	547.3
817.051	529.9
817.448	539.3
817.866	528.8
818.262	555.1
818.68	535.5
819.077	536.9
819.495	535.2
819.892	581.1
820.311	532
820.708	531.5
821.127	534.5
821.524	550.8
821.943	542.9
822.34	554.5
822.759	541.3
823.157	544.3
823.576	549.2
823.974	543.2
824.393	550.2
824.791	535.5
825.189	533
825.609	539
826.007	545.5
826.427	534.3
826.826	541.1
827.246	545.5
827.644	526.6
828.043	550.3
828.463	530.6
828.862	546.4
829.261	542.8
829.682	531.1
830.081	545.8
830.502	530.5
830.901	537.3
831.301	531.8
831.722	525.8
832.121	539.5
832.521	535.1
832.943	538.9
833.342	539.7
833.742	540
834.164	533.9
834.564	531.3
834.965	542.3
835.386	539.9
835.787	537.6
836.188	537.9
836.588	542.1
837.01	537.6
837.411	533.1
837.812	547.5
838.213	544.1
838.636	540.4
839.037	602
839.438	543.4
839.84	546.4
840.263	550
840.664	540.7
841.066	543.8
841.468	544.9
841.891	536.7
842.293	548.6
842.695	545.9
843.098	548.3
843.5	541.7
843.902	542.4
844.326	547.2
844.729	550.7
845.131	552.8
845.534	544.1
845.937	547.5
846.34	555
846.764	537.1
847.167	541.3
847.571	533.9
