#lambda/nm	C1
208.295	479.2
208.67	446.1
209.045	407.4
209.419	414.1
209.794	599.4
210.169	573.9
210.544	692.8
210.919	597.6
211.295	582.1
211.67	602
212.045	590.9
212.421	584.9
212.796	626.2
213.172	584.7
213.547	582.4
213.923	589.7
214.299	584
214.675	603
215.051	595.6
215.427	597
215.803	606.4
216.179	595.1
216.555	583.8
216.932	600.1
217.308	591.9
217.684	592.2
218.061	599.3
218.438	592.7
218.814	588.7
219.191	592.9
219.568	583.9
219.945	589.5
220.322	600.4
220.699	592.8
221.076	604.5
221.453	598
221.83	580.7
222.208	590.3
222.585	586.3
222.962	597.6
223.34	599.2
223.717	592
224.095	586.6
224.473	593.7
224.851	584.9
225.229	584.9
225.607	601.7
225.985	576.2
226.363	590.9
226.741	592.4
227.119	595.7
227.497	605
227.876	577.7
228.254	598.6
228.633	595.5
229.011	591.7
229.39	588
229.769	589.2
230.148	598.5
230.527	614.1
230.905	591.6
231.284	592.1
231.664	587.4
232.043	601.9
232.422	596
232.801	588.2
233.181	594.7
233.56	588.4
233.94	591.6
234.319	581.2
234.699	585.7
235.079	628.8
235.458	629.6
235.838	607.1
236.218	584.4
236.598	583.6
236.978	585.9
237.358	584.1
237.738	586
238.119	593.2
238.499	583.3
238.88	591.1
239.26	604.1
239.641	580.5
240.021	586.3
240.402	591.6
240.783	583.5
241.163	589.8
241.544	594
241.925	590
242.306	606.2
242.687	582.5
243.069	590.7
243.45	598.1
243.831	589.5
244.212	588.3
244.594	625.8
244.975	603.3
245.357	598.8
245.739	584.9
246.12	590.3
246.502	608.5
246.884	586.7
247.266	589
247.648	591.3
248.03	612.2
248.412	591.2
248.794	599
249.176	592
249.559	602.7
249.941	586.2
250.323	586.4
250.706	586.2
251.089	590.8
251.471	594.1
251.854	592.1
252.237	593.4
252.62	603.3
253.002	591.7
253.385	592.2
253.769	606.5
254.152	596.5
254.535	598.4
254.918	588.5
255.301	588.5
255.685	595.9
256.068	586.1
256.452	612.4
256.835	596.3
257.219	600.5
257.603	602.8
257.986	585.4
258.37	597.1
258.754	586.1
259.138	599.6
259.522	596.7
259.906	591
260.29	596.8
260.675	589.6
261.059	597
261.443	586.7
261.828	599.1
262.212	597.2
262.597	583.2
262.981	593.3
263.366	596.9
263.751	595.8
264.136	584.7
264.521	583.3
264.906	582.4
265.291	602.6
265.676	589.3
266.061	594
266.446	609.7
266.831	592.6
267.217	609.4
267.602	598.3
267.987	594
268.373	586.6
268.759	599.2
269.144	596.6
269.53	590.4
269.916	590.3
270.302	587.5
270.688	594.4
271.074	593.2
271.46	605.7
271.846	627.2
272.232	591.9
272.618	584.6
273.004	589.1
273.391	599.5
273.777	604
274.164	600.5
274.55	609.3
274.937	600.1
275.324	585.3
275.71	597
276.097	601.2
276.484	587.6
276.871	596.5
277.258	598.7
277.645	577.3
278.032	588.4
278.419	585.9
278.807	593.7
279.194	583.5
279.581	586.7
279.969	593.2
280.356	590.2
280.744	594.4
281.131	617.5
281.519	603.6
281.907	586.2
282.295	589.6
282.682	603.4
283.07	592.5
283.458	598.1
283.846	602.5
284.235	607.8
284.623	602.9
285.011	584.2
285.399	592.8
285.788	593.2
286.176	586
286.565	602.3
286.953	589.2
287.342	592.8
287.731	595.7
288.119	587.4
288.508	590.8
288.897	591.3
289.286	581.2
289.675	594.9
290.064	598.8
290.453	590.9
290.821	589
291.21	610.9
291.599	589.8
291.989	594.5
292.378	599.5
292.768	611.3
293.157	596.5
293.547	603.4
293.936	587.1
294.326	590.2
294.716	600.9
295.106	592.2
295.496	599.7
295.886	603.5
296.276	591
296.666	584.3
297.056	585
297.446	584.6
297.836	605.5
298.227	588.5
298.617	596
299.008	603
299.398	593.5
299.789	585.5
300.179	601.6
300.57	603.9
300.961	597.2
301.352	591.6
301.742	602.3
302.133	595.4
302.524	596.6
302.915	595.1
303.307	586.4
303.698	601.3
304.089	599
304.48	592.3
304.872	596.1
305.263	593.6
305.655	586.8
306.046	598.5
306.438	593.1
306.829	588.4
307.221	606.9
307.613	596.3
308.005	605.8
308.397	608.1
308.789	617.4
309.181	619.1
309.573	608
309.965	607.3
310.357	590.2
310.749	596.5
311.142	582.9
311.534	591.7
311.926	600.4
312.319	594
312.711	586
313.104	607.3
313.497	593.2
313.889	631.3
314.282	614.3
314.675	621.9
315.068	601.4
315.461	603
315.854	622.7
316.247	601.7
316.64	595.6
317.033	597.3
317.405	605.1
317.798	592.4
318.192	604.5
318.585	588.8
318.979	600.2
319.372	593.1
319.766	592.8
320.16	604.7
320.553	615.4
320.947	615.9
321.341	593
321.735	593.7
322.129	581.9
322.523	617.1
322.917	590.7
323.311	604.1
323.705	596.7
324.099	592.5
324.494	604.1
324.888	603
325.282	587.7
325.677	598.7
326.071	596.4
326.466	610.8
326.861	594.9
327.255	604.4
327.65	608.1
328.045	605.9
328.44	594.1
328.835	596.5
329.23	588.4
329.625	619.5
330.02	592.4
330.415	617.5
330.81	597.7
331.206	594.5
331.601	588.3
331.996	595.3
332.37	609.1
332.766	592.9
333.161	619.3
333.557	594.2
333.953	589.3
334.348	1023.1
334.744	591.8
335.14	591.4
335.536	594.2
335.932	605.4
336.328	591.8
336.724	601.5
337.12	592.6
337.516	593.7
337.913	590.5
338.309	605.7
338.705	593.2
339.102	603.4
339.498	588.3
339.895	607.3
340.291	591.6
340.688	602.5
341.085	586.8
341.481	588.7
341.878	596.8
342.275	612.9
342.672	585.3
343.069	590.9
343.466	583.7
343.842	601
344.239	587.4
344.636	592.1
345.033	588.5
345.431	588.1
345.828	591.8
346.225	590.2
346.623	605.4
347.02	595.2
347.418	598
347.816	604.1
348.213	585.8
348.611	599
349.009	583.2
349.407	601.9
349.805	584
350.203	583.9
350.601	602
350.999	589.4
351.397	584.3
351.795	592.1
352.193	598.8
352.57	604.3
352.969	608.1
353.367	586.6
353.766	589.2
354.164	584.3
354.563	608.3
354.961	596
355.36	591.5
355.759	592.3
356.158	579.3
356.557	587.7
356.956	585.1
357.355	580
357.754	591.4
358.153	594.5
358.552	617.1
358.951	588.4
359.35	599.1
359.75	586.7
360.149	583.8
360.527	575.1
360.926	583.5
361.326	589.8
361.726	587.4
362.125	589.5
362.525	598.3
362.925	587.1
363.325	586.4
363.724	588.5
364.124	583.4
364.524	582.4
364.924	583.7
365.324	597.5
365.725	574.3
366.125	598.4
366.525	591.4
366.904	579.9
367.304	571.9
367.705	602.5
368.105	601.1
368.506	581.8
368.906	592.9
369.307	587.6
369.708	591.7
370.108	577.5
370.509	596.8
370.91	573.1
371.311	587.3
371.712	592.6
372.113	590.1
372.514	575.3
372.894	579.2
373.295	579.5
373.696	597.1
374.097	590.7
374.499	620.5
374.9	590.5
375.301	581.4
375.703	586.9
376.105	579.3
376.506	589.4
376.908	585.2
377.309	588.2
377.711	590.3
378.113	587.1
378.493	587.6
378.895	580.6
379.297	598.5
379.699	573.5
380.102	594.6
380.504	590.9
380.906	584.4
381.308	611.9
381.71	586.8
382.113	591.7
382.515	586
382.918	590
383.299	590.5
383.701	591.7
384.104	591.1
384.507	570.2
384.909	588.3
385.312	569.6
385.715	577.1
386.118	573.8
386.521	578.6
386.924	595.7
387.327	577.4
387.709	577.3
388.112	571.9
388.515	581.5
388.918	583.1
389.322	594.9
389.725	584.1
390.129	604.5
390.532	585.5
390.936	579.7
391.339	576.9
391.743	588.3
392.125	581.4
392.529	589.4
392.933	596.8
393.337	584.2
393.74	583.7
394.144	588.1
394.548	580.6
394.953	581.1
395.357	589.3
395.761	585.4
396.144	587.2
396.548	586.2
396.952	578.5
397.357	584
397.761	587.6
398.166	577.5
398.57	587.7
398.975	578.5
399.379	590.8
399.763	628.1
400.168	584.6
400.572	578.2
400.977	588.6
401.382	606.1
401.787	594.5
402.192	602.5
402.597	599
403.002	576.8
403.386	597.2
403.791	599.7
404.197	582.4
404.602	583.6
405.007	587.7
405.413	580.3
405.818	571.2
406.224	579.9
406.608	582.9
407.014	575.6
407.42	601.6
407.825	580.2
408.231	595.1
408.637	589
409.043	602.8
409.449	576.9
409.834	575.7
410.24	589.9
410.646	595.8
411.052	596.4
411.458	591.4
411.865	594.8
412.271	596.1
412.677	589.3
413.062	596.8
413.469	576.2
413.875	612.2
414.282	595.8
414.689	590.1
415.095	597.2
415.502	582.4
415.888	587.1
416.294	572.6
416.701	622.6
417.108	581
417.515	591.4
417.923	575.6
418.33	612.6
418.715	595.3
419.123	583.1
419.53	581
419.937	586.7
420.345	595.9
420.752	583.9
421.16	604.1
421.546	584
421.953	592.3
422.361	579.1
422.769	591.2
423.177	579.8
423.585	610.3
423.992	610.7
424.379	596.7
424.787	594.7
425.195	605.5
425.603	588.7
426.011	602
426.419	602.3
426.806	590
427.214	590.7
427.623	595.5
428.031	611.8
428.44	595.8
428.848	603.9
429.235	611.3
429.644	594
430.053	586.1
430.461	604.5
430.87	611.5
431.279	598.3
431.666	580.6
432.075	589.7
432.484	590
432.893	584.4
433.302	605
433.711	627.4
434.099	591.4
434.508	588.2
434.918	577.8
435.327	601
435.737	591.3
436.125	589.9
436.534	587.7
436.944	589.8
437.353	589.2
437.763	611.6
438.173	581.4
438.561	596.5
438.971	567.6
439.381	593.6
439.791	585.2
440.201	566.9
440.589	589.7
440.999	599.3
441.409	590.6
441.819	581.3
442.23	596.5
442.619	595.2
443.029	588.8
443.439	592
443.85	596.4
444.26	601.4
444.649	598.2
445.06	586.4
445.471	578.5
445.881	591.5
446.292	601.2
446.682	609.6
447.092	575.2
447.503	637.1
447.914	583.8
448.325	581.9
448.715	592.6
449.126	580
449.537	589.1
449.948	580.9
450.338	583.8
450.75	591.7
451.161	586
451.572	593.5
451.984	580.3
452.374	572.6
452.786	583.6
453.197	584.3
453.609	586.4
453.999	567.7
454.411	572.3
454.823	596.4
455.235	587.8
455.647	582.5
456.037	587.2
456.449	566.9
456.862	581.1
457.274	588.3
457.665	570.3
458.077	590.8
458.489	597.6
458.902	583
459.293	582.7
459.705	587.2
460.118	571.2
460.53	584.7
460.921	588.7
461.334	589.9
461.747	577.2
462.16	595
462.551	599.8
462.964	586.1
463.377	575.3
463.79	577.7
464.182	590.3
464.595	572.5
465.008	588.1
465.421	589.6
465.813	578
466.226	586.7
466.64	577.1
467.053	625.7
467.445	592.4
467.859	583.8
468.272	580.9
468.686	595
469.078	578.9
469.492	571.1
469.906	582.4
470.298	584.4
470.712	576.1
471.126	611.6
471.54	570.6
471.933	581.2
472.347	583.9
472.761	580.5
473.175	568.4
473.568	577.7
473.982	570.9
474.397	584.5
474.79	575
475.204	587.3
475.619	581
476.033	584.1
476.426	583.7
476.841	573.9
477.256	602.8
477.649	574
478.064	568.1
478.479	574.7
478.872	577.7
479.287	567.2
479.702	573.5
480.118	576
480.511	576.5
480.927	567.2
481.342	573.6
481.736	584.1
482.151	572.2
482.566	590.8
482.96	581
483.376	586.3
483.792	581.7
484.186	586.9
484.602	572.5
485.017	577.4
485.412	581.1
485.827	583.4
486.243	578.2
486.638	595.9
487.054	587.2
487.47	592.1
487.865	575.3
488.281	581.9
488.697	572
489.092	575.9
489.508	566.5
489.925	584.6
490.32	568.7
490.736	580.4
491.153	579.6
491.548	587.1
491.964	591.6
492.381	564.4
492.776	581.4
493.193	580.9
493.61	588.1
494.006	575.3
494.422	580.2
494.84	569
495.235	583.3
495.652	581.8
496.069	580.4
496.465	566.2
496.883	575.9
497.3	603.7
497.696	577.9
498.113	584.2
498.509	570.7
498.927	568.1
499.344	570.5
499.741	572.8
500.158	580.4
500.576	587
500.973	575.9
501.39	564.1
501.787	576.4
502.205	577.7
502.623	568.6
503.02	565.3
503.438	577.9
503.856	571.8
504.253	579.1
504.671	574.9
505.068	569.6
505.486	575.9
505.905	600.3
506.302	574.7
506.72	585.3
507.118	568.2
507.536	572.1
507.955	570.3
508.352	580.9
508.771	587.6
509.169	580.6
509.587	568.4
510.006	579.4
510.404	557.2
510.823	567.7
511.221	575.6
511.64	572.6
512.038	584.5
512.457	569.1
512.877	574.7
513.275	569.8
513.694	567.7
514.092	574.6
514.512	579.3
514.91	573.3
515.33	577.5
515.749	574.8
516.148	576.7
516.568	573.6
516.966	576.4
517.386	567.2
517.785	576.3
518.205	570.5
518.603	565.5
519.024	566.8
519.444	580.2
519.843	583.3
520.263	578
520.662	579.3
521.082	578.2
521.481	577.3
521.902	571.4
522.301	573.9
522.722	572.6
523.121	572.6
523.542	576.3
523.963	569
524.362	572.5
524.783	578.3
525.183	577.3
525.604	579.2
526.003	561.9
526.425	564.2
526.824	582.8
527.246	580.8
527.646	587.5
528.067	572.3
528.467	573.4
528.888	580
529.289	568.6
529.71	573
530.11	569.5
530.532	564
530.932	563.3
531.354	558.3
531.755	607
532.176	579.6
532.577	573.7
532.999	571
533.4	572.5
533.822	581.8
534.223	578.3
534.645	571.5
535.046	574.7
535.468	570.9
535.869	583.9
536.292	571.8
536.693	575.8
537.115	575
537.516	568.5
537.939	570.4
538.34	589.8
538.742	581.1
539.165	585.8
539.566	573.2
539.989	564.6
540.391	570.3
540.814	580.9
541.216	580.3
541.639	576.4
542.041	585.2
542.464	570.6
542.866	568.6
543.268	566.4
543.691	578.9
544.093	577.4
544.517	586.7
544.919	559.1
545.343	601.8
545.745	563.4
546.147	574.3
546.571	574.4
546.974	564.4
547.398	572
547.8	581.5
548.224	571.3
548.627	570.1
549.03	576.9
549.454	564.6
549.857	564.1
550.281	568.3
550.684	569.8
551.087	582.4
551.512	579.5
551.915	580.8
552.34	577.8
552.743	571.4
553.146	573.4
553.571	571.4
553.975	587.1
554.399	564.1
554.803	620.8
555.207	568.3
555.632	563.4
556.036	579.5
556.461	562.2
556.865	577.8
557.268	569
557.694	569.2
558.098	573.5
558.502	576.7
558.927	568.3
559.332	567.7
559.736	567.8
560.162	577.7
560.566	568.3
560.992	579.4
561.396	571.1
561.801	565.8
562.227	576.5
562.631	569.7
563.036	564.6
563.462	580.1
563.867	569.5
564.272	561.9
564.698	574.7
565.103	561
565.508	591.4
565.935	575
566.34	572.3
566.745	577.9
567.172	571.6
567.577	593.3
567.982	582.9
568.409	575.6
568.815	562.6
569.22	572.6
569.626	580.3
570.053	560.2
570.459	573.5
570.865	577.8
571.292	574.5
571.698	579.7
572.104	554.9
572.531	569.5
572.937	580.7
573.343	567.5
573.75	567.1
574.177	573.5
574.583	578.7
574.99	573.7
575.396	579.3
575.824	567.4
576.231	576.5
576.637	563.7
577.065	590.1
577.472	574
577.879	567.2
578.286	583.3
578.714	563.2
579.121	566.1
579.528	572
579.935	577.5
580.364	571.4
580.771	561.8
581.178	564.8
581.585	576.3
582.014	578.6
582.421	566.8
582.829	570.3
583.236	575
583.644	567.9
584.073	567.9
584.481	573.8
584.889	563.3
585.296	575.8
585.726	571.2
586.134	570.4
586.542	563.1
586.95	588.3
587.358	566.8
587.787	574.1
588.196	561.5
588.604	567.5
589.012	563.9
589.421	569.1
589.851	568.5
590.259	576
590.668	568.1
591.076	609.8
591.485	565
591.894	573.4
592.324	588.4
592.733	584
593.142	562.1
593.551	567.9
593.96	605.6
594.369	558.2
594.8	560.1
595.209	567.9
595.618	560.8
596.028	567.3
596.437	557.9
596.847	564.7
597.256	570.2
597.687	571.5
598.097	570.6
598.507	560.5
598.917	568.9
599.327	575
599.736	565
600.146	573.6
600.556	571.7
600.988	578.2
601.398	561
601.808	580.5
602.219	557.6
602.629	570.1
603.039	571.4
603.45	596.8
603.86	574.4
604.271	584.2
604.703	571.3
605.114	570.9
605.525	571.7
605.935	573.8
606.346	586.4
606.757	573.2
607.168	570.4
607.579	566.5
607.99	584.5
608.402	570.4
608.813	573.6
609.224	565.9
609.636	556.9
610.047	559.7
610.48	570.9
610.892	578.9
611.303	573.8
611.715	567
612.127	562.4
612.539	564.2
612.95	564.8
613.362	554.5
613.774	559.4
614.186	558.7
614.599	561.7
615.011	575.9
615.423	554.1
615.835	569.4
616.248	558.1
616.66	573.8
617.073	560
617.485	567.8
617.898	570.8
618.311	566.2
618.723	573.7
619.136	591.8
619.549	581
619.962	590.7
620.375	561
620.788	566.9
621.201	566.1
621.614	573.7
622.028	568.1
622.441	570.5
622.854	577.1
623.268	563.9
623.681	573.3
624.095	567
624.509	579.7
624.922	569
625.336	557.3
625.728	566.7
626.142	577.2
626.556	585.9
626.97	580.9
627.384	564.1
627.799	566.6
628.213	577.6
628.627	566.1
629.041	565.7
629.456	566.7
629.87	573
630.285	575
630.699	577.6
631.093	562.8
631.507	570.1
631.922	573.9
632.337	579
632.752	563.7
633.167	567
633.582	564.1
633.997	562.1
634.412	565.3
634.806	570.5
635.221	560.2
635.637	581
636.052	562.9
636.468	568
636.883	590.9
637.299	563.1
637.715	561.9
638.109	570.5
638.525	559.9
638.941	580
639.357	575.4
639.773	573.6
640.189	564.2
640.584	568.8
641	570.2
641.416	554.3
641.832	562.5
642.249	560.6
642.665	570.3
643.06	571.2
643.477	575.7
643.894	560.4
644.31	562.8
644.727	560.9
645.123	566.4
645.54	561
645.957	565.5
646.374	579.3
646.77	566.6
647.187	596.4
647.604	566.4
648.021	553.9
648.439	562.7
648.835	567.3
649.252	565.8
649.67	568.3
650.088	567
650.484	572.1
650.902	574.2
651.32	572.4
651.738	560.5
652.134	574
652.552	585
652.971	577.5
653.389	565.3
653.786	580.5
654.204	567.5
654.622	561.9
655.019	564.2
655.438	572.3
655.857	571.8
656.275	569.1
656.673	557.3
657.091	634.8
657.51	561.7
657.908	576.7
658.327	577.7
658.746	555.9
659.144	567.4
659.563	581
659.982	569.3
660.38	556.9
660.8	571.7
661.219	581.4
661.617	573.8
662.037	567.1
662.457	577.5
662.855	555.3
663.275	597.4
663.695	568.5
664.094	564.5
664.514	568.9
664.934	562.2
665.333	573
665.753	561.7
666.152	561
666.572	562.1
666.993	579.2
667.392	565.5
667.812	562.3
668.212	557.3
668.632	570.9
669.053	563.1
669.453	574.2
669.874	568.2
670.273	565.9
670.694	557.7
671.116	584.7
671.515	579.2
671.937	566.9
672.337	565.1
672.758	561.4
673.158	576.6
673.58	563.2
673.98	568.4
674.402	579.4
674.824	568.6
675.224	560
675.646	558.9
676.047	563.9
676.469	561.8
676.869	570.7
677.292	570.3
677.693	558.1
678.115	558.2
678.516	573.2
678.939	571.7
679.34	560.1
679.762	580
680.164	573
680.586	562.2
680.988	568.7
681.411	591.7
681.812	563
682.236	555.9
682.637	555.2
683.061	556.7
683.462	570.9
683.864	562.1
684.288	574.1
684.69	558.1
685.114	580
685.516	574.4
685.94	563.2
686.342	574.2
686.766	562
687.168	563
687.571	578.6
687.995	561.9
688.398	560.6
688.822	562.3
689.225	583.1
689.628	585.4
690.052	562.6
690.456	573.8
690.88	564.5
691.284	552.8
691.687	570.6
692.112	560.9
692.515	557.5
692.919	567.5
693.344	566.1
693.747	558.8
694.173	561.2
694.577	572.3
694.98	559.3
695.406	562.9
695.81	562.2
696.214	573.2
696.64	567.4
697.044	571.3
697.448	572.1
697.874	559.9
698.279	560.1
698.684	555.2
699.11	560.5
699.514	566.3
699.919	561.5
700.324	561.4
700.75	564.3
701.156	568.1
701.561	571.8
701.987	573.1
702.393	571.5
702.798	577.1
703.203	567.3
703.63	561.2
704.036	561.2
704.442	565.7
704.847	563.4
705.274	560.9
705.68	569.2
706.086	572.1
706.492	557.2
706.92	560.6
707.326	574.5
707.732	562.2
708.139	559.3
708.545	560.1
708.973	559.1
709.38	565.9
709.786	557.1
710.193	575.6
710.6	566.9
711.028	557.5
711.435	560.2
711.842	565.8
712.249	563.9
712.656	556.6
713.064	573.4
713.492	557.5
713.9	558.5
714.307	564.5
714.715	561.9
715.123	562.8
715.53	562.5
715.938	572.4
716.367	565.7
716.775	561.8
717.184	557.2
717.592	567.3
718	566.2
718.408	594.7
718.816	611.7
719.225	567.1
719.633	562.7
720.042	558.9
720.472	560.6
720.881	578.5
721.29	568.7
721.699	556.6
722.108	568.4
722.517	561.8
722.926	560.4
723.335	576.6
723.744	564
724.154	566.1
724.563	567.5
724.973	565
725.382	562.2
725.792	565.5
726.202	556.4
726.612	575.2
727.022	563.1
727.432	553.4
779.813	565
780.223	602.6
780.634	556.6
781.044	564.1
781.454	567.2
781.865	578.7
782.276	553.4
782.686	569.6
783.097	562.7
783.508	566.2
783.919	573.3
784.33	579.1
784.741	572.4
785.152	560.3
785.563	549.7
785.974	560.3
786.386	572
786.776	565.6
787.188	560.2
787.599	564.8
788.011	570
788.423	567.8
788.835	560.9
789.247	549
789.659	556.9
790.071	557.8
790.483	599.6
790.874	561
791.286	567.5
791.699	555.5
792.111	558.2
792.524	560.9
792.937	568.6
793.349	555.4
793.741	554.2
794.154	556.5
794.567	583.8
794.98	558.6
795.393	549.8
795.785	580.2
796.198	559.9
796.612	559.7
797.026	561.4
797.439	547.6
797.831	558.7
798.245	547.3
798.659	561.4
799.073	560
799.487	558.7
799.88	562.7
800.294	560.8
800.708	562.1
801.123	564.9
801.516	575.7
801.93	555.3
802.345	548.2
802.76	559.8
803.153	571.3
803.568	574.6
803.983	566.7
804.377	563.7
804.792	549.2
805.207	544.4
805.601	560.5
806.016	599.9
806.432	555.3
806.826	592
807.242	573.8
807.658	567.4
808.052	567.8
808.468	562.8
808.884	557.2
809.279	564
809.695	568.5
810.111	577.9
810.506	567.3
810.922	574.5
811.339	553.4
811.734	567.7
812.151	557.9
812.546	557.1
812.963	556.2
813.38	563.4
813.776	558.6
814.193	584.2
814.589	557.5
815.006	559.5
815.402	556.5
815.82	559.8
816.237	559.9
816.633	563
817.051	557.1
817.448	563.7
817.866	554.5
818.262	580.1
818.68	553.8
819.077	556.4
819.495	561.9
819.892	604
820.311	553.5
820.708	561.7
821.127	556.3
821.524	568.5
821.943	560
822.34	581.3
822.759	565.4
823.157	561.5
823.576	571.5
823.974	564.3
824.393	572.7
824.791	564.2
825.189	554.2
825.609	557.4
826.007	561.6
826.427	549
826.826	564.1
827.246	564
827.644	547.6
828.043	574.4
828.463	556.4
828.862	564.4
829.261	568.5
829.682	549.3
830.081	565.8
830.502	554.7
830.901	570.5
831.301	555.5
831.722	549.8
832.121	554.9
832.521	554.6
832.943	564.6
833.342	561.5
833.742	555.7
834.164	557.8
834.564	553.3
834.965	559.5
835.386	562
835.787	561.7
836.188	561
836.588	561.1
837.01	563.6
837.411	553.7
837.812	567
838.213	557.4
838.636	554
839.037	622.7
839.438	561.2
839.84	561.8
840.263	567.8
840.664	561.9
841.066	556.6
841.468	565.1
841.891	554.1
842.293	566.4
842.695	565.3
843.098	571.2
843.5	559.8
843.902	566.4
844.326	567.3
844.729	565.2
845.131	567.1
845.534	561.5
845.937	563.6
846.34	578.6
846.764	554.3
847.167	561.6
847.571	555.5
