#lambda/nm	C1
208.295	477.5
208.67	445.1
209.045	408.2
209.419	411.5
209.794	586.8
210.169	566.3
210.544	681.2
210.919	584.9
211.295	577.2
211.67	586.3
212.045	575.8
212.421	569.2
212.796	607.9
213.172	570.5
213.547	573.7
213.923	579.4
214.299	574.4
214.675	584.2
215.051	582.5
215.427	580
215.803	597.2
216.179	584.9
216.555	566.9
216.932	579.4
217.308	575.7
217.684	580.4
218.061	584.1
218.438	580.9
218.814	573.4
219.191	585.4
219.568	574
219.945	578.4
220.322	588.7
220.699	576.1
221.076	586.9
221.453	581.4
221.83	577.1
222.208	571
222.585	573.1
222.962	579.1
223.34	583.7
223.717	582.5
224.095	579.3
224.473	579.7
224.851	571.4
225.229	567.7
225.607	601.2
225.985	568.4
226.363	580.7
226.741	580.5
227.119	573.1
227.497	585.1
227.876	565
228.254	584.1
228.633	590.1
229.011	581.5
229.39	581.8
229.769	583.7
230.148	585.9
230.527	592.2
230.905	583
231.284	586.6
231.664	571.2
232.043	597.1
232.422	588.7
232.801	572.4
233.181	584.5
233.56	571.8
233.94	580.3
234.319	565.1
234.699	576.7
235.079	616.8
235.458	613.9
235.838	592.3
236.218	573
236.598	570
236.978	572.4
237.358	574.6
237.738	573.1
238.119	576.5
238.499	567.8
238.88	577
239.26	591.5
239.641	572.7
240.021	577.3
240.402	578.1
240.783	572.5
241.163	572.9
241.544	587.1
241.925	582.2
242.306	594.7
242.687	575.6
243.069	579.5
243.45	589
243.831	570.3
244.212	578
244.594	611.4
244.975	584.3
245.357	579
245.739	573.3
246.12	582.2
246.502	591.1
246.884	578.3
247.266	577.6
247.648	585.9
248.03	601.7
248.412	579.8
248.794	584.6
249.176	573.8
249.559	585.9
249.941	577.3
250.323	570.7
250.706	570.1
251.089	579.4
251.471	585.4
251.854	581.1
252.237	579.6
252.62	587.1
253.002	579.8
253.385	584.8
253.769	594.1
254.152	578.8
254.535	584.5
254.918	574.7
255.301	574.6
255.685	576
256.068	573.8
256.452	599.7
256.835	588.6
257.219	586.7
257.603	591.5
257.986	563.3
258.37	578.7
258.754	576.4
259.138	590.8
259.522	587
259.906	577.1
260.29	582.3
260.675	578.1
261.059	579.3
261.443	572
261.828	584.6
262.212	589.7
262.597	572.4
262.981	579.3
263.366	589.5
263.751	578.9
264.136	579.2
264.521	575.6
264.906	571.6
265.291	589.3
265.676	573.9
266.061	581.7
266.446	597.6
266.831	582.1
267.217	597.8
267.602	585.3
267.987	579.7
268.373	578.4
268.759	587.7
269.144	588.2
269.53	582.7
269.916	577.3
270.302	576.7
270.688	585.8
271.074	578.3
271.46	587.7
271.846	605.6
272.232	579
272.618	577.1
273.004	574.4
273.391	584.5
273.777	587.5
274.164	585.4
274.55	593.8
274.937	579.6
275.324	577.2
275.71	579.3
276.097	584
276.484	573.4
276.871	584.5
277.258	585
277.645	566.6
278.032	579.4
278.419	576.4
278.807	585.4
279.194	569.6
279.581	573.6
279.969	583.6
280.356	583.8
280.744	588.1
281.131	601.1
281.519	586.9
281.907	580.2
282.295	577
282.682	589
283.07	584.8
283.458	590.9
283.846	587.6
284.235	592.6
284.623	583.6
285.011	572.8
285.399	578.7
285.788	580.2
286.176	570.9
286.565	591.6
286.953	573.8
287.342	574.9
287.731	573.3
288.119	568.5
288.508	579
288.897	580.8
289.286	564.9
289.675	580.4
290.064	588.8
290.453	576.7
290.821	580.4
291.21	595.1
291.599	577.1
291.989	580
292.378	589.2
292.768	604.4
293.157	578.7
293.547	586.3
293.936	581.3
294.326	576.1
294.716	582.8
295.106	574.4
295.496	583.7
295.886	589.7
296.276	577.9
296.666	580
297.056	569.1
297.446	568.8
297.836	598.7
298.227	579.6
298.617	582.2
299.008	592.9
299.398	576.2
299.789	575.4
300.179	580.6
300.57	596.6
300.961	576.1
301.352	575.4
301.742	590.1
302.133	579.8
302.524	583.4
302.915	584.1
303.307	569.1
303.698	589.3
304.089	580.5
304.48	583.5
304.872	584.4
305.263	583
305.655	575
306.046	583.6
306.438	585.9
306.829	578.7
307.221	589
307.613	590.1
308.005	592.1
308.397	591.8
308.789	603.5
309.181	601.1
309.573	600.4
309.965	592.4
310.357	577.2
310.749	588
311.142	572.7
311.534	574.4
311.926	580.7
312.319	579.5
312.711	574.5
313.104	591.2
313.497	578.7
313.889	615.5
314.282	599.9
314.675	602.7
315.068	579.8
315.461	590.6
315.854	607
316.247	585.8
316.64	575.9
317.033	578.5
317.405	588.2
317.798	578.9
318.192	584.9
318.585	572
318.979	584.3
319.372	573.9
319.766	576.3
320.16	591.7
320.553	592.3
320.947	597.4
321.341	581.8
321.735	578.7
322.129	569.6
322.523	609.8
322.917	572.8
323.311	593.4
323.705	586.3
324.099	584.1
324.494	601.6
324.888	590.7
325.282	579.5
325.677	584.7
326.071	587.3
326.466	596.7
326.861	587.7
327.255	592.6
327.65	596.6
328.045	598.4
328.44	577.8
328.835	583.9
329.23	575.1
329.625	604.7
330.02	572.1
330.415	603.5
330.81	584.9
331.206	585
331.601	577.4
331.996	584.5
332.37	587.9
332.766	567
333.161	603
333.557	575.4
333.953	587.6
334.348	950.6
334.744	581.7
335.14	578.6
335.536	579.1
335.932	585.1
336.328	585.6
336.724	591.5
337.12	581.7
337.516	580.7
337.913	581.9
338.309	591.5
338.705	577
339.102	596.8
339.498	581.6
339.895	598.4
340.291	580.3
340.688	589.9
341.085	576.5
341.481	579.1
341.878	581.7
342.275	596.4
342.672	569.3
343.069	572.6
343.466	570.5
343.842	591.2
344.239	575.7
344.636	581.7
345.033	571
345.431	573.3
345.828	583
346.225	574.8
346.623	590.3
347.02	578.6
347.418	590.8
347.816	592.5
348.213	580.3
348.611	589.4
349.009	576.7
349.407	591.1
349.805	566.7
350.203	568.4
350.601	586
350.999	576.8
351.397	569.2
351.795	583.9
352.193	588.1
352.57	585.2
352.969	589
353.367	569.8
353.766	573
354.164	575.6
354.563	587.9
354.961	576.6
355.36	571
355.759	580.4
356.158	571.1
356.557	568.7
356.956	567.5
357.355	561.6
357.754	579.9
358.153	585.8
358.552	600.5
358.951	577.5
359.35	580.2
359.75	573.8
360.149	566.2
360.527	563.4
360.926	564.6
361.326	580.7
361.726	567.4
362.125	570.1
362.525	578
362.925	576.8
363.325	578
363.724	579.5
364.124	570.4
364.524	571.7
364.924	574
365.324	585.8
365.725	562.6
366.125	575.6
366.525	573.6
366.904	567.9
367.304	559.1
367.705	591.9
368.105	586.9
368.506	569.7
368.906	581.1
369.307	573
369.708	577.2
370.108	562.7
370.509	583.2
370.91	564.9
371.311	575.2
371.712	573.4
372.113	572.4
372.514	564.8
372.894	574.2
373.295	569.6
373.696	583.3
374.097	581
374.499	601
374.9	571.9
375.301	569.8
375.703	577.5
376.105	567.4
376.506	580.2
376.908	577.4
377.309	572.9
377.711	578.7
378.113	566.5
378.493	573.6
378.895	570.8
379.297	579.8
379.699	565
380.102	572
380.504	574.1
380.906	568.2
381.308	593.2
381.71	571.4
382.113	577.8
382.515	569
382.918	575.9
383.299	570.9
383.701	575.8
384.104	575.3
384.507	558.1
384.909	569.3
385.312	557.2
385.715	560.5
386.118	567.9
386.521	558.1
386.924	578.4
387.327	566
387.709	560.9
388.112	558.5
388.515	566.9
388.918	571.6
389.322	574.3
389.725	573.3
390.129	591.1
390.532	581.8
390.936	569.9
391.339	565.6
391.743	579.8
392.125	565.6
392.529	582.9
392.933	585.5
393.337	575
393.74	575.1
394.144	574.4
394.548	566.5
394.953	568.8
395.357	579.6
395.761	566.1
396.144	569.9
396.548	572.7
396.952	574.6
397.357	569.1
397.761	569
398.166	571.4
398.57	565.6
398.975	566.3
399.379	574
399.763	617.1
400.168	571
400.572	576.6
400.977	569.7
401.382	589.3
401.787	584.8
402.192	585.8
402.597	589.2
403.002	564.8
403.386	579.6
403.791	585.6
404.197	568.7
404.602	570.6
405.007	574.8
405.413	565.2
405.818	558.7
406.224	561.5
406.608	568.5
407.014	564.9
407.42	588.3
407.825	569
408.231	576.9
408.637	580.5
409.043	587
409.449	569.2
409.834	568.5
410.24	574.9
410.646	577.8
411.052	579.1
411.458	575.7
411.865	580.4
412.271	582.5
412.677	572.8
413.062	576.5
413.469	560.5
413.875	591.7
414.282	587
414.689	575
415.095	575
415.502	565.6
415.888	568.1
416.294	556.1
416.701	612.6
417.108	565.8
417.515	577.5
417.923	568.6
418.33	592.8
418.715	579.6
419.123	567.7
419.53	567.7
419.937	576.6
420.345	588.4
420.752	570.6
421.16	588.4
421.546	578.9
421.953	586.4
422.361	568.2
422.769	578
423.177	565.5
423.585	597.8
423.992	591.7
424.379	578.9
424.787	583
425.195	597
425.603	574
426.011	585.2
426.419	589.5
426.806	580.8
427.214	580.5
427.623	581.1
428.031	593.9
428.44	578.5
428.848	586
429.235	588.7
429.644	570.8
430.053	578.1
430.461	589.5
430.87	604.1
431.279	587
431.666	573.2
432.075	574.3
432.484	579.3
432.893	572.2
433.302	593.3
433.711	617.9
434.099	581.7
434.508	575.2
434.918	569.3
435.327	579.9
435.737	579.1
436.125	577.4
436.534	575.5
436.944	576.4
437.353	584
437.763	596.4
438.173	562.6
438.561	582.5
438.971	563.3
439.381	573.4
439.791	577.5
440.201	557.3
440.589	572.1
440.999	575.5
441.409	572.3
441.819	566
442.23	580.5
442.619	574.8
443.029	577.2
443.439	571.6
443.85	581.5
444.26	585
444.649	577.2
445.06	566.5
445.471	568.4
445.881	575.4
446.292	582.4
446.682	589.7
447.092	557.8
447.503	617.5
447.914	571.7
448.325	570.8
448.715	570.8
449.126	564.7
449.537	571.1
449.948	563.7
450.338	569.7
450.75	575.8
451.161	573.6
451.572	576.2
451.984	560.7
452.374	556.3
452.786	572.9
453.197	572.2
453.609	576.4
453.999	556.8
454.411	561.4
454.823	581.3
455.235	577.4
455.647	571.5
456.037	575.9
456.449	556.4
456.862	566.5
457.274	570.5
457.665	562.1
458.077	574.7
458.489	584.5
458.902	570.5
459.293	575.5
459.705	578.5
460.118	561
460.53	575.8
460.921	572.6
461.334	573.8
461.747	563.8
462.16	578.8
462.551	578.3
462.964	571.6
463.377	558
463.79	569.1
464.182	572.2
464.595	557.9
465.008	570.2
465.421	573.5
465.813	565.1
466.226	574.3
466.64	565.4
467.053	610.9
467.445	578.6
467.859	570.9
468.272	574.3
468.686	578.7
469.078	563.5
469.492	556.9
469.906	568.8
470.298	571.5
470.712	562.6
471.126	602
471.54	557.9
471.933	563
472.347	569.2
472.761	561.5
473.175	556.4
473.568	564.7
473.982	558.3
474.397	568
474.79	567.4
475.204	571.8
475.619	563.7
476.033	567.2
476.426	564.3
476.841	554.7
477.256	588
477.649	559.5
478.064	565.3
478.479	558.3
478.872	555.3
479.287	547.9
479.702	554.4
480.118	561.6
480.511	562.8
480.927	550.3
481.342	558
481.736	564.5
482.151	553.2
482.566	576.2
482.96	562.2
483.376	574
483.792	559.6
484.186	566.9
484.602	558.8
485.017	565.1
485.412	566
485.827	569.1
486.243	566.7
486.638	585.4
487.054	578.2
487.47	577.5
487.865	569.9
488.281	560.8
488.697	559.2
489.092	567.4
489.508	555.8
489.925	571.1
490.32	557.8
490.736	572.3
491.153	572.1
491.548	563.9
491.964	575
492.381	552.8
492.776	570.4
493.193	565.4
493.61	571.5
494.006	564
494.422	569.1
494.84	555.1
495.235	573.1
495.652	561.8
496.069	570
496.465	560
496.883	562.6
497.3	582.9
497.696	563.1
498.113	566.4
498.509	556.6
498.927	553.8
499.344	553.7
499.741	561.1
500.158	569.5
500.576	573.1
500.973	561.6
501.39	556.7
501.787	554.6
502.205	558.8
502.623	556.6
503.02	543.7
503.438	552
503.856	558.3
504.253	560.7
504.671	562.7
505.068	554
505.486	555.3
505.905	581
506.302	557.6
506.72	567
507.118	549.4
507.536	557.6
507.955	555
508.352	562.5
508.771	561.8
509.169	566.2
509.587	556
510.006	559.1
510.404	549.1
510.823	557.7
511.221	557.6
511.64	559.4
512.038	569.9
512.457	561.3
512.877	560.7
513.275	558.8
513.694	561.9
514.092	562.1
514.512	565.6
514.91	561.2
515.33	565.8
515.749	560
516.148	562.6
516.568	559.4
516.966	562
517.386	561.7
517.785	560.1
518.205	555.5
518.603	554.9
519.024	555.2
519.444	567.1
519.843	575.3
520.263	565.9
520.662	560.4
521.082	556
521.481	564.5
521.902	557.4
522.301	565.2
522.722	559.8
523.121	564.4
523.542	555
523.963	560.8
524.362	558
524.783	563.8
525.183	558.4
525.604	565.2
526.003	552.8
526.425	554.4
526.824	570.8
527.246	563.8
527.646	569.1
528.067	561.8
528.467	563
528.888	571.8
529.289	561.7
529.71	561.9
530.11	559.1
530.532	560.9
530.932	555
531.354	549.8
531.755	590.4
532.176	570.2
532.577	562.9
532.999	563.2
533.4	555.7
533.822	569.5
534.223	560.1
534.645	554.2
535.046	556.8
535.468	568.1
535.869	573.8
536.292	555.1
536.693	558.3
537.115	561.4
537.516	551.7
537.939	557.7
538.34	577.2
538.742	567.3
539.165	566.2
539.566	558.6
539.989	558.9
540.391	563.3
540.814	559.8
541.216	568.4
541.639	561.4
542.041	569.3
542.464	559.6
542.866	554.9
543.268	553.2
543.691	560.2
544.093	560.4
544.517	582.2
544.919	549.6
545.343	584.9
545.745	553.9
546.147	560.8
546.571	553.5
546.974	552.8
547.398	558.1
547.8	566
548.224	554
548.627	551.8
549.03	566.7
549.454	553
549.857	548.9
550.281	555.4
550.684	554.8
551.087	562.6
551.512	562.5
551.915	566.2
552.34	560.5
552.743	556.9
553.146	562.2
553.571	557
553.975	575
554.399	554.3
554.803	605.5
555.207	552.7
555.632	545.7
556.036	558.4
556.461	551.8
556.865	557
557.268	550
557.694	561.9
558.098	559
558.502	564.6
558.927	557.3
559.332	548.5
559.736	549.4
560.162	566.6
560.566	555.3
560.992	561.8
561.396	564.4
561.801	557.1
562.227	555.2
562.631	556.4
563.036	556.7
563.462	562
563.867	558.6
564.272	548.3
564.698	560.2
565.103	550.4
565.508	575.8
565.935	561.4
566.34	552.2
566.745	569
567.172	551
567.577	574.8
567.982	567.6
568.409	562
568.815	556.5
569.22	556.6
569.626	566.9
570.053	545.8
570.459	566.2
570.865	561.1
571.292	558.7
571.698	557.5
572.104	546.1
572.531	550.4
572.937	562.2
573.343	558.1
573.75	557.6
574.177	557.7
574.583	562.2
574.99	556.4
575.396	556.8
575.824	554.3
576.231	560.2
576.637	554.6
577.065	580.1
577.472	548.5
577.879	553.4
578.286	566.9
578.714	542.8
579.121	556.5
579.528	557.3
579.935	566.1
580.364	555.5
580.771	546.4
581.178	550
581.585	564.8
582.014	556.3
582.421	559.3
582.829	558
583.236	563.9
583.644	544.8
584.073	557.2
584.481	554.3
584.889	554.3
585.296	560.7
585.726	563
586.134	548
586.542	556.7
586.95	579.9
587.358	553.9
587.787	557.9
588.196	549.8
588.604	555.8
589.012	551.6
589.421	551.5
589.851	551.5
590.259	564.2
590.668	556.4
591.076	588.6
591.485	550.5
591.894	561.3
592.324	566.5
592.733	572.4
593.142	540.7
593.551	558.4
593.96	568
594.369	545
594.8	543.8
595.209	549.3
595.618	537.5
596.028	550.5
596.437	544.6
596.847	546.8
597.256	559.8
597.687	558.1
598.097	558.8
598.507	543.3
598.917	553.3
599.327	557.1
599.736	553.9
600.146	558.1
600.556	560.7
600.988	566.3
601.398	552.3
601.808	568.1
602.219	542.1
602.629	552.8
603.039	557.9
603.45	575
603.86	555.4
604.271	568.6
604.703	551.1
605.114	552.8
605.525	557.5
605.935	565
606.346	576.9
606.757	562.7
607.168	555.6
607.579	553.3
607.99	569.3
608.402	559.6
608.813	556.3
609.224	553.8
609.636	543.3
610.047	548.9
610.48	557.6
610.892	557.6
611.303	567.4
611.715	553
612.127	549.8
612.539	557
612.95	556
613.362	545.7
613.774	546.1
614.186	550.1
614.599	550.3
615.011	556.1
615.423	545.8
615.835	553.2
616.248	552.2
616.66	556.9
617.073	553.1
617.485	551.4
617.898	563.4
618.311	558.9
618.723	550.8
619.136	582.7
619.549	570.3
619.962	577.3
620.375	555.8
620.788	565.7
621.201	551.5
621.614	561.4
622.028	549.3
622.441	557.4
622.854	567.4
623.268	548.3
623.681	561.8
624.095	557.6
624.509	562.1
624.922	563.3
625.336	545.9
625.728	560.3
626.142	562.1
626.556	567.4
626.97	559.3
627.384	551.6
627.799	547.7
628.213	558.9
628.627	552.1
629.041	550.9
629.456	553.8
629.87	553.1
630.285	565
630.699	561.6
631.093	552.9
631.507	556.9
631.922	562.8
632.337	572.3
632.752	549.4
633.167	559
633.582	554
633.997	553.2
634.412	546.2
634.806	554.4
635.221	549.2
635.637	565.7
636.052	551.1
636.468	554.6
636.883	566.3
637.299	553.8
637.715	541.6
638.109	553.9
638.525	542.7
638.941	564.5
639.357	559.3
639.773	562.1
640.189	545.7
640.584	556.3
641	559.2
641.416	539.7
641.832	552.7
642.249	548.1
642.665	554.6
643.06	560.7
643.477	563.6
643.894	540.7
644.31	550.8
644.727	548.4
645.123	549.8
645.54	549.4
645.957	552.6
646.374	557
646.77	553.6
647.187	582.1
647.604	553.5
648.021	540.3
648.439	545
648.835	552.1
649.252	553.7
649.67	552.1
650.088	550.5
650.484	558.6
650.902	558.2
651.32	562.3
651.738	550
652.134	558
652.552	565.4
652.971	559
653.389	550.2
653.786	564.5
654.204	554.8
654.622	545.3
655.019	550.6
655.438	558.8
655.857	554.8
656.275	553.5
656.673	547.3
657.091	612.7
657.51	549.6
657.908	561
658.327	568.2
658.746	545
659.144	555.2
659.563	560.5
659.982	553.3
660.38	541.4
660.8	553.9
661.219	566.3
661.617	558.6
662.037	557.8
662.457	566.7
662.855	541
663.275	577.9
663.695	555.3
664.094	550.8
664.514	553.6
664.934	541.6
665.333	557.3
665.753	545.8
666.152	548.8
666.572	543.3
666.993	559.2
667.392	548.2
667.812	548.2
668.212	548.6
668.632	560.9
669.053	550.2
669.453	551.8
669.874	556.9
670.273	551
670.694	542.1
671.116	563.1
671.515	557.7
671.937	551.6
672.337	543.9
672.758	544.5
673.158	560.3
673.58	543.6
673.98	552.8
674.402	566.3
674.824	551
675.224	549.7
675.646	548.3
676.047	546.9
676.469	550
676.869	556.6
677.292	554.5
677.693	548.7
678.115	548.9
678.516	561.2
678.939	560.9
679.34	551.4
679.762	568.8
680.164	558.1
680.586	545.3
680.988	548.2
681.411	571
681.812	549.8
682.236	547.5
682.637	545.7
683.061	543.9
683.462	559.9
683.864	548.4
684.288	555.2
684.69	548.6
685.114	556.2
685.516	563.9
685.94	542.9
686.342	558.5
686.766	547.2
687.168	548.4
687.571	564.4
687.995	551.4
688.398	544.2
688.822	545.9
689.225	567.4
689.628	572.9
690.052	545.4
690.456	554.4
690.88	551.3
691.284	535.9
691.687	558.5
692.112	548.6
692.515	547.2
692.919	549.9
693.344	551.8
693.747	545.6
694.173	544
694.577	561.4
694.98	551
695.406	545.1
695.81	554.9
696.214	554.9
696.64	552.7
697.044	556.5
697.448	557
697.874	547.5
698.279	545.2
698.684	535.7
699.11	542
699.514	552.8
699.919	542.4
700.324	538.5
700.75	552.5
701.156	554.3
701.561	563.1
701.987	552.8
702.393	561.4
702.798	563.9
703.203	547.1
703.63	550.1
704.036	547
704.442	549.6
704.847	547.3
705.274	555.1
705.68	555.1
706.086	559.7
706.492	547.9
706.92	551.7
707.326	559.6
707.732	552.5
708.139	547.6
708.545	542.6
708.973	548.3
709.38	550.5
709.786	542.2
710.193	567.3
710.6	555.1
711.028	542.9
711.435	555.7
711.842	551.9
712.249	544.7
712.656	548.1
713.064	558
713.492	544.6
713.9	552.7
714.307	554
714.715	552.1
715.123	554
715.53	555.9
715.938	557.5
716.367	550.3
716.775	549.5
717.184	547
717.592	550.2
718	560.8
718.408	586.3
718.816	588.7
719.225	557.2
719.633	555.7
720.042	546.4
720.472	550.3
720.881	566
721.29	551.5
721.699	543.8
722.108	554.1
722.517	554.2
722.926	547.2
723.335	558
723.744	557.9
724.154	556.7
724.563	551.3
724.973	553.5
725.382	549.7
725.792	551.6
726.202	546.2
726.612	561.2
727.022	550.9
727.432	547.4
779.813	550.9
780.223	591.2
780.634	550.4
781.044	544.9
781.454	552.4
781.865	560.9
782.276	538.9
782.686	557.9
783.097	547
783.508	548.4
783.919	553.8
784.33	564.3
784.741	558.6
785.152	546.3
785.563	534.8
785.974	545
786.386	561.5
786.776	545.8
787.188	551.3
787.599	539.5
788.011	554.9
788.423	551.3
788.835	546.1
789.247	536.3
789.659	549
790.071	543.9
790.483	590.4
790.874	546.5
791.286	556.5
791.699	548.3
792.111	548.8
792.524	549.4
792.937	550
793.349	537.3
793.741	543.7
794.154	549.5
794.567	562.6
794.98	546.4
795.393	542.6
795.785	560.8
796.198	548.9
796.612	549.8
797.026	546.1
797.439	531.1
797.831	541.3
798.245	539.5
798.659	547.7
799.073	546
799.487	535.7
799.88	547.9
800.294	551.5
800.708	550.5
801.123	550.7
801.516	563.3
801.93	542.2
802.345	530.5
802.76	545
803.153	563.1
803.568	562.9
803.983	554
804.377	547.3
804.792	538.5
805.207	529.8
805.601	547.3
806.016	581.8
806.432	542.5
806.826	575.6
807.242	565.1
807.658	552.7
808.052	539.5
808.468	541.1
808.884	537.4
809.279	544.4
809.695	559.9
810.111	564.4
810.506	549.3
810.922	564.8
811.339	544.7
811.734	554.9
812.151	546.5
812.546	546.1
812.963	542.3
813.38	551.7
813.776	546.2
814.193	564
814.589	542.7
815.006	543.9
815.402	540.5
815.82	543.6
816.237	543.6
816.633	551.5
817.051	534.3
817.448	546.3
817.866	533
818.262	558.7
818.68	540.5
819.077	543.2
819.495	548.4
819.892	585.6
820.311	537.2
820.708	541.3
821.127	540
821.524	551.3
821.943	547.5
822.34	563.4
822.759	547.1
823.157	550.8
823.576	560.1
823.974	558.1
824.393	557.3
824.791	547
825.189	537
825.609	546.9
826.007	545
826.427	538.5
826.826	542.5
827.246	551.1
827.644	535.7
828.043	555
828.463	538.2
828.862	556.5
829.261	550.7
829.682	539.8
830.081	551.2
830.502	540.5
830.901	552.3
831.301	543.2
831.722	532.8
832.121	545.4
832.521	541.3
832.943	549.4
833.342	552.4
833.742	538.8
834.164	545.7
834.564	532.2
834.965	542.1
835.386	545.8
835.787	542.1
836.188	541.1
836.588	545.8
837.01	542.7
837.411	540.4
837.812	545.5
838.213	552.1
838.636	541.7
839.037	616.1
839.438	544.9
839.84	546.1
840.263	552.1
840.664	556.2
841.066	546.5
841.468	549
841.891	535.8
842.293	555.7
842.695	551.1
843.098	553.9
843.5	539.8
843.902	547.7
844.326	551
844.729	540.2
845.131	558.4
845.534	544.3
845.937	556.3
846.34	559.7
846.764	536.3
847.167	544.8
847.571	541.9
847.974	542.7
848.377	544.8
