#lambda/nm	C1
208.295	476.8
208.67	440.3
209.045	407.5
209.419	406.1
209.794	586
210.169	553.1
210.544	672.7
210.919	577.2
211.295	563.1
211.67	574
212.045	572.8
212.421	569.9
212.796	604.1
213.172	566.3
213.547	569.3
213.923	567.3
214.299	568
214.675	581.5
215.051	571.3
215.427	576
215.803	593.8
216.179	575.9
216.555	557.3
216.932	577.2
217.308	575.5
217.684	574.1
218.061	577.9
218.438	574.2
218.814	571.6
219.191	581.9
219.568	562.7
219.945	569.4
220.322	576.8
220.699	577.6
221.076	582.2
221.453	576.2
221.83	564.5
222.208	568.8
222.585	569.2
222.962	575.5
223.34	573.2
223.717	571.7
224.095	568.6
224.473	575.2
224.851	569.6
225.229	563.4
225.607	590.8
225.985	556.1
226.363	572.8
226.741	571.7
227.119	569.8
227.497	582.2
227.876	558
228.254	581.9
228.633	573.1
229.011	566.4
229.39	574.9
229.769	578.8
230.148	576
230.527	586.8
230.905	575.1
231.284	574.4
231.664	570.1
232.043	585.7
232.422	577.4
232.801	571
233.181	578.6
233.56	566.7
233.94	576.9
234.319	560.5
234.699	568.6
235.079	608.3
235.458	606.9
235.838	592.5
236.218	570.2
236.598	561.2
236.978	567.6
237.358	564
237.738	568.6
238.119	576.2
238.499	559.9
238.88	568.5
239.26	592.8
239.641	564
240.021	571.6
240.402	572
240.783	563.2
241.163	565
241.544	572.3
241.925	572.9
242.306	585.3
242.687	568.1
243.069	570.4
243.45	578.1
243.831	569.2
244.212	567.2
244.594	604.3
244.975	582.7
245.357	568.9
245.739	566.2
246.12	571.8
246.502	583.9
246.884	571.8
247.266	570
247.648	573.4
248.03	593.2
248.412	576.2
248.794	577.6
249.176	568.1
249.559	584
249.941	568.1
250.323	565.3
250.706	569.3
251.089	570.5
251.471	570
251.854	562
252.237	567.6
252.62	581.2
253.002	569.6
253.385	570.6
253.769	581.6
254.152	572.1
254.535	577.8
254.918	567.7
255.301	570.9
255.685	564.3
256.068	566.1
256.452	596.1
256.835	580.9
257.219	580.2
257.603	581.4
257.986	563.8
258.37	579
258.754	561.9
259.138	573.8
259.522	581.2
259.906	572.1
260.29	576.4
260.675	570.3
261.059	574.7
261.443	568.8
261.828	578.9
262.212	572.1
262.597	560.7
262.981	568.2
263.366	581.7
263.751	575.1
264.136	568
264.521	568.7
264.906	564.1
265.291	580.3
265.676	567.7
266.061	573.7
266.446	588
266.831	572.1
267.217	593.4
267.602	566.9
267.987	577.3
268.373	571.4
268.759	580.2
269.144	573.3
269.53	568.9
269.916	568.8
270.302	569.8
270.688	574.6
271.074	575.9
271.46	587.6
271.846	605.4
272.232	569.9
272.618	571.3
273.004	572.1
273.391	580.2
273.777	580.5
274.164	581
274.55	588.3
274.937	575.9
275.324	571.3
275.71	577
276.097	578.5
276.484	566
276.871	571.9
277.258	576.5
277.645	563.1
278.032	572.4
278.419	572.4
278.807	574.3
279.194	572.3
279.581	567.6
279.969	578.1
280.356	578.8
280.744	574.5
281.131	597.7
281.519	578.5
281.907	568.6
282.295	573.4
282.682	582.4
283.07	575.4
283.458	577.7
283.846	585.4
284.235	581.1
284.623	583
285.011	562.8
285.399	571.7
285.788	570.3
286.176	562.3
286.565	585.5
286.953	566.9
287.342	567.9
287.731	567.8
288.119	565.4
288.508	571
288.897	572.8
289.286	560.7
289.675	575.3
290.064	581.9
290.453	567
290.821	571.3
291.21	592.2
291.599	571.6
291.989	574
292.378	580.5
292.768	589.2
293.157	580.1
293.547	582.8
293.936	569.9
294.326	570.8
294.716	572
295.106	571.8
295.496	579.3
295.886	582.6
296.276	573.7
296.666	564.3
297.056	566.8
297.446	557.1
297.836	587.1
298.227	570.1
298.617	568.9
299.008	585.9
299.398	575.6
299.789	570.2
300.179	574.8
300.57	586.3
300.961	565.2
301.352	569.9
301.742	578.9
302.133	572.9
302.524	568
302.915	573.2
303.307	558.8
303.698	580
304.089	576.5
304.48	569.1
304.872	579.1
305.263	570.4
305.655	564.2
306.046	571.6
306.438	576.4
306.829	565.4
307.221	588
307.613	574.9
308.005	585.6
308.397	583.2
308.789	595
309.181	594.2
309.573	585.7
309.965	583.9
310.357	572.8
310.749	574.6
311.142	571.4
311.534	571.8
311.926	586.7
312.319	571.8
312.711	565.6
313.104	585.2
313.497	575
313.889	608.4
314.282	587.8
314.675	599.3
315.068	580.4
315.461	586.9
315.854	601.2
316.247	581.7
316.64	578.9
317.033	575.3
317.405	584
317.798	571.6
318.192	581.1
318.585	567.2
318.979	574.9
319.372	569.1
319.766	576
320.16	588.4
320.553	592.3
320.947	593
321.341	577
321.735	573.3
322.129	566.5
322.523	598.6
322.917	563.4
323.311	583.1
323.705	576.6
324.099	578.8
324.494	584.2
324.888	583.2
325.282	569.4
325.677	578.4
326.071	577.1
326.466	583.9
326.861	577.7
327.255	587.5
327.65	589.3
328.045	589
328.44	577
328.835	578.9
329.23	563.1
329.625	595.9
330.02	569.8
330.415	598.1
330.81	574.2
331.206	578.5
331.601	575.5
331.996	583.7
332.37	581.3
332.766	571.2
333.161	597.3
333.557	570.4
333.953	576.3
334.348	858.5
334.744	576.6
335.14	570.1
335.536	569.1
335.932	588.3
336.328	571
336.724	582.6
337.12	574.6
337.516	574.6
337.913	579.1
338.309	584.8
338.705	571.8
339.102	581
339.498	562.3
339.895	583.5
340.291	570.5
340.688	585.3
341.085	568.9
341.481	573.4
341.878	573.8
342.275	589.9
342.672	565.2
343.069	568.2
343.466	561.4
343.842	579.3
344.239	569.5
344.636	570.5
345.033	566.4
345.431	562
345.828	568.9
346.225	568.8
346.623	576.5
347.02	570.8
347.418	577.4
347.816	586.2
348.213	564.1
348.611	574
349.009	571.1
349.407	588
349.805	562.7
350.203	557.6
350.601	578.6
350.999	571.2
351.397	568.4
351.795	575.1
352.193	581.6
352.57	575
352.969	578.8
353.367	562.7
353.766	563.1
354.164	568.5
354.563	577.8
354.961	574.2
355.36	568.9
355.759	564.7
356.158	564.8
356.557	560.5
356.956	565.9
357.355	558.9
357.754	572.2
358.153	574.3
358.552	593.5
358.951	564.8
359.35	576.3
359.75	563.7
360.149	561.7
360.527	557.6
360.926	560.4
361.326	569.5
361.726	563.4
362.125	561.8
362.525	576.6
362.925	563
363.325	569.9
363.724	569.1
364.124	559.1
364.524	563.2
364.924	565.5
365.324	575.4
365.725	552
366.125	569.7
366.525	567.9
366.904	555
367.304	552.2
367.705	583.2
368.105	575.8
368.506	565.4
368.906	573.5
369.307	559.7
369.708	568.3
370.108	556.6
370.509	574.1
370.91	558.2
371.311	568.4
371.712	572.6
372.113	570
372.514	556.1
372.894	566.1
373.295	560.6
373.696	576.7
374.097	579.1
374.499	594.7
374.9	565.9
375.301	561.1
375.703	566.9
376.105	563.9
376.506	573.5
376.908	572.1
377.309	564.5
377.711	569.3
378.113	563
378.493	567.9
378.895	560.2
379.297	572.1
379.699	556.8
380.102	572.8
380.504	563.9
380.906	563.1
381.308	587.1
381.71	563.9
382.113	574.4
382.515	565.8
382.918	572
383.299	559.8
383.701	573.2
384.104	572
384.507	550.4
384.909	564.2
385.312	558.1
385.715	551.2
386.118	565.7
386.521	554.2
386.924	577.4
387.327	564.3
387.709	555.9
388.112	554.3
388.515	559.1
388.918	562.5
389.322	571.9
389.725	561.7
390.129	586.6
390.532	569.4
390.936	566.1
391.339	557.8
391.743	569.4
392.125	561.3
392.529	574.6
392.933	575.5
393.337	560.8
393.74	565.6
394.144	561.8
394.548	558.1
394.953	563.6
395.357	571.5
395.761	557.1
396.144	568
396.548	562.8
396.952	563.7
397.357	562.8
397.761	559.9
398.166	560.8
398.57	563.5
398.975	553.2
399.379	559.9
399.763	601
400.168	565.6
400.572	561.2
400.977	560.2
401.382	576.5
401.787	573.8
402.192	577.4
402.597	580.6
403.002	546.1
403.386	572.9
403.791	578.4
404.197	560.9
404.602	563.4
405.007	563.1
405.413	555.1
405.818	554.1
406.224	555.4
406.608	558.2
407.014	558
407.42	584.5
407.825	560.9
408.231	575.9
408.637	570
409.043	578
409.449	561.5
409.834	561
410.24	566.2
410.646	581.4
411.052	576.6
411.458	565.1
411.865	571.2
412.271	569.2
412.677	565.5
413.062	569.5
413.469	562.1
413.875	585.6
414.282	581.8
414.689	564.5
415.095	573.2
415.502	560.8
415.888	566.3
416.294	555
416.701	604.2
417.108	567.6
417.515	571.6
417.923	560.8
418.33	584.4
418.715	581.1
419.123	563.4
419.53	563.2
419.937	564.8
420.345	579.8
420.752	570.9
421.16	574.9
421.546	566.1
421.953	577
422.361	560.6
422.769	569.5
423.177	561
423.585	590.8
423.992	588.8
424.379	576.1
424.787	575.2
425.195	587.6
425.603	572.1
426.011	582.5
426.419	583.4
426.806	570.8
427.214	571.8
427.623	576.9
428.031	578.3
428.44	578.5
428.848	576.8
429.235	583.9
429.644	571.6
430.053	567.5
430.461	587.3
430.87	590.8
431.279	579.5
431.666	557.6
432.075	569.7
432.484	579.9
432.893	560.7
433.302	584.9
433.711	602.9
434.099	576.5
434.508	566.1
434.918	563.8
435.327	574.5
435.737	571.9
436.125	573.3
436.534	566.8
436.944	578.3
437.353	568.1
437.763	580.1
438.173	563.2
438.561	575.4
438.971	553.2
439.381	563.2
439.791	572
440.201	549.6
440.589	565.5
440.999	569.8
441.409	565.9
441.819	555.2
442.23	571.1
442.619	570.1
443.029	568.9
443.439	561.1
443.85	575.4
444.26	580.1
444.649	581.8
445.06	566.1
445.471	559
445.881	561.3
446.292	576.8
446.682	583.6
447.092	554.7
447.503	608
447.914	564.9
448.325	564.7
448.715	564
449.126	562.2
449.537	560.3
449.948	561.4
450.338	555.5
450.75	571.9
451.161	563.5
451.572	570.9
451.984	554.9
452.374	548.7
452.786	562
453.197	567.3
453.609	565.3
453.999	546.7
454.411	553.5
454.823	568.6
455.235	571.1
455.647	554.4
456.037	563.4
456.449	547.4
456.862	559.2
457.274	566.3
457.665	550.4
458.077	558.4
458.489	574.4
458.902	563.1
459.293	561.1
459.705	563.2
460.118	552.7
460.53	571.9
460.921	566.5
461.334	563.1
461.747	561.5
462.16	574.8
462.551	574.1
462.964	566.6
463.377	550.7
463.79	561.8
464.182	572.2
464.595	554.4
465.008	562.4
465.421	567.9
465.813	557.7
466.226	567.3
466.64	556.3
467.053	599.5
467.445	569.1
467.859	567.2
468.272	565.8
468.686	572.3
469.078	558.9
469.492	548.8
469.906	562.5
470.298	563.7
470.712	556.3
471.126	588
471.54	551.1
471.933	554.9
472.347	561.3
472.761	554.1
473.175	552.1
473.568	563.3
473.982	549.2
474.397	558.8
474.79	562.4
475.204	562.5
475.619	559.8
476.033	562.1
476.426	557.1
476.841	552.2
477.256	583.6
477.649	555
478.064	556.1
478.479	553
478.872	553.2
479.287	549.1
479.702	552.3
480.118	556.5
480.511	557.4
480.927	550.5
481.342	554.2
481.736	556.5
482.151	550.2
482.566	564.4
482.96	560.9
483.376	566.5
483.792	555.4
484.186	556.8
484.602	551.3
485.017	561.8
485.412	558.2
485.827	557.9
486.243	554.6
486.638	578.1
487.054	564.7
487.47	567.1
487.865	554.1
488.281	551.5
488.697	551.4
489.092	551.5
489.508	549.3
489.925	566.4
490.32	550.9
490.736	563.1
491.153	559.7
491.548	556
491.964	566.7
492.381	545.9
492.776	558.5
493.193	559
493.61	563.9
494.006	552.2
494.422	561.1
494.84	549.9
495.235	565.6
495.652	558
496.069	558
496.465	543.2
496.883	554.3
497.3	577.7
497.696	555.8
498.113	557.3
498.509	546.5
498.927	547.2
499.344	552.7
499.741	548.9
500.158	566.9
500.576	563.5
500.973	556.2
501.39	545.9
501.787	545.3
502.205	555.9
502.623	556.5
503.02	544.1
503.438	548.7
503.856	553.3
504.253	558.3
504.671	554.7
505.068	555
505.486	549.6
505.905	572.5
506.302	555.5
506.72	564.5
507.118	547.5
507.536	551.1
507.955	556.5
508.352	558.8
508.771	559.7
509.169	559.2
509.587	547.4
510.006	552.6
510.404	546.2
510.823	549.1
511.221	553
511.64	556.4
512.038	564.6
512.457	558.9
512.877	555
513.275	548.8
513.694	554.9
514.092	555.5
514.512	560.2
514.91	556.6
515.33	561.5
515.749	555.3
516.148	556.5
516.568	557.3
516.966	554.6
517.386	554.2
517.785	551.9
518.205	554.3
518.603	553.2
519.024	544.7
519.444	557.1
519.843	563.5
520.263	559.9
520.662	556.2
521.082	552.7
521.481	554.9
521.902	555.8
522.301	558.1
522.722	559.4
523.121	557.7
523.542	554.3
523.963	549.4
524.362	558.7
524.783	552.2
525.183	555
525.604	559.7
526.003	549.5
526.425	551.9
526.824	560.9
527.246	558.1
527.646	562.9
528.067	556.9
528.467	552.2
528.888	555.9
529.289	552
529.71	552.3
530.11	552.4
530.532	548.6
530.932	547.7
531.354	548.6
531.755	583.3
532.176	556.3
532.577	551
532.999	554.8
533.4	550.4
533.822	562
534.223	554.7
534.645	550
535.046	551.9
535.468	558
535.869	565.5
536.292	545.9
536.693	554.3
537.115	560.7
537.516	549.3
537.939	551.1
538.34	565.6
538.742	560.8
539.165	552.1
539.566	547.3
539.989	553.8
540.391	549.2
540.814	550.4
541.216	551.9
541.639	558
542.041	559.8
542.464	549.1
542.866	545.6
543.268	547.1
543.691	553.2
544.093	562.5
544.517	572.1
544.919	541.7
545.343	572.7
545.745	549.3
546.147	557.7
546.571	554.1
546.974	539.9
547.398	549.6
547.8	566.6
548.224	551
548.627	548.3
549.03	560.7
549.454	551.6
549.857	538.8
550.281	541.1
550.684	546.6
551.087	565.4
551.512	553.1
551.915	553
552.34	555.3
552.743	552.3
553.146	546.4
553.571	544
553.975	570
554.399	543.1
554.803	598.6
555.207	554.7
555.632	548.2
556.036	558.4
556.461	541.2
556.865	552.3
557.268	542.7
557.694	554.2
558.098	552.9
558.502	560
558.927	551.5
559.332	544.6
559.736	548.1
560.162	561.3
560.566	549.6
560.992	555.9
561.396	552.7
561.801	554.5
562.227	553.3
562.631	550.7
563.036	551.1
563.462	560.7
563.867	552
564.272	547.3
564.698	551.2
565.103	539
565.508	565.8
565.935	554.4
566.34	553.7
566.745	565.3
567.172	553.1
567.577	570
567.982	559.8
568.409	554.5
568.815	546.8
569.22	551.9
569.626	561.6
570.053	539.6
570.459	554.8
570.865	553.7
571.292	561
571.698	557
572.104	542.4
572.531	549.1
572.937	563.9
573.343	548
573.75	553.3
574.177	555.8
574.583	557.5
574.99	545.2
575.396	553.7
575.824	548.2
576.231	558.3
576.637	546.7
577.065	579.7
577.472	552.2
577.879	552.7
578.286	562.3
578.714	539.6
579.121	549.3
579.528	546.9
579.935	559
580.364	549.4
580.771	538
581.178	544
581.585	551.9
582.014	553
582.421	546.8
582.829	542
583.236	560.4
583.644	545.2
584.073	553.1
584.481	547.9
584.889	543.3
585.296	550.7
585.726	551.5
586.134	541.8
586.542	544.5
586.95	564
587.358	542.9
587.787	551
588.196	544.9
588.604	550.2
589.012	547.6
589.421	549
589.851	541.7
590.259	552.4
590.668	543.4
591.076	581.1
591.485	541.5
591.894	548.8
592.324	554.9
592.733	562.5
593.142	536
593.551	544.9
593.96	577.4
594.369	537.6
594.8	540.9
595.209	542
595.618	534.2
596.028	542.2
596.437	538.3
596.847	545.2
597.256	550.2
597.687	549.1
598.097	545.2
598.507	536
598.917	554.2
599.327	554.6
599.736	550.9
600.146	560.1
600.556	550.2
600.988	562.5
601.398	543.3
601.808	558
602.219	543.1
602.629	552.1
603.039	553.9
603.45	576.3
603.86	554.9
604.271	561.6
604.703	553.5
605.114	552.6
605.525	552.1
605.935	554.9
606.346	570.6
606.757	562.6
607.168	550
607.579	545.4
607.99	562.3
608.402	557
608.813	552.7
609.224	546.8
609.636	541.8
610.047	546.3
610.48	552
610.892	551.6
611.303	552.6
611.715	546.8
612.127	548
612.539	548.1
612.95	550.8
613.362	541.4
613.774	534.3
614.186	544.8
614.599	546.1
615.011	554.8
615.423	542.4
615.835	540
616.248	537.9
616.66	549.4
617.073	540.4
617.485	550.3
617.898	552.5
618.311	548.1
618.723	549.8
619.136	571.1
619.549	559.4
619.962	566.3
620.375	541.9
620.788	553.3
621.201	545.5
621.614	554.2
622.028	547
622.441	551
622.854	561
623.268	541
623.681	545.2
624.095	545.7
624.509	556.6
624.922	553.3
625.336	534.8
625.728	551.5
626.142	556.6
626.556	561.1
626.97	551.8
627.384	546
627.799	548.7
628.213	555.1
628.627	547.9
629.041	550.8
629.456	546.5
629.87	548.6
630.285	556.9
630.699	552.4
631.093	540.5
631.507	551.1
631.922	546.9
632.337	558.4
632.752	536
633.167	542.2
633.582	541
633.997	543.6
634.412	539.4
634.806	546
635.221	536.7
635.637	557.9
636.052	534.7
636.468	552.6
636.883	565.2
637.299	542.3
637.715	537.8
638.109	548.3
638.525	535.5
638.941	554.7
639.357	553
639.773	557.3
640.189	539.7
640.584	544.8
641	546.9
641.416	530.9
641.832	546
642.249	545
642.665	545.3
643.06	549.7
643.477	552.8
643.894	534.3
644.31	548.4
644.727	543.7
645.123	550.5
645.54	537.2
645.957	547.3
646.374	555.5
646.77	543.2
647.187	576.4
647.604	546.3
648.021	533.8
648.439	543.1
648.835	547.4
649.252	550.9
649.67	543.1
650.088	545.5
650.484	550.9
650.902	553.4
651.32	554.6
651.738	542.5
652.134	550.5
652.552	565.9
652.971	553.5
653.389	547.3
653.786	558.7
654.204	550.1
654.622	539.3
655.019	543.8
655.438	552.9
655.857	546.7
656.275	552.7
656.673	540.3
657.091	609
657.51	540.2
657.908	557.3
658.327	557.8
658.746	537.5
659.144	547.3
659.563	562.2
659.982	553
660.38	541
660.8	552.8
661.219	557.2
661.617	551.5
662.037	548.4
662.457	556.8
662.855	531.1
663.275	574
663.695	551.5
664.094	547.3
664.514	552.6
664.934	543.2
665.333	550.2
665.753	546
666.152	533.2
666.572	536.5
666.993	561.3
667.392	543
667.812	547.9
668.212	542.3
668.632	556.5
669.053	545.2
669.453	548.4
669.874	545.1
670.273	546
670.694	542.6
671.116	563.2
671.515	552.6
671.937	547.4
672.337	540.5
672.758	541.3
673.158	554.9
673.58	539.7
673.98	550.6
674.402	556.6
674.824	539.5
675.224	540.1
675.646	532.8
676.047	537.6
676.469	547.2
676.869	550.8
677.292	542.5
677.693	543.9
678.115	535.8
678.516	547.3
678.939	546.2
679.34	541.5
679.762	556.5
680.164	548
680.586	538.3
680.988	546.4
681.411	560.9
681.812	547.6
682.236	540.5
682.637	537
683.061	536.1
683.462	545.4
683.864	542.1
684.288	547.7
684.69	537.6
685.114	554.6
685.516	550.6
685.94	537.2
686.342	549.5
686.766	542.4
687.168	542.7
687.571	559.7
687.995	544.6
688.398	541
688.822	545.5
689.225	554.9
689.628	562.5
690.052	548.1
690.456	551.3
690.88	547.9
691.284	530.9
691.687	548.7
692.112	536.6
692.515	536.4
692.919	544.9
693.344	552.9
693.747	546.2
694.173	545.2
694.577	550.3
694.98	545.2
695.406	544.1
695.81	547.8
696.214	556.1
696.64	547.6
697.044	548.4
697.448	554.3
697.874	539.8
698.279	545.8
698.684	539.3
699.11	536.5
699.514	543.7
699.919	541.2
700.324	539
700.75	544.5
701.156	545.1
701.561	558.8
701.987	551
702.393	552.8
702.798	550.3
703.203	545
703.63	544.9
704.036	541
704.442	549.2
704.847	534.5
705.274	545.3
705.68	542.1
706.086	553.6
706.492	538.6
706.92	546.3
707.326	553.2
707.732	538.2
708.139	534.4
708.545	536.1
708.973	537.7
709.38	547.7
709.786	535.5
710.193	551.6
710.6	545.1
711.028	533.1
711.435	542.5
711.842	540
712.249	538
712.656	546.8
713.064	549.2
713.492	537.6
713.9	540.9
714.307	550.7
714.715	544.5
715.123	540.9
715.53	545
715.938	559.3
716.367	550.5
716.775	543.3
717.184	542
717.592	542.6
718	553.5
718.408	574.4
718.816	583.2
719.225	551.6
719.633	540.2
720.042	538.5
720.472	538.2
720.881	560
721.29	544.6
721.699	536.6
722.108	543.9
722.517	547.2
722.926	539.2
723.335	558.5
723.744	541.8
724.154	538.3
724.563	544.7
724.973	547.1
725.382	544.3
725.792	541.3
726.202	535
726.612	549.8
727.022	535
727.432	537.6
779.813	538.4
780.223	578.3
780.634	538.8
781.044	536
781.454	548.3
781.865	551.9
782.276	540.4
782.686	547.7
783.097	542.1
783.508	540.4
783.919	543.9
784.33	555.3
784.741	557.2
785.152	534.4
785.563	530
785.974	537.8
786.386	555.4
786.776	541.5
787.188	541.7
787.599	533.8
788.011	542.5
788.423	542.7
788.835	537.6
789.247	532
789.659	535.2
790.071	535.1
790.483	579.3
790.874	539.6
791.286	549.6
791.699	535.8
792.111	545
792.524	544.8
792.937	544.5
793.349	536.1
793.741	535.4
794.154	542.7
794.567	556
794.98	539.8
795.393	531.2
795.785	554.2
796.198	535.4
796.612	543
797.026	531.7
797.439	522.6
797.831	535.7
798.245	536.1
798.659	536
799.073	534.3
799.487	534.5
799.88	543.2
800.294	538.5
800.708	548.2
801.123	543.5
801.516	556.3
801.93	537.5
802.345	527.7
802.76	541.7
803.153	550.1
803.568	555.1
803.983	549.6
804.377	544.9
804.792	535
805.207	527
805.601	537.8
806.016	572.3
806.432	531.7
806.826	566.3
807.242	555.4
807.658	546.9
808.052	537.5
808.468	537.8
808.884	535.9
809.279	544.7
809.695	551.1
810.111	564.5
810.506	549.5
810.922	560.5
811.339	536.8
811.734	547.4
812.151	541.6
812.546	540.1
812.963	537.4
813.38	546.2
813.776	541.2
814.193	564.9
814.589	536.8
815.006	543.7
815.402	537.7
815.82	531.9
816.237	543.4
816.633	544.8
817.051	530.3
817.448	543.7
817.866	532
818.262	563.7
818.68	540.7
819.077	539.2
819.495	541.7
819.892	580.7
820.311	534.5
820.708	543.6
821.127	536.4
821.524	546.2
821.943	542.4
822.34	554.1
822.759	545.9
823.157	540.1
823.576	551.1
823.974	547.3
824.393	552.3
824.791	533.6
825.189	534.1
825.609	540.5
826.007	536.3
826.427	524.9
826.826	537.3
827.246	534.3
827.644	523.1
828.043	546.9
828.463	537
828.862	547.6
829.261	543.7
829.682	531
830.081	545.7
830.502	530.6
830.901	538.8
831.301	532.5
831.722	527.4
832.121	538.6
832.521	532.6
832.943	542.7
833.342	537.4
833.742	532.1
834.164	532.9
834.564	527
834.965	541.1
835.386	526.5
835.787	537.7
836.188	540.3
836.588	544.9
837.01	543.1
837.411	530.1
837.812	549
838.213	539.3
838.636	537.1
839.037	601.3
839.438	540.4
839.84	544.2
840.263	543.8
840.664	545.7
841.066	535.8
841.468	539.3
841.891	540.3
842.293	549
842.695	547.6
843.098	544.6
843.5	532.5
843.902	545.1
844.326	546.9
844.729	545
845.131	549.9
845.534	544.7
845.937	548
846.34	559
846.764	536.3
847.167	543.2
847.571	534.3
847.974	539.1
848.377	535.6
848.781	585.5
