#lambda/nm	C1
208.295	484.5
208.67	443.5
209.045	407.5
209.419	414.9
209.794	588.1
210.169	572.6
210.544	684.6
210.919	585.5
211.295	573.4
211.67	586.4
212.045	583.7
212.421	581.1
212.796	615.5
213.172	579.4
213.547	581.7
213.923	580.8
214.299	575.7
214.675	593.1
215.051	591
215.427	582.6
215.803	602.4
216.179	589.6
216.555	576.5
216.932	591.9
217.308	581.2
217.684	576.1
218.061	587
218.438	587.1
218.814	583.6
219.191	587.2
219.568	577.5
219.945	577
220.322	591.1
220.699	583.6
221.076	587.9
221.453	586.4
221.83	571.6
222.208	577.9
222.585	572.7
222.962	588.3
223.34	583.7
223.717	586
224.095	579.7
224.473	584.5
224.851	575
225.229	572.1
225.607	601.2
225.985	572.9
226.363	581.8
226.741	583.2
227.119	578.7
227.497	594
227.876	572
228.254	592
228.633	588.8
229.011	586.1
229.39	588
229.769	588
230.148	588.8
230.527	605.9
230.905	593.2
231.284	588
231.664	579.4
232.043	591.7
232.422	592.5
232.801	577.7
233.181	588.5
233.56	574.8
233.94	588.9
234.319	578.2
234.699	578.2
235.079	624.5
235.458	621.3
235.838	598.7
236.218	575.7
236.598	576.4
236.978	579.7
237.358	576.6
237.738	579.5
238.119	585.5
238.499	576.8
238.88	580.4
239.26	598
239.641	574.2
240.021	576.6
240.402	580.5
240.783	578.5
241.163	582.9
241.544	588.6
241.925	583.3
242.306	595.4
242.687	574.2
243.069	583.6
243.45	588.1
243.831	578.9
244.212	582.9
244.594	613
244.975	592.8
245.357	585.8
245.739	579.7
246.12	585.6
246.502	600.5
246.884	580.4
247.266	581.9
247.648	589.7
248.03	602.8
248.412	587.8
248.794	587.6
249.176	582.9
249.559	595.9
249.941	577.1
250.323	576.2
250.706	581.3
251.089	586.4
251.471	586.9
251.854	586.6
252.237	588.7
252.62	591.5
253.002	583.1
253.385	585
253.769	597.8
254.152	584.1
254.535	594.3
254.918	575.5
255.301	580.8
255.685	581
256.068	581.2
256.452	608
256.835	592.3
257.219	592.7
257.603	594.5
257.986	578
258.37	593
258.754	577.5
259.138	591.6
259.522	592.7
259.906	578.2
260.29	582.4
260.675	586.5
261.059	582.7
261.443	580.1
261.828	594.5
262.212	590.2
262.597	577.4
262.981	581.4
263.366	589.3
263.751	578.8
264.136	580.2
264.521	575.9
264.906	573.7
265.291	594.8
265.676	581.6
266.061	587.3
266.446	595.1
266.831	585.7
267.217	601.3
267.602	589.5
267.987	587.8
268.373	579
268.759	594.2
269.144	589.9
269.53	582.9
269.916	578.3
270.302	582
270.688	587.3
271.074	583.5
271.46	597.2
271.846	613.4
272.232	582.3
272.618	577.4
273.004	578.8
273.391	590.6
273.777	595.3
274.164	592.1
274.55	594.1
274.937	583.6
275.324	582.2
275.71	593.9
276.097	586.5
276.484	579.4
276.871	588.3
277.258	591.3
277.645	576
278.032	584.5
278.419	582.8
278.807	586.6
279.194	579.7
279.581	579.9
279.969	593.2
280.356	589.5
280.744	584.2
281.131	611.2
281.519	599.4
281.907	580.6
282.295	578.4
282.682	594
283.07	584.7
283.458	593.5
283.846	596.5
284.235	593.9
284.623	591.5
285.011	578.4
285.399	586.1
285.788	579.6
286.176	571.7
286.565	595.8
286.953	576
287.342	576.5
287.731	574.3
288.119	573.2
288.508	576.3
288.897	586.6
289.286	569.6
289.675	578.5
290.064	595.2
290.453	577.4
290.821	580.3
291.21	598.6
291.599	580.7
291.989	577.5
292.378	593.7
292.768	596.7
293.157	590.5
293.547	588.7
293.936	580.1
294.326	580.8
294.716	590.6
295.106	584.6
295.496	592
295.886	592.7
296.276	585.8
296.666	573.5
297.056	576.2
297.446	574.8
297.836	597.1
298.227	578
298.617	587.1
299.008	594.2
299.398	581
299.789	574.8
300.179	585.7
300.57	595.9
300.961	579.9
301.352	578.4
301.742	592.1
302.133	583
302.524	582.2
302.915	586.2
303.307	572
303.698	589.5
304.089	590.4
304.48	586.3
304.872	580.8
305.263	585.2
305.655	578.6
306.046	585.6
306.438	582.4
306.829	577
307.221	596.9
307.613	590
308.005	597.7
308.397	597.8
308.789	606.4
309.181	610.7
309.573	598.5
309.965	590.4
310.357	581
310.749	589.4
311.142	578.2
311.534	576.5
311.926	593.5
312.319	587.5
312.711	581.7
313.104	599.4
313.497	586.1
313.889	625.1
314.282	606.4
314.675	611.3
315.068	585.3
315.461	595.1
315.854	614
316.247	591.7
316.64	586.2
317.033	584
317.405	595.8
317.798	581.3
318.192	591
318.585	583.1
318.979	594.7
319.372	578.6
319.766	586.2
320.16	595.4
320.553	601.4
320.947	605.4
321.341	573.4
321.735	584.1
322.129	571.8
322.523	609.8
322.917	575.5
323.311	592.4
323.705	582.4
324.099	590.2
324.494	598.3
324.888	596.6
325.282	584.1
325.677	596.5
326.071	593.5
326.466	593.7
326.861	592.8
327.255	597.7
327.65	602.3
328.045	596.7
328.44	590.1
328.835	590.3
329.23	582
329.625	611.6
330.02	584.8
330.415	609.3
330.81	593
331.206	590.7
331.601	585.3
331.996	591.3
332.37	597.2
332.766	573.3
333.161	603.1
333.557	582.2
333.953	589.5
334.348	910.4
334.744	581.9
335.14	583
335.536	583.1
335.932	595.6
336.328	589.1
336.724	592.9
337.12	587.9
337.516	586.4
337.913	585.5
338.309	602.3
338.705	590.2
339.102	591.4
339.498	585.8
339.895	597.4
340.291	577.6
340.688	599.8
341.085	577.4
341.481	577.6
341.878	588.2
342.275	604.6
342.672	577.1
343.069	575.9
343.466	577.2
343.842	590.3
344.239	579.9
344.636	583.4
345.033	574.5
345.431	579.6
345.828	586.2
346.225	575.6
346.623	593.9
347.02	583.5
347.418	595.6
347.816	595.2
348.213	576.9
348.611	591.9
349.009	574.6
349.407	589.7
349.805	571.6
350.203	573.5
350.601	596.3
350.999	578.3
351.397	575.6
351.795	586.7
352.193	592
352.57	592.1
352.969	588.6
353.367	570.6
353.766	579.1
354.164	581.7
354.563	593.8
354.961	580.5
355.36	580.4
355.759	584.3
356.158	571.9
356.557	575.4
356.956	577.4
357.355	573.3
357.754	580
358.153	588.5
358.552	608
358.951	577.8
359.35	591.3
359.75	580.9
360.149	569.1
360.527	567.8
360.926	569.4
361.326	580.5
361.726	580.5
362.125	579.7
362.525	589.8
362.925	580
363.325	578.5
363.724	576.8
364.124	578.6
364.524	574.9
364.924	577.7
365.324	591.1
365.725	567.5
366.125	589.6
366.525	584.5
366.904	566.3
367.304	567.2
367.705	591.6
368.105	589
368.506	578.4
368.906	581.9
369.307	573.5
369.708	584.2
370.108	567.3
370.509	592.3
370.91	567.8
371.311	580.1
371.712	581.8
372.113	580
372.514	571
372.894	579.3
373.295	570.3
373.696	586.7
374.097	585.3
374.499	606.1
374.9	578
375.301	569.7
375.703	577.8
376.105	573.7
376.506	583.2
376.908	579
377.309	574.7
377.711	576.2
378.113	573.6
378.493	583.8
378.895	571.9
379.297	588.7
379.699	563.6
380.102	581.1
380.504	576.8
380.906	583.5
381.308	604.8
381.71	577.8
382.113	586.6
382.515	581
382.918	579.5
383.299	575.3
383.701	587.7
384.104	576.1
384.507	562.2
384.909	574.8
385.312	565.1
385.715	563.5
386.118	580.2
386.521	569.3
386.924	587.3
387.327	570.2
387.709	566.3
388.112	561
388.515	571.8
388.918	574.6
389.322	577.9
389.725	567.6
390.129	596.9
390.532	581.2
390.936	571.8
391.339	568.2
391.743	579.9
392.125	566.5
392.529	584.2
392.933	584.4
393.337	580.7
393.74	572.4
394.144	577.6
394.548	574.4
394.953	569.2
395.357	581.7
395.761	574
396.144	576.4
396.548	573
396.952	573.7
397.357	574.3
397.761	572.7
398.166	573.5
398.57	576
398.975	568.9
399.379	578.6
399.763	624.1
400.168	579.7
400.572	574.9
400.977	573.1
401.382	594.7
401.787	583.8
402.192	593.1
402.597	589.7
403.002	566.3
403.386	589.4
403.791	595
404.197	569.4
404.602	580.1
405.007	578.6
405.413	571.9
405.818	572.5
406.224	571.3
406.608	577.5
407.014	570.9
407.42	594.9
407.825	571.2
408.231	584.2
408.637	579
409.043	590.9
409.449	570.9
409.834	577.9
410.24	581
410.646	586.6
411.052	589.3
411.458	584.7
411.865	588.4
412.271	587.1
412.677	575.7
413.062	585.2
413.469	567.6
413.875	599.8
414.282	588
414.689	572.3
415.095	583.2
415.502	566.3
415.888	577.2
416.294	568.6
416.701	609.5
417.108	571.8
417.515	585.9
417.923	576.3
418.33	599.4
418.715	586.6
419.123	578.1
419.53	575.7
419.937	579.3
420.345	588.8
420.752	576.7
421.16	591.9
421.546	580.2
421.953	580.9
422.361	566.9
422.769	578.7
423.177	570.3
423.585	601.3
423.992	598
424.379	592.9
424.787	588.7
425.195	600.7
425.603	575.7
426.011	591.8
426.419	594.1
426.806	583.1
427.214	582
427.623	586.3
428.031	593.8
428.44	588.6
428.848	594
429.235	597.4
429.644	580.6
430.053	582.8
430.461	593.2
430.87	605.7
431.279	595.1
431.666	571.2
432.075	577.6
432.484	585.3
432.893	574.1
433.302	603.1
433.711	617.5
434.099	586.8
434.508	576.6
434.918	564.3
435.327	589
435.737	581.9
436.125	585.1
436.534	575.7
436.944	582.3
437.353	577.5
437.763	593.6
438.173	573.9
438.561	590.5
438.971	565.7
439.381	576
439.791	579.9
440.201	561.9
440.589	581.2
440.999	581.8
441.409	582.5
441.819	569.6
442.23	587.2
442.619	576.9
443.029	578.6
443.439	578.7
443.85	591.2
444.26	596.2
444.649	581.1
445.06	578.3
445.471	574.3
445.881	574.1
446.292	589.9
446.682	595.5
447.092	563.5
447.503	621.1
447.914	578.2
448.325	580.5
448.715	573.1
449.126	570.7
449.537	578
449.948	575
450.338	572.7
450.75	584.1
451.161	573.1
451.572	582.3
451.984	569.3
452.374	556.7
452.786	571
453.197	577.6
453.609	575.9
453.999	557
454.411	566
454.823	582.3
455.235	580.4
455.647	572.4
456.037	579.1
456.449	558.7
456.862	574.9
457.274	576.7
457.665	569.3
458.077	580.9
458.489	586
458.902	575.6
459.293	577.5
459.705	577.5
460.118	573
460.53	577.5
460.921	574.9
461.334	573.1
461.747	573.3
462.16	587.2
462.551	591.7
462.964	574.3
463.377	560
463.79	569.2
464.182	582.7
464.595	567.2
465.008	574.2
465.421	582.5
465.813	572.6
466.226	579.4
466.64	569.4
467.053	618.1
467.445	577.5
467.859	573.6
468.272	578.9
468.686	591.2
469.078	572.1
469.492	564.9
469.906	573.5
470.298	578.2
470.712	569.4
471.126	600.1
471.54	559.9
471.933	562.6
472.347	574
472.761	573.8
473.175	562.6
473.568	564.7
473.982	560.2
474.397	573.1
474.79	567.8
475.204	577.4
475.619	566.7
476.033	574.7
476.426	569.8
476.841	565.2
477.256	593.5
477.649	563.1
478.064	563.1
478.479	561.7
478.872	561.4
479.287	553.7
479.702	559
480.118	567.3
480.511	563.1
480.927	561.1
481.342	566.8
481.736	572.1
482.151	561
482.566	580.2
482.96	569.8
483.376	571.2
483.792	561.8
484.186	573.9
484.602	565
485.017	572
485.412	562.7
485.827	567.1
486.243	567.5
486.638	588.6
487.054	572.2
487.47	577.7
487.865	561.7
488.281	562.8
488.697	559.2
489.092	566.6
489.508	556
489.925	582.9
490.32	558.3
490.736	570.6
491.153	570.8
491.548	569.5
491.964	572.4
492.381	555.4
492.776	572.1
493.193	569.7
493.61	580.4
494.006	570.6
494.422	576.1
494.84	564.2
495.235	579.9
495.652	567.8
496.069	571.9
496.465	563.2
496.883	569
497.3	589.9
497.696	566.9
498.113	575.4
498.509	560.8
498.927	555.9
499.344	557.8
499.741	561.1
500.158	574.2
500.576	578.2
500.973	572.8
501.39	562.3
501.787	559.9
502.205	568.8
502.623	564.2
503.02	557.1
503.438	565.6
503.856	564.3
504.253	571.9
504.671	569.5
505.068	559.7
505.486	565.2
505.905	586.1
506.302	563
506.72	577.7
507.118	557.6
507.536	570.3
507.955	560.8
508.352	564.8
508.771	577.7
509.169	577.1
509.587	562.4
510.006	562.5
510.404	553.9
510.823	563.5
511.221	560.8
511.64	565.4
512.038	575.5
512.457	562.6
512.877	565.6
513.275	561.9
513.694	566.2
514.092	569.3
514.512	571.1
514.91	564.2
515.33	568.3
515.749	568.7
516.148	571
516.568	568
516.966	569.7
517.386	558.6
517.785	570.4
518.205	562.1
518.603	559.5
519.024	560.5
519.444	571.4
519.843	577.9
520.263	573.2
520.662	572.1
521.082	561.8
521.481	567.5
521.902	566.8
522.301	564.3
522.722	570.8
523.121	563
523.542	561.2
523.963	564.9
524.362	565.8
524.783	569.1
525.183	562.9
525.604	572.2
526.003	559.3
526.425	556
526.824	572.4
527.246	576.2
527.646	571.9
528.067	569.2
528.467	565.4
528.888	569.1
529.289	564.9
529.71	567
530.11	561.1
530.532	559.5
530.932	556.1
531.354	555.4
531.755	598.7
532.176	573.3
532.577	563
532.999	564.2
533.4	562.1
533.822	570.7
534.223	564.9
534.645	561.2
535.046	563.3
535.468	569.2
535.869	574.8
536.292	560.2
536.693	566
537.115	567.7
537.516	560.9
537.939	560.4
538.34	579
538.742	578.9
539.165	564.8
539.566	563.7
539.989	560.5
540.391	559.4
540.814	567.9
541.216	567.7
541.639	572.4
542.041	580.3
542.464	562.8
542.866	563.9
543.268	558
543.691	569.6
544.093	570.6
544.517	580.9
544.919	552.8
545.343	584.2
545.745	560.1
546.147	567.6
546.571	563.4
546.974	553.8
547.398	566.5
547.8	577.4
548.224	556.4
548.627	559.9
549.03	568.7
549.454	559.6
549.857	551.5
550.281	560.5
550.684	560.5
551.087	569
551.512	566.6
551.915	568.5
552.34	566.6
552.743	556.6
553.146	563.8
553.571	561.5
553.975	585.2
554.399	558.5
554.803	610.1
555.207	562.2
555.632	563.6
556.036	566
556.461	553.3
556.865	564.1
557.268	557.5
557.694	565.2
558.098	566.3
558.502	564.3
558.927	559.7
559.332	562.7
559.736	561.8
560.162	567.7
560.566	560.8
560.992	571.2
561.396	563.5
561.801	562.2
562.227	562.9
562.631	565
563.036	563.7
563.462	571.5
563.867	565.1
564.272	549.4
564.698	568.1
565.103	552.6
565.508	580.9
565.935	562.3
566.34	561.5
566.745	569.9
567.172	560.8
567.577	584.6
567.982	575.3
568.409	564.5
568.815	557.9
569.22	563.4
569.626	565.9
570.053	554.9
570.459	564.7
570.865	567.4
571.292	566.3
571.698	560.6
572.104	547
572.531	555.3
572.937	564.1
573.343	562.7
573.75	559.4
574.177	567.3
574.583	569
574.99	560.2
575.396	568
575.824	556.8
576.231	568.7
576.637	555.4
577.065	584.8
577.472	556.1
577.879	557.5
578.286	570.8
578.714	556.1
579.121	558.3
579.528	563.6
579.935	566.2
580.364	556.1
580.771	549.1
581.178	555
581.585	562.9
582.014	565.7
582.421	551.6
582.829	558.9
583.236	562.9
583.644	560.1
584.073	556.9
584.481	555.5
584.889	556.5
585.296	562.9
585.726	557.1
586.134	553.9
586.542	552
586.95	575.5
587.358	555
587.787	562.8
588.196	550.1
588.604	560.5
589.012	559
589.421	555.6
589.851	560.3
590.259	567.2
590.668	555.7
591.076	602
591.485	557.5
591.894	560
592.324	569.2
592.733	573.5
593.142	548.8
593.551	553.5
593.96	565
594.369	552.4
594.8	556
595.209	558.3
595.618	548.8
596.028	554.5
596.437	550.4
596.847	559.9
597.256	561.8
597.687	568.4
598.097	562
598.507	555.8
598.917	565.9
599.327	567.8
599.736	560.1
600.146	570.7
600.556	561.8
600.988	569.9
601.398	557.6
601.808	563.2
602.219	555.9
602.629	563.8
603.039	560.8
603.45	587.3
603.86	559.4
604.271	569.4
604.703	559.6
605.114	557.8
605.525	563.6
605.935	570.6
606.346	581.4
606.757	562.5
607.168	562.2
607.579	559.1
607.99	577.1
608.402	566.4
608.813	565.4
609.224	563
609.636	552.9
610.047	548.5
610.48	556.9
610.892	564.8
611.303	568.2
611.715	558.2
612.127	552.7
612.539	558.3
612.95	556.5
613.362	551.1
613.774	549.7
614.186	554.1
614.599	558.4
615.011	570.1
615.423	550.9
615.835	555.4
616.248	549.2
616.66	563.3
617.073	551.3
617.485	561.4
617.898	568.1
618.311	561.4
618.723	553.1
619.136	584.7
619.549	571
619.962	577.9
620.375	553.5
620.788	561
621.201	553.3
621.614	567.3
622.028	553.7
622.441	565.7
622.854	573.7
623.268	555.7
623.681	561.4
624.095	564.5
624.509	566.8
624.922	565.7
625.336	550.9
625.728	555.8
626.142	562.9
626.556	572.4
626.97	564.7
627.384	554.2
627.799	557.7
628.213	573
628.627	553.1
629.041	555.3
629.456	558.9
629.87	560.2
630.285	569.6
630.699	568.4
631.093	561.6
631.507	563.6
631.922	563.8
632.337	571
632.752	554.9
633.167	559.7
633.582	557.6
633.997	558.7
634.412	552.1
634.806	558.7
635.221	546.2
635.637	567.9
636.052	550.3
636.468	560.2
636.883	570.5
637.299	555.5
637.715	544.9
638.109	558.3
638.525	551.3
638.941	571
639.357	559.9
639.773	575.5
640.189	550.6
640.584	557.4
641	559.7
641.416	548.7
641.832	558.5
642.249	559
642.665	559.8
643.06	562.9
643.477	569.3
643.894	539.8
644.31	558
644.727	554.7
645.123	554.8
645.54	545.4
645.957	557.9
646.374	557.4
646.77	555.2
647.187	585.5
647.604	556.5
648.021	541.2
648.439	546.8
648.835	560.8
649.252	559.8
649.67	556.2
650.088	558.4
650.484	556.7
650.902	564.8
651.32	561.4
651.738	557.6
652.134	557.4
652.552	578.9
652.971	565.9
653.389	554.5
653.786	567.5
654.204	553.9
654.622	553.3
655.019	561
655.438	566.7
655.857	561.1
656.275	560.5
656.673	554.4
657.091	621.8
657.51	554
657.908	565.2
658.327	569
658.746	548.6
659.144	559.6
659.563	571.8
659.982	557
660.38	549.6
660.8	553.6
661.219	573.1
661.617	566.9
662.037	559.4
662.457	569.2
662.855	548.7
663.275	584.1
663.695	553.9
664.094	559.9
664.514	559.8
664.934	545.6
665.333	562.2
665.753	551.8
666.152	550.3
666.572	556.1
666.993	568.9
667.392	550.9
667.812	555.8
668.212	557
668.632	568
669.053	551.4
669.453	559.9
669.874	557.2
670.273	561.8
670.694	551
671.116	574.5
671.515	567.4
671.937	557.8
672.337	552.1
672.758	558.8
673.158	559
673.58	549.6
673.98	556.2
674.402	563.8
674.824	558.1
675.224	549.3
675.646	549.9
676.047	552.4
676.469	556.3
676.869	562.2
677.292	554.9
677.693	549.9
678.115	554.7
678.516	563
678.939	560.3
679.34	551.1
679.762	564.9
680.164	563.2
680.586	545.7
680.988	560
681.411	578.2
681.812	553
682.236	552.2
682.637	548.9
683.061	543.1
683.462	553.3
683.864	560.6
684.288	563
684.69	548.5
685.114	565.6
685.516	568.5
685.94	545.2
686.342	565.5
686.766	551.8
687.168	554.7
687.571	573.5
687.995	559.5
688.398	544.9
688.822	557.4
689.225	572.8
689.628	578
690.052	559.3
690.456	565.4
690.88	558
691.284	547.2
691.687	561.9
692.112	547.7
692.515	553.8
692.919	552
693.344	554.1
693.747	554.6
694.173	559
694.577	563.9
694.98	551.8
695.406	555.1
695.81	560.3
696.214	560.9
696.64	558.5
697.044	559.7
697.448	568.9
697.874	552.9
698.279	560.8
698.684	545.9
699.11	551.6
699.514	555.1
699.919	553.7
700.324	546.9
700.75	556.6
701.156	557.9
701.561	565.8
701.987	561.3
702.393	565.2
702.798	565.1
703.203	556.7
703.63	551.8
704.036	557.5
704.442	559.2
704.847	546.8
705.274	552.5
705.68	559.9
706.086	562.4
706.492	545
706.92	553.2
707.326	562.6
707.732	559.3
708.139	546.2
708.545	550.6
708.973	559.5
709.38	552.8
709.786	544
710.193	573.6
710.6	563.1
711.028	547.5
711.435	552.9
711.842	549.4
712.249	549.3
712.656	556.9
713.064	564.3
713.492	545.9
713.9	547.7
714.307	555.9
714.715	555.1
715.123	553.9
715.53	558
715.938	560.5
716.367	551.8
716.775	552
717.184	550.6
717.592	549.5
718	557.4
718.408	585.4
718.816	593.4
719.225	559.9
719.633	554.3
720.042	547.7
720.472	549.2
720.881	572.9
721.29	561.4
721.699	549
722.108	556.5
722.517	555.7
722.926	555.6
723.335	564.3
723.744	551.3
724.154	554.2
724.563	559.6
724.973	559.3
725.382	557.9
725.792	557.5
726.202	551.9
726.612	570.4
727.022	553.7
727.432	550.8
779.813	553.2
780.223	594.8
780.634	548.2
781.044	545.8
781.454	552.6
781.865	566.9
782.276	547.6
782.686	559.8
783.097	554.4
783.508	549.2
783.919	555.5
784.33	569.4
784.741	559.3
785.152	548.5
785.563	541.2
785.974	545.6
786.386	566
786.776	549.3
787.188	553
787.599	543.6
788.011	560.3
788.423	556.1
788.835	552.3
789.247	546
789.659	549.9
790.071	546.7
790.483	583.8
790.874	551.8
791.286	557.3
791.699	547.8
792.111	547.6
792.524	552.4
792.937	547.9
793.349	546.9
793.741	551.4
794.154	542.7
794.567	563.3
794.98	553.3
795.393	542.4
795.785	569.3
796.198	549
796.612	549.4
797.026	552.4
797.439	542.4
797.831	552.3
798.245	540.9
798.659	546.3
799.073	554.5
799.487	547.1
799.88	555.3
800.294	553.8
800.708	559.3
801.123	547.9
801.516	564.3
801.93	538.2
802.345	537.3
802.76	550.6
803.153	563.6
803.568	564
803.983	559.9
804.377	558.7
804.792	542.7
805.207	538.3
805.601	558.3
806.016	585.5
806.432	541.6
806.826	580.5
807.242	560.5
807.658	556.2
808.052	549.8
808.468	553.6
808.884	551.6
809.279	548.9
809.695	562.1
810.111	576.2
810.506	562.8
810.922	569.9
811.339	548.7
811.734	557.5
812.151	550.6
812.546	554.4
812.963	550
813.38	552.8
813.776	554.6
814.193	569
814.589	545.7
815.006	545.9
815.402	549.6
815.82	546.8
816.237	543.1
816.633	549.2
817.051	542.3
817.448	553.6
817.866	540.1
818.262	570.2
818.68	546.1
819.077	545.7
819.495	547.9
819.892	591.9
820.311	544.8
820.708	545.7
821.127	543.8
821.524	555.5
821.943	554.1
822.34	567.1
822.759	552.4
823.157	554
823.576	563.3
823.974	560.5
824.393	563.2
824.791	545.7
825.189	541.9
825.609	550.1
826.007	549.4
826.427	539.9
826.826	551.6
827.246	561.8
827.644	539.6
828.043	566
828.463	547.9
828.862	558.3
829.261	559.3
829.682	541.2
830.081	559.1
830.502	548.9
830.901	551.5
831.301	550.9
831.722	541.4
832.121	550
832.521	553.1
832.943	552.4
833.342	554.5
833.742	547
834.164	551.7
834.564	541.7
834.965	549
835.386	552.3
835.787	551.7
836.188	551.3
836.588	550.1
837.01	553.1
837.411	539.7
837.812	560.8
838.213	557.8
838.636	549.7
839.037	616.3
839.438	553.9
839.84	558.2
840.263	558.1
840.664	553.7
841.066	555.6
841.468	555.5
841.891	551.9
842.293	559
842.695	558.8
843.098	562.3
843.5	547.5
843.902	555.6
844.326	556.5
844.729	556.4
845.131	566.1
845.534	546.3
845.937	566.9
846.34	566.8
846.764	542.5
847.167	555.1
847.571	540.9
