#lambda/nm	C1
208.295	481.4
208.67	445.7
209.045	409.3
209.419	411.1
209.794	598.9
210.169	574.5
210.544	695.8
210.919	592.8
211.295	584
211.67	596.4
212.045	587.3
212.421	596.9
212.796	628
213.172	586.6
213.547	588.1
213.923	591.8
214.299	587.1
214.675	603.9
215.051	597.7
215.427	593.6
215.803	613.8
216.179	596.1
216.555	588.7
216.932	603.9
217.308	585.7
217.684	594.3
218.061	601.1
218.438	596.6
218.814	595.3
219.191	603.7
219.568	589.4
219.945	594.2
220.322	600.7
220.699	596.9
221.076	605.2
221.453	593.6
221.83	586.5
222.208	592.7
222.585	583.4
222.962	592.7
223.34	594.3
223.717	591.6
224.095	589.3
224.473	595.2
224.851	585.5
225.229	583.9
225.607	607.2
225.985	583.2
226.363	592.6
226.741	593.2
227.119	597.3
227.497	605
227.876	582
228.254	603.5
228.633	594.4
229.011	591
229.39	599
229.769	596.9
230.148	600.5
230.527	611.1
230.905	593.6
231.284	599.9
231.664	589.3
232.043	609.7
232.422	601.2
232.801	586.3
233.181	595.8
233.56	590.7
233.94	596.1
234.319	577
234.699	592.4
235.079	630.1
235.458	628.1
235.838	612.4
236.218	585.1
236.598	583.9
236.978	585.8
237.358	588
237.738	589
238.119	602.4
238.499	583.1
238.88	590.1
239.26	604.1
239.641	585.8
240.021	592.1
240.402	590.7
240.783	589.3
241.163	589.1
241.544	590.2
241.925	591.7
242.306	608.7
242.687	585.2
243.069	596.6
243.45	601.1
243.831	592
244.212	586.4
244.594	624.2
244.975	600.4
245.357	592
245.739	585.2
246.12	596.7
246.502	607.7
246.884	589.8
247.266	596.2
247.648	597.7
248.03	617
248.412	596.6
248.794	598.2
249.176	586.4
249.559	604.1
249.941	586
250.323	586.1
250.706	591.1
251.089	588.6
251.471	601.7
251.854	591.5
252.237	600.4
252.62	609.3
253.002	597.1
253.385	590.1
253.769	613.6
254.152	598.1
254.535	606.9
254.918	587.3
255.301	590.6
255.685	588.1
256.068	582.8
256.452	610.8
256.835	599.3
257.219	602.6
257.603	610.1
257.986	585.7
258.37	602.8
258.754	584.3
259.138	604.7
259.522	606.6
259.906	594.3
260.29	600.2
260.675	590.9
261.059	594.2
261.443	583
261.828	598.5
262.212	594.1
262.597	588.2
262.981	588.4
263.366	601.8
263.751	593.8
264.136	591.9
264.521	586.9
264.906	587.4
265.291	602.9
265.676	589.9
266.061	602.1
266.446	609.4
266.831	597.7
267.217	616.7
267.602	598
267.987	597.1
268.373	593.5
268.759	598.9
269.144	601
269.53	595.3
269.916	589
270.302	589.1
270.688	596.4
271.074	599
271.46	604.3
271.846	622.4
272.232	595.1
272.618	589.3
273.004	589.1
273.391	603.3
273.777	607.1
274.164	598.4
274.55	606.3
274.937	598.9
275.324	591.1
275.71	602.3
276.097	598.6
276.484	585.6
276.871	597.6
277.258	596.5
277.645	588.3
278.032	595.6
278.419	595.7
278.807	594.4
279.194	582
279.581	585.6
279.969	601.1
280.356	595.6
280.744	596.7
281.131	622.9
281.519	606.5
281.907	588.5
282.295	597.5
282.682	607.7
283.07	602.1
283.458	601.6
283.846	603.9
284.235	601.2
284.623	602.3
285.011	584.8
285.399	593.9
285.788	596.8
286.176	579.3
286.565	608.6
286.953	586.8
287.342	588.6
287.731	584.7
288.119	586.7
288.508	593.6
288.897	597.9
289.286	581.9
289.675	602.1
290.064	606.2
290.453	591.9
290.821	595.6
291.21	607.6
291.599	586.9
291.989	588.8
292.378	603.9
292.768	608.5
293.157	596.5
293.547	608.7
293.936	590.9
294.326	591.8
294.716	597.6
295.106	590.5
295.496	600.2
295.886	606.3
296.276	591.8
296.666	587.5
297.056	590.1
297.446	584.8
297.836	604.3
298.227	586.8
298.617	589.7
299.008	603.7
299.398	591.8
299.789	585.8
300.179	594.7
300.57	605.4
300.961	583.6
301.352	585.5
301.742	599.7
302.133	593.2
302.524	591.2
302.915	592.4
303.307	581
303.698	605.7
304.089	598.3
304.48	593.5
304.872	603.3
305.263	597.8
305.655	589
306.046	602.5
306.438	600.4
306.829	591.5
307.221	609.4
307.613	602.2
308.005	606
308.397	609.4
308.789	618.4
309.181	620.3
309.573	615.8
309.965	607.7
310.357	597.8
310.749	602.2
311.142	585.7
311.534	593.3
311.926	600.4
312.319	594.2
312.711	594.8
313.104	606.7
313.497	592.3
313.889	634.4
314.282	611.3
314.675	620.7
315.068	597.8
315.461	603
315.854	626.5
316.247	603.5
316.64	595.9
317.033	598.6
317.405	605.5
317.798	594.3
318.192	595.9
318.585	587.7
318.979	604.1
319.372	587.3
319.766	591.6
320.16	606.7
320.553	612.1
320.947	616.1
321.341	596.6
321.735	594.1
322.129	583.1
322.523	619
322.917	588.2
323.311	606.2
323.705	597.3
324.099	596.5
324.494	611.7
324.888	603.3
325.282	592.1
325.677	603.9
326.071	605.2
326.466	605.4
326.861	602.7
327.255	602.8
327.65	607.9
328.045	610.2
328.44	597.6
328.835	593.2
329.23	588.3
329.625	619.8
330.02	588.7
330.415	609.6
330.81	608.1
331.206	592.9
331.601	592
331.996	605.9
332.37	608.5
332.766	586.9
333.161	618.4
333.557	583.8
333.953	595.8
334.348	1023.3
334.744	599.2
335.14	588.2
335.536	594.9
335.932	605
336.328	594.9
336.724	606
337.12	593.1
337.516	596.6
337.913	603.2
338.309	609.3
338.705	598.6
339.102	609.1
339.498	589.6
339.895	610.3
340.291	590.4
340.688	605
341.085	586.1
341.481	598
341.878	591.8
342.275	618.5
342.672	580.9
343.069	584.7
343.466	589.2
343.842	597.4
344.239	596.8
344.636	596.7
345.033	587
345.431	590.2
345.828	595.9
346.225	584.6
346.623	598.9
347.02	597
347.418	601.5
347.816	605.6
348.213	586
348.611	596.3
349.009	582.4
349.407	603.6
349.805	579.3
350.203	581.9
350.601	604.5
350.999	585.5
351.397	582.2
351.795	594.2
352.193	608.1
352.57	599.6
352.969	603.5
353.367	584
353.766	588.6
354.164	586.5
354.563	603
354.961	589.8
355.36	587.8
355.759	596.1
356.158	583.8
356.557	587.7
356.956	587.3
357.355	578.2
357.754	594.6
358.153	594.3
358.552	619.7
358.951	583.8
359.35	601.8
359.75	582.1
360.149	582.1
360.527	581.4
360.926	582.5
361.326	592.3
361.726	587.3
362.125	579.3
362.525	602
362.925	594.8
363.325	592.9
363.724	589
364.124	588.7
364.524	585.9
364.924	578.6
365.324	605.7
365.725	575.8
366.125	587.6
366.525	589.2
366.904	584.5
367.304	574.3
367.705	611.5
368.105	599.2
368.506	587.4
368.906	586.4
369.307	586.9
369.708	595.1
370.108	577.5
370.509	603.7
370.91	581.2
371.311	586.1
371.712	591.6
372.113	581.6
372.514	574.3
372.894	585.3
373.295	583.1
373.696	597.5
374.097	601
374.499	614.7
374.9	597.2
375.301	581.9
375.703	589.4
376.105	583.4
376.506	591.8
376.908	595.3
377.309	586.8
377.711	592.4
378.113	587.3
378.493	590
378.895	582.4
379.297	594.1
379.699	575.1
380.102	591.3
380.504	591.4
380.906	585
381.308	612.1
381.71	585.4
382.113	593.2
382.515	586.2
382.918	591
383.299	588.1
383.701	593.9
384.104	594.3
384.507	569.4
384.909	583.5
385.312	573.5
385.715	578.7
386.118	587.4
386.521	577.2
386.924	599.8
387.327	585.5
387.709	575.3
388.112	571.1
388.515	585.5
388.918	588.9
389.322	588.6
389.725	581.2
390.129	607.8
390.532	588.9
390.936	584.2
391.339	581.2
391.743	585.7
392.125	574.6
392.529	593.8
392.933	596.3
393.337	583.4
393.74	588.3
394.144	581.9
394.548	578
394.953	585.6
395.357	593.7
395.761	583.2
396.144	583.9
396.548	587.8
396.952	579.5
397.357	588.3
397.761	573.2
398.166	578.7
398.57	582.4
398.975	577.9
399.379	589.6
399.763	630
400.168	585.5
400.572	581
400.977	579.1
401.382	606.9
401.787	599
402.192	604
402.597	603.8
403.002	569
403.386	595
403.791	604.7
404.197	584.3
404.602	591
405.007	587.1
405.413	579.7
405.818	580.5
406.224	577.3
406.608	586.2
407.014	582.1
407.42	605.6
407.825	581.3
408.231	597
408.637	588.8
409.043	598.9
409.449	582.9
409.834	585.8
410.24	587.1
410.646	600.8
411.052	593.2
411.458	599.5
411.865	600.8
412.271	598
412.677	592.1
413.062	595.1
413.469	582.4
413.875	613.7
414.282	602.6
414.689	599.4
415.095	596.5
415.502	583.9
415.888	590.9
416.294	571.6
416.701	628.2
417.108	581.5
417.515	598
417.923	586.2
418.33	605.8
418.715	597.3
419.123	588.7
419.53	583.7
419.937	588.1
420.345	602.5
420.752	588.1
421.16	603.9
421.546	588.8
421.953	592.9
422.361	574.5
422.769	588.5
423.177	588.4
423.585	613.7
423.992	607.8
424.379	599.1
424.787	601.9
425.195	606.8
425.603	590.5
426.011	599.2
426.419	603.2
426.806	586.9
427.214	594.7
427.623	606.3
428.031	603.6
428.44	591.4
428.848	599.9
429.235	604.9
429.644	596.9
430.053	593.3
430.461	607.6
430.87	616.7
431.279	601.8
431.666	581.5
432.075	595.7
432.484	598.1
432.893	587.8
433.302	602.3
433.711	632
434.099	591.7
434.508	590.2
434.918	579.8
435.327	598.2
435.737	593.4
436.125	588.2
436.534	590
436.944	590.2
437.353	595.2
437.763	612.3
438.173	580.5
438.561	595.5
438.971	574
439.381	588
439.791	592
440.201	572.6
440.589	583.6
440.999	594.8
441.409	589
441.819	576.1
442.23	593.6
442.619	592.2
443.029	592.3
443.439	588.9
443.85	593.4
444.26	600.6
444.649	595.1
445.06	587.6
445.471	578.2
445.881	589.9
446.292	602.2
446.682	607.8
447.092	571.8
447.503	636.7
447.914	580.2
448.325	587.7
448.715	588.8
449.126	582.8
449.537	579.7
449.948	589.3
450.338	585.6
450.75	592.7
451.161	591.7
451.572	591.8
451.984	573.7
452.374	568.4
452.786	583
453.197	585.4
453.609	593.1
453.999	571
454.411	575.1
454.823	597.3
455.235	594.1
455.647	583.1
456.037	586.7
456.449	566.4
456.862	578.5
457.274	587.8
457.665	578.6
458.077	591.7
458.489	593.3
458.902	580.9
459.293	587.8
459.705	584.5
460.118	575.1
460.53	588.6
460.921	587
461.334	586
461.747	585.7
462.16	595.3
462.551	596.3
462.964	588.9
463.377	574.6
463.79	583.1
464.182	597.2
464.595	578.2
465.008	586.7
465.421	585
465.813	583
466.226	589.8
466.64	579.1
467.053	635.5
467.445	593.3
467.859	583.3
468.272	588.8
468.686	598.2
469.078	580.8
469.492	574.1
469.906	584.7
470.298	592.1
470.712	578.5
471.126	613.5
471.54	571.1
471.933	575.7
472.347	579.6
472.761	580.2
473.175	575.9
473.568	574.1
473.982	576.7
474.397	579.2
474.79	582.5
475.204	591.6
475.619	582.4
476.033	589.6
476.426	582.1
476.841	577.3
477.256	605.6
477.649	575.3
478.064	571.8
478.479	572.7
478.872	579.1
479.287	563.3
479.702	571.9
480.118	579.2
480.511	580.3
480.927	566.2
481.342	574.3
481.736	585.5
482.151	574.8
482.566	588
482.96	579.5
483.376	591.5
483.792	570.7
484.186	587.2
484.602	577.1
485.017	577.8
485.412	579.6
485.827	582.3
486.243	576.5
486.638	598
487.054	584.1
487.47	593.5
487.865	573.3
488.281	574
488.697	572.4
489.092	579.4
489.508	568.3
489.925	586
490.32	569.2
490.736	581.5
491.153	580.9
491.548	578.8
491.964	587.6
492.381	563.4
492.776	577.2
493.193	576
493.61	580.7
494.006	580.4
494.422	585
494.84	572.6
495.235	584.1
495.652	577.2
496.069	580.4
496.465	569.7
496.883	577.6
497.3	604.1
497.696	573.6
498.113	585.2
498.509	565.7
498.927	568.3
499.344	566
499.741	567.1
500.158	584.8
500.576	589.8
500.973	583.6
501.39	573
501.787	565.7
502.205	576.9
502.623	573.6
503.02	570.3
503.438	569.3
503.856	574.1
504.253	582.8
504.671	577.6
505.068	570.2
505.486	573.6
505.905	598.3
506.302	578.5
506.72	588.8
507.118	570.8
507.536	581.7
507.955	574.2
508.352	583.1
508.771	585.3
509.169	589.1
509.587	569.5
510.006	580.2
510.404	566
510.823	576.4
511.221	575.8
511.64	568.9
512.038	594.2
512.457	574.5
512.877	579.3
513.275	569.2
513.694	576
514.092	572.5
514.512	575.2
514.91	576.2
515.33	582.3
515.749	583.1
516.148	580.2
516.568	576.1
516.966	571.5
517.386	572.7
517.785	575.6
518.205	573.5
518.603	573.9
519.024	569.5
519.444	577.4
519.843	586.5
520.263	575.5
520.662	578.4
521.082	574
521.481	579.5
521.902	573.6
522.301	579.5
522.722	576.2
523.121	576.4
523.542	576.1
523.963	574.9
524.362	569.1
524.783	579.2
525.183	575
525.604	577
526.003	572.7
526.425	567.1
526.824	579.1
527.246	581.2
527.646	585.8
528.067	576.6
528.467	572.2
528.888	576.9
529.289	574.1
529.71	577.2
530.11	573.1
530.532	567.7
530.932	562.9
531.354	565.6
531.755	612.5
532.176	585.9
532.577	575.1
532.999	583.1
533.4	572.5
533.822	583.3
534.223	577.1
534.645	576.3
535.046	573.6
535.468	574.1
535.869	587.4
536.292	566.9
536.693	574.1
537.115	581.4
537.516	568.3
537.939	574.9
538.34	592.9
538.742	585.7
539.165	573.5
539.566	574
539.989	566.7
540.391	569
540.814	577.8
541.216	577.2
541.639	575
542.041	584.8
542.464	572.6
542.866	570.2
543.268	561.3
543.691	579.9
544.093	577.7
544.517	595.8
544.919	567.6
545.343	599.7
545.745	568.4
546.147	573
546.571	574.7
546.974	564.7
547.398	568.8
547.8	587.9
548.224	568.4
548.627	563.7
549.03	577.7
549.454	569.6
549.857	568.1
550.281	563.9
550.684	570
551.087	585.7
551.512	578
551.915	579.7
552.34	579.6
552.743	571.3
553.146	582.2
553.571	573.2
553.975	593.5
554.399	566.5
554.803	624.4
555.207	566.9
555.632	567
556.036	577.9
556.461	567.5
556.865	573.6
557.268	567.3
557.694	577.5
558.098	575.7
558.502	579.4
558.927	568
559.332	570.5
559.736	572.6
560.162	582.2
560.566	570.6
560.992	577.7
561.396	570.6
561.801	565.5
562.227	567.9
562.631	576.4
563.036	573.6
563.462	573.9
563.867	577.8
564.272	563
564.698	577.2
565.103	562.9
565.508	589.6
565.935	571.9
566.34	571.7
566.745	583.6
567.172	568.9
567.577	590.1
567.982	585.5
568.409	576.9
568.815	565.2
569.22	576.7
569.626	580.8
570.053	561.1
570.459	577.9
570.865	581.5
571.292	577.8
571.698	572.1
572.104	561.7
572.531	568.9
572.937	580.7
573.343	569.4
573.75	568.5
574.177	580.7
574.583	572
574.99	568.8
575.396	579.4
575.824	572.9
576.231	576.3
576.637	566.3
577.065	590.2
577.472	568.5
577.879	569
578.286	589.5
578.714	565.3
579.121	573.4
579.528	573.9
579.935	579.7
580.364	571.4
580.771	564.1
581.178	567.6
581.585	576
582.014	580.8
582.421	563.8
582.829	566.5
583.236	582.9
583.644	563.2
584.073	566.1
584.481	567.9
584.889	563.9
585.296	575.2
585.726	569.8
586.134	565.1
586.542	566.2
586.95	587.1
587.358	555.7
587.787	573.6
588.196	562
588.604	567.6
589.012	573.1
589.421	568.5
589.851	561.1
590.259	574.7
590.668	566.1
591.076	603.9
591.485	564.2
591.894	569.6
592.324	578.5
592.733	582.6
593.142	555
593.551	565.3
593.96	601.8
594.369	561.7
594.8	559.9
595.209	567.4
595.618	562.6
596.028	567.8
596.437	567.8
596.847	568.9
597.256	576.7
597.687	571.8
598.097	573.2
598.507	555.4
598.917	571.8
599.327	577.5
599.736	570.6
600.146	582.6
600.556	568.9
600.988	578.2
601.398	568.6
601.808	581.7
602.219	557.4
602.629	573.3
603.039	573
603.45	599
603.86	577.4
604.271	584.8
604.703	572.9
605.114	575.7
605.525	576
605.935	576.8
606.346	591.8
606.757	572.4
607.168	570.9
607.579	566.5
607.99	573.7
608.402	571.5
608.813	573
609.224	567
609.636	561.5
610.047	569.7
610.48	572.4
610.892	578
611.303	577.5
611.715	566.1
612.127	564.9
612.539	564.6
612.95	572.8
613.362	553.7
613.774	563.6
614.186	562.2
614.599	561.5
615.011	577.5
615.423	563.8
615.835	569.4
616.248	565.4
616.66	575.5
617.073	560.8
617.485	566.9
617.898	574.5
618.311	572.2
618.723	566.4
619.136	596.5
619.549	580
619.962	584.4
620.375	566.7
620.788	570.4
621.201	557.4
621.614	575.5
622.028	565
622.441	575.6
622.854	581.2
623.268	562.7
623.681	573.1
624.095	569.6
624.509	579
624.922	577.4
625.336	561.9
625.728	572.9
626.142	578.3
626.556	585.6
626.97	579
627.384	569.2
627.799	573.1
628.213	576.1
628.627	571.5
629.041	569.5
629.456	570.5
629.87	567.9
630.285	578.2
630.699	578.5
631.093	573.7
631.507	574
631.922	570.5
632.337	586.4
632.752	561
633.167	568.9
633.582	565.6
633.997	565.8
634.412	564.1
634.806	571.7
635.221	562.7
635.637	580.8
636.052	556.9
636.468	569.1
636.883	586.9
637.299	565.4
637.715	559.7
638.109	570.8
638.525	559.4
638.941	582.3
639.357	573.3
639.773	581.2
640.189	557.7
640.584	567.2
641	571.6
641.416	555.4
641.832	567.6
642.249	567.7
642.665	567
643.06	577.4
643.477	575.7
643.894	556.2
644.31	563.8
644.727	565.8
645.123	569.9
645.54	561.5
645.957	574
646.374	570.3
646.77	569.3
647.187	595.7
647.604	570.8
648.021	552
648.439	561
648.835	569.2
649.252	566.3
649.67	568.8
650.088	570.6
650.484	567.4
650.902	575.3
651.32	571.1
651.738	567.3
652.134	572.2
652.552	585.9
652.971	575.7
653.389	567.4
653.786	587.7
654.204	564.1
654.622	558
655.019	569
655.438	579.5
655.857	574.8
656.275	565.6
656.673	561.2
657.091	637
657.51	564.4
657.908	571.6
658.327	585.2
658.746	555.9
659.144	566.3
659.563	576.9
659.982	566.9
660.38	556.7
660.8	570.8
661.219	573.7
661.617	569.8
662.037	571.4
662.457	571.7
662.855	560.1
663.275	597.8
663.695	571.6
664.094	560.2
664.514	565.6
664.934	562.1
665.333	577.5
665.753	560.3
666.152	563.2
666.572	562.6
666.993	580.6
667.392	564
667.812	566.5
668.212	564.3
668.632	576
669.053	565
669.453	565.3
669.874	572.5
670.273	569.7
670.694	562.6
671.116	574.7
671.515	574
671.937	569
672.337	567.4
672.758	564.4
673.158	571.7
673.58	562
673.98	570.2
674.402	584.3
674.824	565.8
675.224	561.1
675.646	559.3
676.047	563
676.469	566.9
676.869	573.4
677.292	564.5
677.693	556.2
678.115	557.6
678.516	574.1
678.939	562.1
679.34	564.8
679.762	578.7
680.164	570.1
680.586	557.6
680.988	572.8
681.411	590.5
681.812	564.9
682.236	549.9
682.637	554.6
683.061	554.4
683.462	568.3
683.864	566.6
684.288	568.5
684.69	555.4
685.114	575.6
685.516	566.2
685.94	557.6
686.342	572.1
686.766	561.5
687.168	560.9
687.571	585.1
687.995	567.4
688.398	555.4
688.822	560.9
689.225	587.1
689.628	583.6
690.052	567.4
690.456	572.2
690.88	567.9
691.284	560.1
691.687	568.8
692.112	562
692.515	554.5
692.919	569.1
693.344	565.1
693.747	560.7
694.173	561.5
694.577	577.9
694.98	569.5
695.406	567.7
695.81	572.8
696.214	566
696.64	568.1
697.044	568.5
697.448	574.6
697.874	568.5
698.279	563.6
698.684	558.4
699.11	560.7
699.514	561.4
699.919	565.3
700.324	559.9
700.75	567.6
701.156	571.4
701.561	572.9
701.987	579.1
702.393	574.4
702.798	570.8
703.203	564.1
703.63	569.4
704.036	561.9
704.442	568.1
704.847	560
705.274	562.7
705.68	572.9
706.086	573.7
706.492	561.6
706.92	566.8
707.326	576.6
707.732	569.4
708.139	559.8
708.545	563.1
708.973	565.1
709.38	564.9
709.786	554.5
710.193	581.5
710.6	561.9
711.028	565.8
711.435	558.7
711.842	563.7
712.249	562.7
712.656	564.7
713.064	574.2
713.492	555.8
713.9	559.1
714.307	571.6
714.715	565.1
715.123	562.9
715.53	572.4
715.938	571.3
716.367	570.3
716.775	564.2
717.184	564.1
717.592	562.6
718	572.7
718.408	595.4
718.816	608.7
719.225	572.6
719.633	569.4
720.042	560.5
720.472	567.1
720.881	582.6
721.29	571.5
721.699	558.8
722.108	569.6
722.517	569.7
722.926	563.8
723.335	573.4
723.744	564.5
724.154	566.3
724.563	569.7
724.973	568.2
725.382	565.3
725.792	561.3
726.202	560.8
726.612	576.4
727.022	560.1
727.432	560.6
779.813	557.9
780.223	609.5
780.634	563.8
781.044	563.6
781.454	565.4
781.865	570.5
782.276	554.4
782.686	569.5
783.097	563.5
783.508	558.5
783.919	565.1
784.33	573.5
784.741	576.8
785.152	556.1
785.563	552.9
785.974	554.7
786.386	570.7
786.776	564.8
787.188	563.2
787.599	556.6
788.011	564.7
788.423	566.1
788.835	561.7
789.247	555.4
789.659	558.5
790.071	564.3
790.483	604.3
790.874	568.5
791.286	570.6
791.699	561.5
792.111	565.9
792.524	567.2
792.937	559.6
793.349	556.4
793.741	563
794.154	561.1
794.567	582.7
794.98	562.8
795.393	556.3
795.785	576.8
796.198	554.3
796.612	564
797.026	562.8
797.439	550.5
797.831	562.8
798.245	554.8
798.659	565.1
799.073	561
799.487	558.8
799.88	565.5
800.294	571.3
800.708	570.5
801.123	568
801.516	582.9
801.93	549.6
802.345	547.3
802.76	564.2
803.153	578.6
803.568	576.6
803.983	570.2
804.377	564.8
804.792	550.9
805.207	552.7
805.601	559.6
806.016	593.4
806.432	556.2
806.826	584
807.242	576.9
807.658	564
808.052	557.8
808.468	557.7
808.884	562.3
809.279	558.1
809.695	573.5
810.111	585.5
810.506	568.9
810.922	584.4
811.339	558.8
811.734	566.6
812.151	558.9
812.546	555.6
812.963	558.5
813.38	568.4
813.776	568.2
814.193	585
814.589	563.9
815.006	561.6
815.402	556.7
815.82	562.2
816.237	566.7
816.633	561.2
817.051	550.4
817.448	568.4
817.866	552.7
818.262	579.2
818.68	558.7
819.077	559.6
819.495	557.6
819.892	600.4
820.311	555.7
820.708	556
821.127	558.6
821.524	572.6
821.943	559.1
822.34	576.4
822.759	561.8
823.157	560
823.576	573.9
823.974	567.1
824.393	561.9
824.791	559.1
825.189	550.9
825.609	562.7
826.007	557.1
826.427	554.8
826.826	555.2
827.246	562.7
827.644	544.8
828.043	570.1
828.463	553.8
828.862	573.3
829.261	560.7
829.682	549.4
830.081	559.6
830.502	551.9
830.901	558.6
831.301	554.4
831.722	550.6
832.121	560.8
832.521	558.1
832.943	560.8
833.342	563.2
833.742	556.7
834.164	555.5
834.564	548.1
834.965	560.9
835.386	555.8
835.787	554.3
836.188	555.6
836.588	562.1
837.01	564.5
837.411	557.7
837.812	567.3
838.213	565.5
838.636	557.4
839.037	624.4
839.438	560.5
839.84	561.6
840.263	564.4
840.664	566.8
841.066	556.9
841.468	563
841.891	561.6
842.293	569.1
842.695	568.8
843.098	571.7
843.5	562.9
843.902	567.2
844.326	566.5
844.729	563.1
845.131	573.3
845.534	566.8
845.937	575.4
846.34	582.5
846.764	549.3
