#lambda/nm	C1
208.295	486.1
208.67	448.6
209.045	411
209.419	415.2
209.794	589.8
210.169	572.1
210.544	685.6
210.919	592.7
211.295	580.1
211.67	589.7
212.045	584.3
212.421	588
212.796	617.1
213.172	579.1
213.547	581
213.923	584
214.299	583.2
214.675	596.7
215.051	592.2
215.427	592.8
215.803	608.4
216.179	596.1
216.555	584.9
216.932	591.8
217.308	588.2
217.684	584.5
218.061	596.7
218.438	584.4
218.814	584.5
219.191	598.6
219.568	582
219.945	589.9
220.322	597.2
220.699	590
221.076	595.2
221.453	592
221.83	580.3
222.208	585.3
222.585	582.6
222.962	591.8
223.34	594.7
223.717	590.6
224.095	581.5
224.473	588.9
224.851	577.6
225.229	574
225.607	601
225.985	575.7
226.363	585.9
226.741	587
227.119	586
227.497	600.1
227.876	575
228.254	593.5
228.633	590
229.011	587.1
229.39	588
229.769	591.4
230.148	591.7
230.527	601.4
230.905	587.5
231.284	592.4
231.664	582.3
232.043	597.9
232.422	597.4
232.801	586.5
233.181	591.4
233.56	587.7
233.94	584.7
234.319	572.1
234.699	582.3
235.079	623.9
235.458	622.8
235.838	602.7
236.218	585.3
236.598	576.6
236.978	579.1
237.358	584.3
237.738	586.9
238.119	594.4
238.499	580.6
238.88	588.5
239.26	602
239.641	575.2
240.021	585
240.402	587.8
240.783	578
241.163	586.6
241.544	596.2
241.925	587.6
242.306	601.4
242.687	584.6
243.069	582.3
243.45	591
243.831	587.9
244.212	586.4
244.594	625.7
244.975	599.4
245.357	592.3
245.739	585.2
246.12	587.3
246.502	597.5
246.884	589.7
247.266	587.9
247.648	594.6
248.03	606
248.412	591
248.794	585.7
249.176	582.4
249.559	599
249.941	577.9
250.323	578.1
250.706	583.7
251.089	591.2
251.471	593
251.854	586.6
252.237	586
252.62	595.6
253.002	586
253.385	587.4
253.769	599.7
254.152	585.5
254.535	594.2
254.918	578.8
255.301	580.2
255.685	591.2
256.068	579.9
256.452	607.3
256.835	594.4
257.219	593.5
257.603	597.3
257.986	584.4
258.37	591.1
258.754	582.3
259.138	594
259.522	597.9
259.906	585.6
260.29	590.7
260.675	582.2
261.059	591.9
261.443	581.8
261.828	592.1
262.212	593.2
262.597	575.6
262.981	583.5
263.366	596
263.751	589.8
264.136	579.1
264.521	582.4
264.906	580.3
265.291	597.9
265.676	583.5
266.061	590.4
266.446	611.3
266.831	588.4
267.217	608.2
267.602	594.3
267.987	591.8
268.373	581.1
268.759	598.7
269.144	595.3
269.53	593
269.916	589.6
270.302	588.1
270.688	594.3
271.074	588.9
271.46	600.6
271.846	618.3
272.232	581.8
272.618	581.9
273.004	587
273.391	594.7
273.777	598
274.164	591.8
274.55	601.8
274.937	587.9
275.324	580.1
275.71	595.7
276.097	591.9
276.484	587.1
276.871	596.4
277.258	593.4
277.645	578.6
278.032	586.4
278.419	583.1
278.807	592.9
279.194	582.3
279.581	581.8
279.969	594.7
280.356	587
280.744	587.8
281.131	613.2
281.519	592.9
281.907	583.2
282.295	586.4
282.682	599.7
283.07	588
283.458	598.8
283.846	598.3
284.235	595
284.623	595.3
285.011	576.4
285.399	588.1
285.788	590.1
286.176	579.4
286.565	600.3
286.953	583.5
287.342	582.6
287.731	585.4
288.119	578.9
288.508	586
288.897	590.2
289.286	578.4
289.675	586.5
290.064	597.5
290.453	586.2
290.821	582.4
291.21	609
291.599	579
291.989	591.2
292.378	595.4
292.768	606
293.157	601.3
293.547	601.8
293.936	583.8
294.326	578.6
294.716	590.6
295.106	579
295.496	588.7
295.886	596.9
296.276	584
296.666	584.6
297.056	585.8
297.446	580.7
297.836	604.2
298.227	584.3
298.617	586.3
299.008	604
299.398	581.6
299.789	589.8
300.179	590.2
300.57	599.4
300.961	584.7
301.352	581.1
301.742	599.3
302.133	593.1
302.524	593.1
302.915	592.1
303.307	580.7
303.698	598.4
304.089	589.6
304.48	592.9
304.872	593.3
305.263	593.5
305.655	581.3
306.046	591.7
306.438	596.9
306.829	582
307.221	606.7
307.613	592.9
308.005	596.3
308.397	597.8
308.789	610
309.181	617
309.573	610.6
309.965	600.1
310.357	590.7
310.749	598.3
311.142	583.4
311.534	585
311.926	597
312.319	589.9
312.711	586
313.104	605.4
313.497	593.2
313.889	628.9
314.282	607.9
314.675	617.1
315.068	592.3
315.461	599.7
315.854	618.1
316.247	595.9
316.64	590.2
317.033	592.6
317.405	598.5
317.798	586.7
318.192	597
318.585	586.7
318.979	595.4
319.372	584.4
319.766	586
320.16	604.9
320.553	598.1
320.947	609.9
321.341	591.6
321.735	582.7
322.129	572.2
322.523	612.8
322.917	577.7
323.311	593
323.705	595.6
324.099	588.4
324.494	602.6
324.888	597.1
325.282	590.2
325.677	590.6
326.071	595.7
326.466	602.3
326.861	594
327.255	598.5
327.65	603.6
328.045	604.9
328.44	593
328.835	591.3
329.23	584.5
329.625	615.4
330.02	580.5
330.415	606.1
330.81	593.5
331.206	593.3
331.601	585.5
331.996	597.9
332.37	607.8
332.766	580.9
333.161	615.6
333.557	584
333.953	594.2
334.348	935.9
334.744	593
335.14	586.8
335.536	590.8
335.932	607.2
336.328	590.3
336.724	601
337.12	590.2
337.516	594.2
337.913	593.2
338.309	601.9
338.705	592
339.102	601.6
339.498	588.7
339.895	609.7
340.291	583.9
340.688	599.9
341.085	586.7
341.481	584.8
341.878	585.9
342.275	610.9
342.672	582.9
343.069	583.6
343.466	579.4
343.842	601.2
344.239	580.6
344.636	594
345.033	585.6
345.431	584.7
345.828	592.6
346.225	586.4
346.623	596.1
347.02	589.1
347.418	596.1
347.816	600.3
348.213	578.5
348.611	586.7
349.009	575.2
349.407	595.5
349.805	575.9
350.203	576.3
350.601	595.8
350.999	579.1
351.397	574.6
351.795	584.7
352.193	596.3
352.57	595.4
352.969	597.3
353.367	576.2
353.766	580.1
354.164	588.5
354.563	596
354.961	588.8
355.36	588.5
355.759	586
356.158	581.3
356.557	578.4
356.956	578
357.355	575.1
357.754	589.2
358.153	596.2
358.552	603.4
358.951	578
359.35	594.5
359.75	583.3
360.149	578.7
360.527	572.3
360.926	580.3
361.326	585.6
361.726	586
362.125	577.1
362.525	587.5
362.925	589.2
363.325	586.2
363.724	585.6
364.124	579.9
364.524	575.1
364.924	580.5
365.324	599.3
365.725	574.3
366.125	589
366.525	581
366.904	579.4
367.304	562.3
367.705	605.1
368.105	595
368.506	586.2
368.906	584.8
369.307	582.9
369.708	585.5
370.108	577
370.509	584.9
370.91	572.7
371.311	589.9
371.712	593.7
372.113	577.8
372.514	569.7
372.894	576
373.295	576.6
373.696	591.4
374.097	588.7
374.499	612.3
374.9	585.4
375.301	576.4
375.703	582.7
376.105	576.2
376.506	581
376.908	586.6
377.309	580.2
377.711	584.6
378.113	579
378.493	580.5
378.895	575.7
379.297	592.8
379.699	574.3
380.102	586.7
380.504	586.4
380.906	574.6
381.308	611.4
381.71	582.2
382.113	590.3
382.515	576.6
382.918	583.9
383.299	580.6
383.701	586.4
384.104	585.4
384.507	565.4
384.909	580.5
385.312	575.2
385.715	573.8
386.118	576.8
386.521	571.7
386.924	595.8
387.327	583.5
387.709	572.7
388.112	567.4
388.515	581.8
388.918	575.6
389.322	579.5
389.725	576.3
390.129	606.2
390.532	585.1
390.936	572.9
391.339	570.4
391.743	584.1
392.125	575.5
392.529	587.2
392.933	590.1
393.337	582.5
393.74	578.6
394.144	585.6
394.548	576.4
394.953	577.8
395.357	588.7
395.761	578.9
396.144	580.6
396.548	580.4
396.952	577.2
397.357	586.3
397.761	580.4
398.166	579.5
398.57	575.9
398.975	576.2
399.379	583.2
399.763	625.6
400.168	582.3
400.572	574.2
400.977	580.9
401.382	600.5
401.787	589
402.192	599.2
402.597	600.5
403.002	573.5
403.386	596.1
403.791	597.6
404.197	575.9
404.602	585.8
405.007	577.6
405.413	579.1
405.818	572.2
406.224	577.2
406.608	584.8
407.014	575.8
407.42	598.5
407.825	581.3
408.231	588.4
408.637	591.8
409.043	600
409.449	579.2
409.834	578.3
410.24	584.2
410.646	594.8
411.052	587.5
411.458	582.3
411.865	585.2
412.271	594.2
412.677	584.2
413.062	589.6
413.469	579.3
413.875	609.6
414.282	593.7
414.689	582.9
415.095	587.1
415.502	577.5
415.888	588.8
416.294	568.6
416.701	620.1
417.108	572.7
417.515	587.5
417.923	579.5
418.33	601.3
418.715	595
419.123	583.7
419.53	578.3
419.937	580.1
420.345	594.9
420.752	576.5
421.16	596.7
421.546	588.9
421.953	589.8
422.361	573.2
422.769	581.9
423.177	581.2
423.585	603.1
423.992	604
424.379	593.5
424.787	590.6
425.195	600.8
425.603	584.9
426.011	592
426.419	597.1
426.806	584.4
427.214	581.6
427.623	595.6
428.031	597.7
428.44	589.9
428.848	596.8
429.235	600.1
429.644	587.6
430.053	580.3
430.461	595.6
430.87	608.7
431.279	592.8
431.666	577.4
432.075	588.3
432.484	595.1
432.893	589.6
433.302	603.2
433.711	625.7
434.099	592.8
434.508	584.6
434.918	574.2
435.327	591.2
435.737	588.7
436.125	580.5
436.534	590.4
436.944	585.3
437.353	594.9
437.763	604.9
438.173	579.2
438.561	595.2
438.971	568.7
439.381	580.3
439.791	587.9
440.201	562.8
440.589	586.6
440.999	590.3
441.409	580.3
441.819	571.3
442.23	589.9
442.619	586.9
443.029	582.3
443.439	585.4
443.85	587.2
444.26	596.2
444.649	586.7
445.06	579.4
445.471	574
445.881	581.1
446.292	590.5
446.682	604.9
447.092	572.2
447.503	624.4
447.914	578.8
448.325	577.1
448.715	578.7
449.126	576.3
449.537	576.4
449.948	579.4
450.338	582.1
450.75	588
451.161	582.2
451.572	582
451.984	573.6
452.374	562
452.786	578.2
453.197	581
453.609	588.6
453.999	569.6
454.411	577.6
454.823	589.5
455.235	586
455.647	581.6
456.037	582.7
456.449	568.6
456.862	580.4
457.274	588.9
457.665	571.3
458.077	579.7
458.489	591
458.902	575.4
459.293	582.2
459.705	577
460.118	575.3
460.53	588.3
460.921	582.4
461.334	587.4
461.747	583.9
462.16	590.8
462.551	595.1
462.964	589
463.377	570.4
463.79	575.3
464.182	591
464.595	572.9
465.008	582.2
465.421	583.1
465.813	574.1
466.226	575.5
466.64	575.7
467.053	620.9
467.445	591.1
467.859	574.5
468.272	580.4
468.686	589.1
469.078	576.4
469.492	563.6
469.906	576.7
470.298	582.9
470.712	570.7
471.126	602.9
471.54	559.1
471.933	564.7
472.347	572.6
472.761	563.7
473.175	565.4
473.568	574.2
473.982	571
474.397	569.9
474.79	577.8
475.204	586.6
475.619	572.7
476.033	575.9
476.426	573.5
476.841	571.2
477.256	598.6
477.649	572.3
478.064	564
478.479	570.3
478.872	572.3
479.287	563.3
479.702	568.6
480.118	571
480.511	567.4
480.927	571.1
481.342	569.6
481.736	578.3
482.151	569.4
482.566	586.3
482.96	577
483.376	586.5
483.792	566.9
484.186	580.4
484.602	566.4
485.017	570.9
485.412	565.3
485.827	576.6
486.243	569
486.638	596.5
487.054	576.5
487.47	581.9
487.865	572.6
488.281	569.6
488.697	571.3
489.092	571.1
489.508	568.2
489.925	587.5
490.32	559.1
490.736	572.8
491.153	576.8
491.548	576
491.964	583
492.381	559
492.776	579.2
493.193	573
493.61	578.1
494.006	579
494.422	579.1
494.84	561.7
495.235	582.3
495.652	576
496.069	572.5
496.465	561.6
496.883	571.3
497.3	595
497.696	571
498.113	581.6
498.509	559.2
498.927	566.8
499.344	560.5
499.741	571.4
500.158	583.7
500.576	581.3
500.973	574.9
501.39	566.9
501.787	563.2
502.205	570
502.623	565.6
503.02	567.7
503.438	570.1
503.856	567.5
504.253	580
504.671	566.9
505.068	568.2
505.486	571.5
505.905	592.2
506.302	572.2
506.72	581.9
507.118	566.8
507.536	575.1
507.955	568.2
508.352	571.2
508.771	575.6
509.169	573.6
509.587	565.1
510.006	572.4
510.404	565.3
510.823	566.8
511.221	561.9
511.64	568.7
512.038	584.3
512.457	568.2
512.877	569.1
513.275	561.1
513.694	569.1
514.092	564.5
514.512	575.5
514.91	568.2
515.33	569
515.749	571.9
516.148	574.9
516.568	575.9
516.966	568.7
517.386	569.7
517.785	572.9
518.205	567
518.603	563.6
519.024	563.7
519.444	568.2
519.843	578.2
520.263	570.6
520.662	571.9
521.082	567.6
521.481	567.8
521.902	570.1
522.301	566
522.722	570
523.121	566.7
523.542	567.2
523.963	567.6
524.362	573.3
524.783	580.7
525.183	566.7
525.604	579.5
526.003	564.8
526.425	568
526.824	576.7
527.246	583.2
527.646	584.5
528.067	572
528.467	572.6
528.888	576.7
529.289	572.3
529.71	575.5
530.11	566.7
530.532	570.1
530.932	564.9
531.354	565.4
531.755	600
532.176	579.7
532.577	566.4
532.999	571
533.4	565.3
533.822	579.2
534.223	577
534.645	569.7
535.046	569.4
535.468	570.9
535.869	578.8
536.292	563.6
536.693	568.9
537.115	569.9
537.516	562.5
537.939	570
538.34	583.5
538.742	584.3
539.165	573.2
539.566	573.6
539.989	563.3
540.391	563.4
540.814	565.8
541.216	567.4
541.639	565.3
542.041	579.2
542.464	560.9
542.866	563.1
543.268	558
543.691	573
544.093	577.6
544.517	590.6
544.919	562.5
545.343	587
545.745	562.1
546.147	570.8
546.571	568.5
546.974	562.9
547.398	574.6
547.8	581.9
548.224	563.7
548.627	561
549.03	577.6
549.454	562
549.857	561.6
550.281	564.1
550.684	561.8
551.087	583
551.512	571.5
551.915	576.1
552.34	569.9
552.743	561.4
553.146	568.7
553.571	572
553.975	585.6
554.399	561.9
554.803	617.8
555.207	566.8
555.632	567.1
556.036	573.3
556.461	562
556.865	569.3
557.268	562.4
557.694	564.4
558.098	572.4
558.502	574.8
558.927	562.8
559.332	568.9
559.736	570.7
560.162	578.1
560.566	567.4
560.992	573
561.396	570.9
561.801	566.1
562.227	568.6
562.631	563.4
563.036	564.2
563.462	571
563.867	570.5
564.272	554.3
564.698	571.8
565.103	556
565.508	582.5
565.935	567.6
566.34	567.3
566.745	574.6
567.172	570.2
567.577	580.1
567.982	577.6
568.409	572
568.815	562.9
569.22	565.2
569.626	571.8
570.053	555.2
570.459	570.8
570.865	573.9
571.292	577.6
571.698	574.3
572.104	555.7
572.531	560.5
572.937	582.7
573.343	569.8
573.75	570.1
574.177	568.7
574.583	577.6
574.99	564.3
575.396	574.8
575.824	571.8
576.231	573.4
576.637	562.9
577.065	592.4
577.472	562.4
577.879	564.9
578.286	580.2
578.714	557.7
579.121	561.1
579.528	571.3
579.935	580.6
580.364	565.7
580.771	551.5
581.178	557.7
581.585	571
582.014	566
582.421	562.1
582.829	564.9
583.236	570.7
583.644	560.5
584.073	560.3
584.481	565.7
584.889	563
585.296	571.6
585.726	567
586.134	560.9
586.542	554.2
586.95	580.2
587.358	556.2
587.787	569.3
588.196	550.1
588.604	560.1
589.012	565.6
589.421	556.1
589.851	553.1
590.259	570.7
590.668	561.8
591.076	601.1
591.485	557.3
591.894	562
592.324	580.4
592.733	574.9
593.142	553.8
593.551	561
593.96	598.2
594.369	555.4
594.8	554.3
595.209	563.2
595.618	549.9
596.028	559.3
596.437	553
596.847	562.9
597.256	573.3
597.687	567.1
598.097	566.4
598.507	555.2
598.917	570.8
599.327	572.9
599.736	568.9
600.146	572.8
600.556	565.7
600.988	581.6
601.398	563.1
601.808	579.9
602.219	557.9
602.629	564.2
603.039	568.1
603.45	587.2
603.86	572.8
604.271	576.9
604.703	568.3
605.114	563.9
605.525	563.5
605.935	568.7
606.346	587.5
606.757	571.3
607.168	566.8
607.579	563
607.99	573.6
608.402	567.7
608.813	576
609.224	560.8
609.636	550.3
610.047	553.7
610.48	571.9
610.892	570.7
611.303	573.2
611.715	565.1
612.127	556.2
612.539	562.8
612.95	564.9
613.362	557
613.774	554.2
614.186	556
614.599	558.8
615.011	573.5
615.423	551
615.835	558.7
616.248	559.1
616.66	566.2
617.073	555.1
617.485	564.5
617.898	569.2
618.311	559.7
618.723	568.7
619.136	588.6
619.549	580.6
619.962	585
620.375	564.9
620.788	564.2
621.201	560.3
621.614	570.9
622.028	564.2
622.441	568.1
622.854	580.8
623.268	557.7
623.681	568.5
624.095	564.1
624.509	570.4
624.922	569.2
625.336	555.6
625.728	570.2
626.142	569.7
626.556	576
626.97	575.4
627.384	562.1
627.799	563.9
628.213	573.9
628.627	565.1
629.041	557.9
629.456	559.8
629.87	568.2
630.285	573.1
630.699	571.6
631.093	568.7
631.507	569.5
631.922	570.5
632.337	579.3
632.752	551.5
633.167	559.2
633.582	566.7
633.997	558.7
634.412	559.8
634.806	566.6
635.221	555.7
635.637	578.8
636.052	553.1
636.468	568.3
636.883	575.2
637.299	561.5
637.715	554.1
638.109	564
638.525	553.4
638.941	574.9
639.357	568.5
639.773	581
640.189	558.6
640.584	560.3
641	568
641.416	550.4
641.832	562.8
642.249	560.3
642.665	561.6
643.06	570.1
643.477	566
643.894	553.1
644.31	563.7
644.727	560.3
645.123	563.9
645.54	561.1
645.957	564
646.374	566
646.77	563.1
647.187	591.2
647.604	564
648.021	550.5
648.439	558.4
648.835	569.3
649.252	565.4
649.67	563.5
650.088	562.3
650.484	564.1
650.902	566
651.32	571.2
651.738	566.7
652.134	565.6
652.552	579
652.971	567.1
653.389	565.1
653.786	576.5
654.204	561.8
654.622	562.6
655.019	561.2
655.438	564.6
655.857	568.1
656.275	569
656.673	556.9
657.091	631.1
657.51	560.7
657.908	569.5
658.327	576.1
658.746	554.8
659.144	565.8
659.563	571.6
659.982	563.7
660.38	550.4
660.8	558.8
661.219	565.8
661.617	567.6
662.037	565.3
662.457	574.4
662.855	550.3
663.275	586.8
663.695	564.1
664.094	561.6
664.514	565.8
664.934	558.7
665.333	572.3
665.753	559.1
666.152	550.4
666.572	555
666.993	573.6
667.392	558.9
667.812	559.6
668.212	561.2
668.632	575.1
669.053	556.6
669.453	571.8
669.874	569.1
670.273	564.4
670.694	554.5
671.116	576.5
671.515	570.2
671.937	558.8
672.337	558.2
672.758	557.8
673.158	569.8
673.58	551.1
673.98	566.1
674.402	571.9
674.824	562
675.224	552.8
675.646	550.2
676.047	555
676.469	556.9
676.869	571.1
677.292	565
677.693	555.9
678.115	558.8
678.516	565
678.939	564
679.34	559.1
679.762	576.1
680.164	567.8
680.586	559.7
680.988	566.7
681.411	581.7
681.812	551.5
682.236	549.9
682.637	551.4
683.061	546.2
683.462	565.8
683.864	561.7
684.288	563.7
684.69	550.4
685.114	570.5
685.516	574.4
685.94	549.9
686.342	563.2
686.766	554.7
687.168	551.3
687.571	577.8
687.995	559.7
688.398	552.2
688.822	559.6
689.225	579.5
689.628	579.7
690.052	558.2
690.456	570.8
690.88	556.6
691.284	557.1
691.687	565.4
692.112	551.6
692.515	556.6
692.919	564.8
693.344	569.1
693.747	565.5
694.173	558.5
694.577	574.2
694.98	565.3
695.406	558.2
695.81	568.1
696.214	561.8
696.64	559.9
697.044	563.4
697.448	574.9
697.874	557
698.279	563.1
698.684	549.7
699.11	556.5
699.514	563
699.919	557.3
700.324	552
700.75	558.4
701.156	562
701.561	564.2
701.987	560
702.393	570.5
702.798	569.6
703.203	560.6
703.63	560
704.036	554.1
704.442	557.2
704.847	554.1
705.274	556.8
705.68	566.1
706.086	567.1
706.492	556.6
706.92	561.4
707.326	572.2
707.732	561.7
708.139	555.4
708.545	550.3
708.973	557.1
709.38	564
709.786	553.9
710.193	569
710.6	564.6
711.028	553.5
711.435	555.1
711.842	555.6
712.249	557.2
712.656	560.8
713.064	573.4
713.492	552.2
713.9	559.1
714.307	572.9
714.715	557.5
715.123	565
715.53	562.4
715.938	568.4
716.367	567.2
716.775	559.3
717.184	558.2
717.592	556.6
718	573.6
718.408	589
718.816	599.9
719.225	562.2
719.633	562.6
720.042	556.8
720.472	557.2
720.881	575
721.29	561.9
721.699	551.1
722.108	564.1
722.517	561.5
722.926	557
723.335	566.7
723.744	564.1
724.154	560.6
724.563	563.1
724.973	563.4
725.382	559.3
725.792	559.6
726.202	550.2
726.612	575.3
727.022	561.4
727.432	557.8
779.813	559.3
780.223	602
780.634	559.9
781.044	554.5
781.454	562.4
781.865	571.1
782.276	551.4
782.686	567.1
783.097	557.3
783.508	557.2
783.919	562.9
784.33	569.6
784.741	569.4
785.152	554.4
785.563	547.6
785.974	552.8
786.386	561.8
786.776	554.8
787.188	565.2
787.599	549.9
788.011	569.5
788.423	564.3
788.835	558.3
789.247	546.4
789.659	555.7
790.071	553.7
790.483	596.4
790.874	561.4
791.286	571.9
791.699	559.9
792.111	560.4
792.524	558.6
792.937	560.2
793.349	546.9
793.741	554.2
794.154	557.1
794.567	575.5
794.98	558.7
795.393	552.1
795.785	576.8
796.198	551.4
796.612	561.5
797.026	555.9
797.439	545.4
797.831	558.7
798.245	553
798.659	552.3
799.073	553.5
799.487	553.6
799.88	559.9
800.294	562.3
800.708	563.4
801.123	559
801.516	576.6
801.93	548.4
802.345	545.1
802.76	556.7
803.153	569.7
803.568	569.3
803.983	563.9
804.377	566
804.792	542.6
805.207	546.5
805.601	557.9
806.016	590.8
806.432	547.2
806.826	588.7
807.242	579
807.658	561.9
808.052	550.2
808.468	555.1
808.884	559.2
809.279	552.8
809.695	566.1
810.111	574.8
810.506	565.1
810.922	574.6
811.339	547.3
811.734	568.5
812.151	553.9
812.546	551.2
812.963	552.2
813.38	563.6
813.776	561.1
814.193	577.9
814.589	549.4
815.006	550.2
815.402	553.1
815.82	552.4
816.237	555.7
816.633	559.9
817.051	554.4
817.448	559.2
817.866	547.1
818.262	576
818.68	556.9
819.077	548.1
819.495	558.2
819.892	599
820.311	556.3
820.708	548.2
821.127	553.9
821.524	567
821.943	560.3
822.34	566.2
822.759	559.7
823.157	548.8
823.576	566.7
823.974	564.5
824.393	567.6
824.791	551.1
825.189	551.8
825.609	548.5
826.007	558.6
826.427	548
826.826	559.3
827.246	560.7
827.644	541.5
828.043	563.1
828.463	551.8
828.862	566.5
829.261	562.4
829.682	550.5
830.081	560.7
830.502	550.8
830.901	560.5
831.301	551.4
831.722	541.8
832.121	556.5
832.521	547.3
832.943	555.6
833.342	550.4
833.742	549.3
834.164	552.5
834.564	551.9
834.965	555.6
835.386	553
835.787	556.1
836.188	551.9
836.588	559.9
837.01	554.5
837.411	549
837.812	560.4
838.213	561.7
838.636	551.7
839.037	627.3
839.438	560.2
839.84	558.3
840.263	560.2
840.664	559.6
841.066	548
841.468	561.9
841.891	544.6
842.293	565.2
842.695	562
843.098	559.4
843.5	556.3
843.902	559.9
844.326	560.6
844.729	562
845.131	569.2
845.534	554.4
845.937	566.2
846.34	570.3
846.764	551.2
847.167	561.1
847.571	551.6
847.974	548.5
848.377	550.5
848.781	605.8
849.184	566.3
849.588	552.9
