#lambda/nm	C1
208.295	482.7
208.67	445.8
209.045	408.3
209.419	415.2
209.794	599.7
210.169	571
210.544	694.8
210.919	585.8
211.295	578.7
211.67	589
212.045	583.8
212.421	585.2
212.796	622.4
213.172	582.5
213.547	580.8
213.923	588.9
214.299	582.9
214.675	589.5
215.051	593.7
215.427	592.6
215.803	604.3
216.179	594.5
216.555	579.6
216.932	592.2
217.308	584.6
217.684	588.4
218.061	594
218.438	594.1
218.814	585.8
219.191	595.7
219.568	582.9
219.945	588.5
220.322	594.4
220.699	593.6
221.076	595.2
221.453	589
221.83	584.3
222.208	583.9
222.585	585.2
222.962	592.7
223.34	594.8
223.717	590.8
224.095	586.8
224.473	590.6
224.851	584.8
225.229	581.5
225.607	603.1
225.985	579.6
226.363	590.6
226.741	594.4
227.119	590.5
227.497	601.4
227.876	575.7
228.254	592.2
228.633	592.2
229.011	585.7
229.39	587
229.769	591.5
230.148	594.8
230.527	608.9
230.905	592.6
231.284	593.7
231.664	583.1
232.043	601.2
232.422	595.3
232.801	585.1
233.181	592.9
233.56	583.3
233.94	590.9
234.319	576.8
234.699	590
235.079	630.9
235.458	623.3
235.838	605.5
236.218	577
236.598	582.8
236.978	583.8
237.358	582.1
237.738	583.4
238.119	600.4
238.499	583.9
238.88	588.1
239.26	606.4
239.641	578.2
240.021	582.6
240.402	590.6
240.783	583.1
241.163	590.6
241.544	593.3
241.925	591.3
242.306	601.2
242.687	584.1
243.069	594.5
243.45	598.8
243.831	582.8
244.212	587.8
244.594	626.7
244.975	601.8
245.357	592.2
245.739	582.7
246.12	590.6
246.502	605.2
246.884	587.2
247.266	588
247.648	591.9
248.03	609.8
248.412	594
248.794	591
249.176	586.9
249.559	596.1
249.941	583.1
250.323	579.9
250.706	589.3
251.089	594.1
251.471	591.8
251.854	590
252.237	588.7
252.62	601.8
253.002	588.6
253.385	589.7
253.769	602.7
254.152	596.2
254.535	594.5
254.918	587.3
255.301	590.8
255.685	586
256.068	583.8
256.452	613.8
256.835	593.4
257.219	589.8
257.603	600.7
257.986	573.4
258.37	585.5
258.754	579.6
259.138	590.8
259.522	595.4
259.906	587.2
260.29	585.3
260.675	581.7
261.059	590.7
261.443	579.2
261.828	593.4
262.212	593.7
262.597	581.9
262.981	582.3
263.366	596.2
263.751	589.9
264.136	584.4
264.521	587.8
264.906	586.3
265.291	606.8
265.676	587.6
266.061	590
266.446	608.9
266.831	588.5
267.217	607.8
267.602	597.4
267.987	589.9
268.373	579.4
268.759	600.4
269.144	598.9
269.53	585
269.916	587.3
270.302	589.6
270.688	594
271.074	593.3
271.46	599.6
271.846	621.5
272.232	586.4
272.618	583.8
273.004	589.2
273.391	597.8
273.777	594.1
274.164	592.8
274.55	602.3
274.937	589.8
275.324	586
275.71	594.3
276.097	593.5
276.484	585.4
276.871	589
277.258	594.4
277.645	578.8
278.032	590.2
278.419	583.8
278.807	597.4
279.194	582.7
279.581	582.3
279.969	599
280.356	589.9
280.744	592.6
281.131	613.8
281.519	602
281.907	582.9
282.295	582.4
282.682	598.9
283.07	593.8
283.458	600.9
283.846	604.9
284.235	600.8
284.623	604.3
285.011	584.4
285.399	591.2
285.788	592.9
286.176	584.8
286.565	607.5
286.953	582.7
287.342	587.4
287.731	582.2
288.119	581.1
288.508	584.8
288.897	592
289.286	579.7
289.675	591.9
290.064	601.5
290.453	584.8
290.821	592.9
291.21	610.2
291.599	585.9
291.989	589.8
292.378	598.3
292.768	610.8
293.157	595.6
293.547	596.4
293.936	592.6
294.326	587.9
294.716	596
295.106	590.6
295.496	595.4
295.886	605.3
296.276	593.7
296.666	586.3
297.056	587.2
297.446	579.9
297.836	605.7
298.227	587.3
298.617	592
299.008	602.9
299.398	589.8
299.789	583.7
300.179	595.6
300.57	605.4
300.961	592.1
301.352	589.9
301.742	593.4
302.133	597.3
302.524	591
302.915	589.7
303.307	588.6
303.698	598.7
304.089	599.6
304.48	590.5
304.872	592.9
305.263	591.3
305.655	585.2
306.046	598.3
306.438	600.7
306.829	584.4
307.221	598.1
307.613	592.1
308.005	600.1
308.397	599.3
308.789	614.4
309.181	615.9
309.573	602.4
309.965	600.2
310.357	586.1
310.749	597.7
311.142	578.1
311.534	582.6
311.926	604.1
312.319	592.8
312.711	577.6
313.104	602.6
313.497	591.8
313.889	626.9
314.282	601
314.675	615.5
315.068	596.9
315.461	599.2
315.854	617.4
316.247	595.9
316.64	595.2
317.033	592.6
317.405	599.9
317.798	592.5
318.192	597.8
318.585	581.5
318.979	599
319.372	585.4
319.766	585.4
320.16	606.2
320.553	604.3
320.947	607.6
321.341	586
321.735	591.8
322.129	580.4
322.523	616.5
322.917	584
323.311	595.5
323.705	590.9
324.099	591.2
324.494	600.3
324.888	597
325.282	589
325.677	596.4
326.071	597.2
326.466	600.3
326.861	589.2
327.255	605.1
327.65	608.4
328.045	606.2
328.44	598
328.835	592.1
329.23	583.8
329.625	611.6
330.02	584.7
330.415	609.2
330.81	590.5
331.206	590.4
331.601	585.2
331.996	603.2
332.37	600.8
332.766	582.6
333.161	612.4
333.557	591
333.953	588.8
334.348	890.3
334.744	592.6
335.14	593.8
335.536	586.9
335.932	602.7
336.328	587.7
336.724	605
337.12	589.1
337.516	594
337.913	588.5
338.309	605.8
338.705	595.3
339.102	599.7
339.498	589.2
339.895	603.3
340.291	586.7
340.688	600.4
341.085	582.6
341.481	593.4
341.878	599.6
342.275	605.8
342.672	586.6
343.069	587.4
343.466	579.8
343.842	596.8
344.239	583.8
344.636	592.1
345.033	584
345.431	582
345.828	592.9
346.225	579.7
346.623	603.6
347.02	591.1
347.418	598.6
347.816	599.8
348.213	586.1
348.611	593.3
349.009	583
349.407	605
349.805	582.9
350.203	576.3
350.601	603.9
350.999	589.9
351.397	580.5
351.795	590.1
352.193	598.7
352.57	593.4
352.969	599.2
353.367	577.9
353.766	581.9
354.164	586.8
354.563	596.7
354.961	587.7
355.36	582.9
355.759	583.1
356.158	575.1
356.557	582.3
356.956	578
357.355	583.1
357.754	595.2
358.153	589.3
358.552	612.8
358.951	586.8
359.35	593.4
359.75	585.9
360.149	580.3
360.527	579.4
360.926	582.4
361.326	595.1
361.726	590.5
362.125	580.5
362.525	589.8
362.925	586.6
363.325	587.7
363.724	591
364.124	582.2
364.524	582
364.924	587.5
365.324	595.4
365.725	572.3
366.125	589.6
366.525	582.2
366.904	581.7
367.304	569.4
367.705	600.6
368.105	597
368.506	580
368.906	582.1
369.307	584
369.708	589.5
370.108	573.2
370.509	594.9
370.91	578.8
371.311	583.6
371.712	591.4
372.113	587.8
372.514	572.4
372.894	580.8
373.295	579.8
373.696	596.5
374.097	589
374.499	609.2
374.9	589.3
375.301	576.1
375.703	593.2
376.105	575.3
376.506	587.7
376.908	591.9
377.309	583.2
377.711	582.4
378.113	577.7
378.493	590.1
378.895	583.5
379.297	595.8
379.699	578
380.102	589.7
380.504	586.1
380.906	581.9
381.308	615.1
381.71	580.7
382.113	595
382.515	584.5
382.918	588.2
383.299	579.7
383.701	587
384.104	585.1
384.507	563.7
384.909	582.2
385.312	571.1
385.715	579.9
386.118	581.3
386.521	573.4
386.924	593.1
387.327	581.8
387.709	574.6
388.112	569.5
388.515	581.5
388.918	577.5
389.322	583.9
389.725	581.1
390.129	604.8
390.532	582.8
390.936	579.8
391.339	579.8
391.743	584.1
392.125	582.7
392.529	593.6
392.933	593.3
393.337	580.6
393.74	578.9
394.144	582.8
394.548	577.4
394.953	577.4
395.357	586.1
395.761	575.1
396.144	582.6
396.548	577.6
396.952	582.5
397.357	584.8
397.761	576.4
398.166	580.9
398.57	582.2
398.975	575.3
399.379	579.3
399.763	631.2
400.168	581.5
400.572	581
400.977	579.4
401.382	598.4
401.787	589.7
402.192	597.4
402.597	596
403.002	577.3
403.386	594.2
403.791	600.1
404.197	574.8
404.602	581.6
405.007	583.7
405.413	578.9
405.818	573.5
406.224	577.8
406.608	577.7
407.014	576.1
407.42	593
407.825	576.3
408.231	596.6
408.637	590.7
409.043	597.8
409.449	582
409.834	571.2
410.24	587.7
410.646	593.9
411.052	594.9
411.458	587.7
411.865	594.5
412.271	590.9
412.677	584.8
413.062	590.9
413.469	583.6
413.875	604.8
414.282	597.7
414.689	586.1
415.095	591.6
415.502	575.2
415.888	583.7
416.294	573.3
416.701	618.7
417.108	580.1
417.515	597.3
417.923	587.3
418.33	603.9
418.715	595.7
419.123	581.3
419.53	581.5
419.937	584.7
420.345	598.1
420.752	580.1
421.16	597
421.546	586.1
421.953	597.1
422.361	576.4
422.769	583
423.177	574.3
423.585	607.9
423.992	605.5
424.379	590.3
424.787	590.1
425.195	605.2
425.603	586
426.011	596.1
426.419	595.5
426.806	588.9
427.214	587.7
427.623	599.6
428.031	600.3
428.44	592.4
428.848	593.8
429.235	597.4
429.644	587.9
430.053	582.3
430.461	608.7
430.87	616.4
431.279	600.9
431.666	581.4
432.075	591
432.484	589.4
432.893	583.6
433.302	605.7
433.711	622
434.099	589.1
434.508	584.5
434.918	575.3
435.327	584.1
435.737	590.1
436.125	586.2
436.534	586
436.944	593.3
437.353	585
437.763	605.9
438.173	577.2
438.561	595.7
438.971	567
439.381	582
439.791	586.7
440.201	569
440.589	583.2
440.999	588.9
441.409	592.6
441.819	572.3
442.23	591.8
442.619	589.5
443.029	581.4
443.439	585.3
443.85	592.2
444.26	596.7
444.649	591.6
445.06	585
445.471	572.6
445.881	578.3
446.292	597.7
446.682	598.3
447.092	571.5
447.503	628.7
447.914	587.8
448.325	574.4
448.715	575.6
449.126	580.9
449.537	576.4
449.948	582
450.338	580.9
450.75	583.2
451.161	582.5
451.572	588
451.984	575.4
452.374	569.2
452.786	579.8
453.197	584.8
453.609	590.1
453.999	573.5
454.411	567
454.823	591.3
455.235	585.7
455.647	581.1
456.037	579.5
456.449	566.9
456.862	574.8
457.274	579.3
457.665	569.5
458.077	582.7
458.489	590.9
458.902	575.1
459.293	582.5
459.705	583.5
460.118	569.5
460.53	585.8
460.921	575.5
461.334	577.3
461.747	576.7
462.16	594.7
462.551	591.1
462.964	586.4
463.377	571
463.79	577.2
464.182	587.6
464.595	573.9
465.008	582.5
465.421	586
465.813	574.5
466.226	581.2
466.64	574.3
467.053	619
467.445	583.4
467.859	579
468.272	581.5
468.686	589.1
469.078	575.9
469.492	565
469.906	579.5
470.298	579.3
470.712	572.7
471.126	605.3
471.54	566.7
471.933	568.1
472.347	574.8
472.761	574.7
473.175	567.9
473.568	571
473.982	568.7
474.397	578.6
474.79	581.8
475.204	585.2
475.619	581.1
476.033	586.9
476.426	572.9
476.841	569.3
477.256	601.8
477.649	566.9
478.064	570.3
478.479	571.9
478.872	570.2
479.287	564.2
479.702	571.5
480.118	572.8
480.511	578.3
480.927	564.1
481.342	570.9
481.736	575.7
482.151	565.6
482.566	580.7
482.96	575.3
483.376	587.4
483.792	570.9
484.186	576.9
484.602	574.6
485.017	575.7
485.412	579.1
485.827	583.6
486.243	578.4
486.638	599.9
487.054	585.5
487.47	592.8
487.865	575.8
488.281	572.9
488.697	571.8
489.092	573.7
489.508	568.5
489.925	588.1
490.32	569.5
490.736	581.9
491.153	585.1
491.548	582.8
491.964	585.4
492.381	567.7
492.776	577.4
493.193	575
493.61	586.9
494.006	573.7
494.422	585.8
494.84	565.6
495.235	576.2
495.652	578.4
496.069	578.2
496.465	561.5
496.883	571.4
497.3	595.5
497.696	567.9
498.113	578
498.509	560.7
498.927	567.2
499.344	566.8
499.741	564.6
500.158	575.2
500.576	582.1
500.973	573.4
501.39	564.4
501.787	565.5
502.205	572.6
502.623	571.1
503.02	555.4
503.438	568.9
503.856	570.7
504.253	573.5
504.671	569
505.068	569.7
505.486	571.4
505.905	590.9
506.302	569.9
506.72	581.2
507.118	561.2
507.536	570.8
507.955	573.9
508.352	576.4
508.771	583.5
509.169	579.9
509.587	568.4
510.006	571.8
510.404	564.1
510.823	567.8
511.221	563.8
511.64	568.8
512.038	586.2
512.457	573.6
512.877	571.2
513.275	569.3
513.694	570.9
514.092	567.8
514.512	571.9
514.91	574.9
515.33	574.3
515.749	575.1
516.148	567.9
516.568	568
516.966	566.4
517.386	562.7
517.785	572.3
518.205	569.8
518.603	565.7
519.024	565.3
519.444	569.9
519.843	578.4
520.263	578.4
520.662	577.7
521.082	566.7
521.481	568.1
521.902	568
522.301	572.3
522.722	573.9
523.121	561.5
523.542	568.4
523.963	567.1
524.362	570.3
524.783	571.2
525.183	572.8
525.604	580.5
526.003	568
526.425	565.8
526.824	578.9
527.246	581.5
527.646	583.8
528.067	574.9
528.467	572.6
528.888	572.3
529.289	572.3
529.71	572.5
530.11	562.7
530.532	570.2
530.932	560.2
531.354	565.5
531.755	600.5
532.176	578.4
532.577	570
532.999	577.1
533.4	569.1
533.822	577.1
534.223	571.5
534.645	566
535.046	569.2
535.468	572.6
535.869	586
536.292	566.3
536.693	567.9
537.115	571.9
537.516	570.6
537.939	571
538.34	583
538.742	588
539.165	571.3
539.566	574.4
539.989	568
540.391	561.5
540.814	570.7
541.216	574.9
541.639	572.3
542.041	579.4
542.464	564.7
542.866	566.7
543.268	564.6
543.691	569.7
544.093	567.9
544.517	592.5
544.919	556
545.343	589.5
545.745	564.2
546.147	570.2
546.571	565
546.974	564.4
547.398	572.8
547.8	585.2
548.224	566.1
548.627	561.2
549.03	572.1
549.454	562.4
549.857	564.7
550.281	566.3
550.684	565.1
551.087	579.5
551.512	571.7
551.915	575.1
552.34	569.8
552.743	563.9
553.146	569.3
553.571	570.8
553.975	586.1
554.399	562.2
554.803	614.6
555.207	566.6
555.632	565.9
556.036	574.6
556.461	557.6
556.865	572.7
557.268	561.9
557.694	567.9
558.098	574.3
558.502	574.1
558.927	565.1
559.332	569.3
559.736	567.2
560.162	572.3
560.566	569.9
560.992	577.6
561.396	566.8
561.801	567.1
562.227	569.3
562.631	565.8
563.036	566.4
563.462	574.9
563.867	569.8
564.272	556
564.698	572.2
565.103	555.5
565.508	585.3
565.935	566.8
566.34	563.9
566.745	583.5
567.172	563.8
567.577	588
567.982	580.3
568.409	573.1
568.815	561.3
569.22	571.9
569.626	580.1
570.053	554.1
570.459	575.1
570.865	578
571.292	575.8
571.698	569.4
572.104	553.5
572.531	565
572.937	579.9
573.343	569
573.75	564.9
574.177	569.7
574.583	576.5
574.99	568.1
575.396	571.9
575.824	564.6
576.231	572.8
576.637	564.2
577.065	595.9
577.472	567.1
577.879	563.3
578.286	586.9
578.714	565.7
579.121	566.1
579.528	573.1
579.935	580.3
580.364	566
580.771	555.8
581.178	560.8
581.585	570.5
582.014	575.6
582.421	563.4
582.829	562.8
583.236	575.5
583.644	566.2
584.073	569.3
584.481	569.4
584.889	560.6
585.296	570.8
585.726	563.1
586.134	559.9
586.542	563
586.95	584.6
587.358	555.8
587.787	567.3
588.196	554
588.604	570
589.012	570.9
589.421	559.3
589.851	553.8
590.259	568.3
590.668	558.2
591.076	600.1
591.485	563.6
591.894	564.5
592.324	584.7
592.733	579.9
593.142	557.7
593.551	562.5
593.96	574.9
594.369	554
594.8	557.8
595.209	563.3
595.618	551.5
596.028	553.8
596.437	558.5
596.847	565.9
597.256	561.4
597.687	571.7
598.097	565.2
598.507	557.2
598.917	564.3
599.327	569.8
599.736	568.7
600.146	577.9
600.556	567.5
600.988	578.4
601.398	562.1
601.808	577.2
602.219	555.4
602.629	567.6
603.039	569.3
603.45	591.6
603.86	571.1
604.271	583.6
604.703	569.7
605.114	564.6
605.525	570.4
605.935	566.7
606.346	589.8
606.757	573.8
607.168	567.3
607.579	568
607.99	578.8
608.402	572.4
608.813	569.3
609.224	559.9
609.636	560.2
610.047	559.5
610.48	571.4
610.892	575.7
611.303	573.2
611.715	562.9
612.127	556.6
612.539	565.3
612.95	567.1
613.362	555.4
613.774	552.1
614.186	557.7
614.599	559.3
615.011	570.7
615.423	554.9
615.835	565
616.248	560.8
616.66	567.9
617.073	557.7
617.485	559.3
617.898	572.4
618.311	567.3
618.723	562.8
619.136	591.4
619.549	578
619.962	584.8
620.375	566.1
620.788	567.7
621.201	559
621.614	571.1
622.028	566.1
622.441	570.7
622.854	580
623.268	565.1
623.681	566.8
624.095	564.5
624.509	575.4
624.922	572.7
625.336	558.3
625.728	563.1
626.142	575.2
626.556	577.4
626.97	567.5
627.384	562.4
627.799	568.1
628.213	575.1
628.627	562.5
629.041	563.7
629.456	560.5
629.87	557.9
630.285	574.1
630.699	572.7
631.093	565.7
631.507	567.5
631.922	571.3
632.337	578.8
632.752	560.4
633.167	565.8
633.582	561.7
633.997	554.7
634.412	562.5
634.806	568.2
635.221	559.3
635.637	576.5
636.052	550
636.468	564.9
636.883	577.4
637.299	566.1
637.715	549.6
638.109	560.6
638.525	550
638.941	570.8
639.357	566.5
639.773	575.8
640.189	557.2
640.584	566.6
641	562
641.416	553
641.832	565
642.249	563.8
642.665	568.4
643.06	572.3
643.477	574.2
643.894	553.6
644.31	565.6
644.727	569.5
645.123	565.1
645.54	559.3
645.957	568.4
646.374	574.4
646.77	562.7
647.187	592.8
647.604	566.9
648.021	548.8
648.439	559.6
648.835	565.4
649.252	560.6
649.67	563.6
650.088	560.1
650.484	567.7
650.902	567.3
651.32	573.9
651.738	558.6
652.134	568.3
652.552	582
652.971	568.2
653.389	567.2
653.786	580
654.204	559
654.622	560.6
655.019	566.9
655.438	565.1
655.857	566.4
656.275	561.3
656.673	559.6
657.091	625.9
657.51	556.4
657.908	566.2
658.327	581.2
658.746	553.3
659.144	559.8
659.563	577.6
659.982	572.6
660.38	552.5
660.8	567.1
661.219	577.5
661.617	572.2
662.037	560.7
662.457	572.9
662.855	548.8
663.275	595.4
663.695	568
664.094	565
664.514	568.5
664.934	562.3
665.333	570.8
665.753	564.1
666.152	552.2
666.572	558.7
666.993	574.4
667.392	561.8
667.812	557.8
668.212	561.7
668.632	571.8
669.053	559.8
669.453	570.1
669.874	566
670.273	569.3
670.694	559.7
671.116	578
671.515	571.6
671.937	563.7
672.337	556.9
672.758	556.2
673.158	574.7
673.58	554.4
673.98	562.5
674.402	580
674.824	560
675.224	565.9
675.646	556.7
676.047	561.6
676.469	561.3
676.869	563.3
677.292	565.1
677.693	559.2
678.115	556.7
678.516	570.8
678.939	572.4
679.34	560.6
679.762	572
680.164	563.6
680.586	557.8
680.988	567.7
681.411	589.2
681.812	560.2
682.236	552.8
682.637	550.6
683.061	551
683.462	566.1
683.864	564.9
684.288	573.9
684.69	555.4
685.114	572.4
685.516	570.9
685.94	550.9
686.342	574
686.766	557.5
687.168	556.3
687.571	585.5
687.995	559.6
688.398	556.3
688.822	565.5
689.225	573
689.628	579.3
690.052	569.1
690.456	564
690.88	562.8
691.284	549.4
691.687	563.2
692.112	552.5
692.515	552.8
692.919	566.5
693.344	568.2
693.747	561.4
694.173	556.9
694.577	572.7
694.98	562.5
695.406	555.8
695.81	564.8
696.214	562.5
696.64	566.5
697.044	565.8
697.448	569.9
697.874	562
698.279	568.6
698.684	556.6
699.11	555.5
699.514	559.6
699.919	559.2
700.324	553
700.75	563.5
701.156	567.4
701.561	580.9
701.987	568.1
702.393	573.4
702.798	571.2
703.203	561
703.63	562.7
704.036	558.4
704.442	565
704.847	553.8
705.274	563.6
705.68	561.5
706.086	571.7
706.492	552.1
706.92	565.3
707.326	569.7
707.732	554
708.139	555.2
708.545	552.5
708.973	550.6
709.38	561.9
709.786	546.6
710.193	570.7
710.6	560.4
711.028	548.9
711.435	559.9
711.842	559.1
712.249	555
712.656	561.3
713.064	571.9
713.492	557.6
713.9	558.9
714.307	566
714.715	560.1
715.123	567.7
715.53	562.8
715.938	572.9
716.367	565.5
716.775	563.3
717.184	552.6
717.592	556.5
718	572.2
718.408	598.7
718.816	606.1
719.225	563.3
719.633	559.4
720.042	561.8
720.472	561.1
720.881	580.6
721.29	565.7
721.699	559.1
722.108	566.2
722.517	571
722.926	558.8
723.335	571.2
723.744	555.7
724.154	569
724.563	562.1
724.973	567.2
725.382	564.5
725.792	557.6
726.202	557.3
726.612	570.1
727.022	563.6
727.432	556.1
779.813	554.5
780.223	602.7
780.634	560.5
781.044	551.7
781.454	560.1
781.865	569.5
782.276	556.6
782.686	564.9
783.097	563.6
783.508	556
783.919	563.7
784.33	575.1
784.741	572
785.152	553.6
785.563	544.7
785.974	558.9
786.386	566.6
786.776	557
787.188	557
787.599	550.8
788.011	565
788.423	564.8
788.835	553.5
789.247	540.7
789.659	556.6
790.071	554.2
790.483	602
790.874	561.7
791.286	572.1
791.699	554.7
792.111	565.4
792.524	565.4
792.937	558.9
793.349	553.3
793.741	557.6
794.154	558.1
794.567	575.6
794.98	561.8
795.393	548.7
795.785	570.8
796.198	553.9
796.612	562
797.026	556.7
797.439	544.8
797.831	554.1
798.245	553.1
798.659	558.8
799.073	562.1
799.487	556.4
799.88	565.4
800.294	562.3
800.708	569.2
801.123	565.4
801.516	577.7
801.93	553.2
802.345	550.6
802.76	561.9
803.153	574.9
803.568	576.5
803.983	570.3
804.377	561.9
804.792	546.2
805.207	548.6
805.601	562
806.016	592.3
806.432	554.9
806.826	590
807.242	572.8
807.658	561.9
808.052	556.6
808.468	562.1
808.884	559.1
809.279	562.4
809.695	574.8
810.111	579.6
810.506	561.5
810.922	574
811.339	558.6
811.734	570.4
812.151	555.2
812.546	554.3
812.963	554.3
813.38	564.7
813.776	559.5
814.193	581.7
814.589	557.2
815.006	558.1
815.402	551.4
815.82	554.4
816.237	557.2
816.633	564.4
817.051	551.7
817.448	565.6
817.866	548.9
818.262	576.4
818.68	555.5
819.077	553.6
819.495	557.9
819.892	599
820.311	551.7
820.708	551.9
821.127	555.5
821.524	568.1
821.943	564.1
822.34	576.2
822.759	566.2
823.157	561.7
823.576	571.1
823.974	563.8
824.393	566.2
824.791	561.6
825.189	549
825.609	556.8
826.007	559.6
826.427	549.9
826.826	556
827.246	560.1
827.644	545.7
828.043	566.9
828.463	558.8
828.862	570.3
829.261	562.8
829.682	546.2
830.081	563.5
830.502	545.8
830.901	556.6
831.301	552.1
831.722	547.5
832.121	552.4
832.521	556.3
832.943	558.9
833.342	555.8
833.742	551.9
834.164	555
834.564	550.6
834.965	555.1
835.386	549.4
835.787	552.1
836.188	551.9
836.588	556.1
837.01	548.5
837.411	554
837.812	567.7
838.213	559.7
838.636	554.8
839.037	623.6
839.438	559.2
839.84	559.4
840.263	562.7
840.664	555.2
841.066	557.3
841.468	560.8
841.891	550.3
842.293	562.6
842.695	562.6
843.098	566
843.5	555
843.902	561.9
844.326	564.4
844.729	558
845.131	565.4
845.534	560.3
845.937	566.4
846.34	571.3
846.764	553.7
847.167	557.6
847.571	552.9
847.974	556.2
