#lambda/nm	C1
208.295	481.7
208.67	448.5
209.045	408.3
209.419	416.8
209.794	602.3
210.169	574.4
210.544	690.4
210.919	591.9
211.295	578.6
211.67	589.3
212.045	582.3
212.421	584.7
212.796	625
213.172	581.6
213.547	588.1
213.923	583.5
214.299	579.7
214.675	591.5
215.051	595.9
215.427	595
215.803	608.1
216.179	594.1
216.555	581
216.932	593.6
217.308	589.6
217.684	589.7
218.061	599.5
218.438	591
218.814	581.8
219.191	600.9
219.568	582
219.945	591
220.322	593.7
220.699	594.1
221.076	601.4
221.453	592.6
221.83	582.4
222.208	585.2
222.585	584.9
222.962	592.7
223.34	593.4
223.717	589.6
224.095	592.6
224.473	592.3
224.851	583.4
225.229	584.2
225.607	609.7
225.985	579.9
226.363	595.4
226.741	591
227.119	592.5
227.497	605.7
227.876	578
228.254	599.2
228.633	594.8
229.011	587.8
229.39	595.2
229.769	587.7
230.148	598.8
230.527	609.9
230.905	589.2
231.284	593.6
231.664	587
232.043	601.1
232.422	597.9
232.801	592.1
233.181	591.5
233.56	588.2
233.94	593.8
234.319	577.9
234.699	583.8
235.079	622.1
235.458	627.3
235.838	602.3
236.218	578.9
236.598	576
236.978	582.5
237.358	580
237.738	585.8
238.119	595.4
238.499	576.5
238.88	589.3
239.26	606.2
239.641	581.5
240.021	586.3
240.402	590.4
240.783	580.3
241.163	588.8
241.544	596.7
241.925	587.4
242.306	603.1
242.687	584
243.069	591
243.45	596.1
243.831	588
244.212	585.4
244.594	619.8
244.975	597.9
245.357	591.1
245.739	586.9
246.12	591
246.502	601.6
246.884	592.5
247.266	580.4
247.648	593
248.03	610.9
248.412	592.2
248.794	593.5
249.176	585.4
249.559	601.5
249.941	588.3
250.323	584.5
250.706	580.2
251.089	589.5
251.471	589.4
251.854	585.2
252.237	590.2
252.62	596.8
253.002	584.1
253.385	587.1
253.769	607.4
254.152	593.3
254.535	594.5
254.918	574.3
255.301	584.9
255.685	584.6
256.068	578
256.452	607
256.835	595.8
257.219	599
257.603	599
257.986	578.3
258.37	595.1
258.754	578.6
259.138	597.6
259.522	595
259.906	587.3
260.29	593.3
260.675	584.7
261.059	591.3
261.443	581.8
261.828	594.5
262.212	590.7
262.597	578.4
262.981	579
263.366	597.6
263.751	595.2
264.136	585.4
264.521	582.9
264.906	586.4
265.291	601.4
265.676	587.3
266.061	596.4
266.446	596.9
266.831	591.5
267.217	609.2
267.602	592.5
267.987	594.5
268.373	583.7
268.759	597.4
269.144	601.6
269.53	596.3
269.916	586.3
270.302	586.7
270.688	595.2
271.074	587.2
271.46	609.3
271.846	619.9
272.232	589.3
272.618	583.1
273.004	589.9
273.391	599.4
273.777	603
274.164	596.9
274.55	604.7
274.937	593.5
275.324	587.2
275.71	588.9
276.097	597.9
276.484	582.4
276.871	595.3
277.258	592.3
277.645	576
278.032	588.8
278.419	583.4
278.807	594.5
279.194	582.2
279.581	578.8
279.969	594
280.356	587.8
280.744	590.2
281.131	615.1
281.519	604.1
281.907	590
282.295	585.4
282.682	599.2
283.07	596.1
283.458	601.3
283.846	600.3
284.235	599.9
284.623	598.1
285.011	585
285.399	595.4
285.788	592.2
286.176	580.9
286.565	601
286.953	589.5
287.342	581.5
287.731	585.9
288.119	578.8
288.508	589.7
288.897	589.5
289.286	585.7
289.675	590.1
290.064	602.8
290.453	587.2
290.821	596
291.21	609.9
291.599	586.3
291.989	597.8
292.378	602.9
292.768	611.9
293.157	595.8
293.547	595.7
293.936	588.5
294.326	581.6
294.716	592.3
295.106	584.5
295.496	594.8
295.886	595
296.276	589.6
296.666	584.8
297.056	585
297.446	582.7
297.836	604.3
298.227	592.3
298.617	596.2
299.008	604.5
299.398	587
299.789	584.6
300.179	600.3
300.57	600.7
300.961	583
301.352	586.5
301.742	600.9
302.133	591.1
302.524	592
302.915	593
303.307	578.9
303.698	601
304.089	597.8
304.48	586.4
304.872	592.7
305.263	589.6
305.655	583.2
306.046	590.6
306.438	588.9
306.829	588.8
307.221	605.6
307.613	593.9
308.005	604.1
308.397	604.5
308.789	608.7
309.181	613.5
309.573	611.6
309.965	603.5
310.357	589.7
310.749	594
311.142	583.9
311.534	582.2
311.926	597.4
312.319	597.2
312.711	591.2
313.104	603.2
313.497	592.3
313.889	626.2
314.282	608.1
314.675	610.5
315.068	593.5
315.461	605.9
315.854	620.2
316.247	598.6
316.64	591.7
317.033	594.9
317.405	602.5
317.798	596
318.192	599.1
318.585	587.9
318.979	603.5
319.372	587.1
319.766	584.4
320.16	604.7
320.553	607.6
320.947	608
321.341	584.8
321.735	591
322.129	583.2
322.523	613.6
322.917	582.5
323.311	602.6
323.705	589.4
324.099	598.7
324.494	607.6
324.888	603.6
325.282	593.6
325.677	599.5
326.071	599
326.466	598.7
326.861	594.9
327.255	605.6
327.65	604.8
328.045	611.8
328.44	596.2
328.835	601.4
329.23	588.4
329.625	616.2
330.02	586.5
330.415	617.3
330.81	596.6
331.206	597.5
331.601	588.6
331.996	601.3
332.37	602.3
332.766	586.2
333.161	618.8
333.557	591.2
333.953	592.4
334.348	931.8
334.744	592.6
335.14	583.2
335.536	588.8
335.932	601.2
336.328	592.2
336.724	599.5
337.12	591
337.516	593.5
337.913	595.1
338.309	603.1
338.705	588.8
339.102	602.2
339.498	581.8
339.895	609.8
340.291	581.9
340.688	604.6
341.085	583.6
341.481	594.2
341.878	595.3
342.275	608.4
342.672	583.7
343.069	590.1
343.466	578.1
343.842	594
344.239	582.1
344.636	592.6
345.033	585.1
345.431	579.7
345.828	592.7
346.225	583.7
346.623	599.1
347.02	596
347.418	595.8
347.816	603.7
348.213	582.1
348.611	598.2
349.009	582.2
349.407	596.6
349.805	582.1
350.203	579.7
350.601	599.8
350.999	584
351.397	581.2
351.795	590.6
352.193	593.8
352.57	595.9
352.969	601.2
353.367	579.2
353.766	583.8
354.164	589.5
354.563	602.7
354.961	590
355.36	588.7
355.759	591.4
356.158	578.9
356.557	581.3
356.956	582.9
357.355	577.4
357.754	589.1
358.153	590.5
358.552	612.6
358.951	588.4
359.35	595.4
359.75	587.6
360.149	581.6
360.527	574.4
360.926	573.5
361.326	585.1
361.726	582.7
362.125	577.6
362.525	598.6
362.925	582.2
363.325	588.2
363.724	589.7
364.124	579.1
364.524	583.5
364.924	581.2
365.324	596.6
365.725	570.2
366.125	598.4
366.525	585.9
366.904	574.1
367.304	569.3
367.705	602.3
368.105	598.4
368.506	587.1
368.906	588.8
369.307	580.2
369.708	594.1
370.108	570.8
370.509	591.4
370.91	580.1
371.311	585.3
371.712	588.1
372.113	585.8
372.514	571.2
372.894	580.6
373.295	578.7
373.696	599.3
374.097	588.7
374.499	612.6
374.9	587.2
375.301	580.5
375.703	584.7
376.105	571.4
376.506	588.2
376.908	585.1
377.309	586.7
377.711	586.7
378.113	578.7
378.493	585.9
378.895	581.4
379.297	585.9
379.699	575.4
380.102	585.9
380.504	586.4
380.906	584.4
381.308	605.9
381.71	580.7
382.113	587.4
382.515	580.7
382.918	587.7
383.299	585.3
383.701	586.4
384.104	586.2
384.507	564
384.909	582.2
385.312	575.9
385.715	574.3
386.118	579.5
386.521	572.9
386.924	592.6
387.327	579.9
387.709	568.4
388.112	564.8
388.515	578.7
388.918	582.4
389.322	588.6
389.725	577.7
390.129	607
390.532	587.1
390.936	580.8
391.339	570.1
391.743	582.8
392.125	571.4
392.529	592.8
392.933	599.3
393.337	579.3
393.74	579.8
394.144	580
394.548	576
394.953	579.7
395.357	589.5
395.761	580.3
396.144	583.1
396.548	580.4
396.952	579.7
397.357	585.2
397.761	574.6
398.166	574.8
398.57	582.8
398.975	576.1
399.379	585.3
399.763	630.6
400.168	583.8
400.572	574
400.977	586.9
401.382	596.9
401.787	589
402.192	600
402.597	597.1
403.002	574.6
403.386	594.5
403.791	602.6
404.197	574.4
404.602	579
405.007	583.2
405.413	574.4
405.818	574.9
406.224	576.6
406.608	577.3
407.014	574.5
407.42	600.4
407.825	586.2
408.231	594.5
408.637	586.9
409.043	598.7
409.449	580.9
409.834	578
410.24	586.2
410.646	592.7
411.052	595
411.458	589.8
411.865	595.9
412.271	587.6
412.677	582.2
413.062	593.3
413.469	576.8
413.875	606.8
414.282	601.9
414.689	584.8
415.095	590.2
415.502	580.4
415.888	587.4
416.294	573.9
416.701	621.4
417.108	579.5
417.515	594.5
417.923	580.4
418.33	600.1
418.715	592.4
419.123	583.4
419.53	585.5
419.937	585.3
420.345	601.3
420.752	579.6
421.16	600.4
421.546	584.5
421.953	596.9
422.361	578.5
422.769	582.6
423.177	577.2
423.585	610.9
423.992	605.2
424.379	594.5
424.787	593.8
425.195	608.4
425.603	589.3
426.011	599
426.419	601
426.806	587.5
427.214	590.2
427.623	593.6
428.031	599.7
428.44	588.9
428.848	597.7
429.235	598.5
429.644	584.7
430.053	584
430.461	604.8
430.87	613.8
431.279	594.4
431.666	579.3
432.075	590.1
432.484	598.3
432.893	588
433.302	602.5
433.711	626.7
434.099	589.9
434.508	581.2
434.918	576
435.327	590.3
435.737	585.6
436.125	585.9
436.534	588
436.944	588.4
437.353	590.6
437.763	607.3
438.173	577.4
438.561	592.4
438.971	569.8
439.381	583.3
439.791	589.1
440.201	566.1
440.589	586.6
440.999	587.1
441.409	581.9
441.819	574.4
442.23	592.2
442.619	591.9
443.029	580.7
443.439	582.3
443.85	592.3
444.26	596.8
444.649	589.1
445.06	577.8
445.471	571.7
445.881	583.2
446.292	594.8
446.682	598.7
447.092	567.6
447.503	633.8
447.914	580.9
448.325	579.4
448.715	577
449.126	572.2
449.537	582.4
449.948	575.9
450.338	577.7
450.75	588.8
451.161	585
451.572	587.9
451.984	566.6
452.374	571
452.786	575.8
453.197	589.3
453.609	594.6
453.999	565.6
454.411	566
454.823	586.3
455.235	580
455.647	573.9
456.037	584.3
456.449	565.3
456.862	583.9
457.274	584.3
457.665	567.9
458.077	583.8
458.489	594.1
458.902	576.8
459.293	582.4
459.705	587.4
460.118	571.7
460.53	584.2
460.921	574.7
461.334	585.5
461.747	578.4
462.16	587.3
462.551	595.3
462.964	584.7
463.377	569.8
463.79	578.5
464.182	591.5
464.595	575.6
465.008	576.1
465.421	587
465.813	576
466.226	582.2
466.64	574.2
467.053	623.3
467.445	586.4
467.859	580.3
468.272	581.4
468.686	597.8
469.078	575.3
469.492	567.1
469.906	580
470.298	586.8
470.712	569.6
471.126	610.3
471.54	562.7
471.933	568.2
472.347	577.4
472.761	570.1
473.175	566.5
473.568	574.8
473.982	563.6
474.397	577.6
474.79	578.7
475.204	581
475.619	577.9
476.033	580.1
476.426	574.3
476.841	568.9
477.256	600.9
477.649	573.8
478.064	567.1
478.479	568.4
478.872	570.5
479.287	562.9
479.702	568.2
480.118	576.5
480.511	578.6
480.927	565.9
481.342	569.9
481.736	580.2
482.151	566.3
482.566	582.2
482.96	571.2
483.376	584.7
483.792	569
484.186	577.2
484.602	565.9
485.017	579.6
485.412	568.8
485.827	578.9
486.243	577.4
486.638	596.3
487.054	587.1
487.47	593.6
487.865	573
488.281	569.1
488.697	569.8
489.092	572.2
489.508	568.4
489.925	591.5
490.32	566.1
490.736	576.4
491.153	578
491.548	579.7
491.964	588.6
492.381	561.2
492.776	576.7
493.193	578.9
493.61	581.1
494.006	576.4
494.422	577.3
494.84	568
495.235	580.1
495.652	576.5
496.069	575.5
496.465	561.9
496.883	569.8
497.3	592.4
497.696	568.7
498.113	583.8
498.509	562.7
498.927	575.4
499.344	567.6
499.741	564.7
500.158	585.5
500.576	587.6
500.973	576.5
501.39	573.1
501.787	567.3
502.205	576.3
502.623	570
503.02	567.7
503.438	564.4
503.856	571.3
504.253	571.1
504.671	577.6
505.068	569.7
505.486	574.6
505.905	583.7
506.302	579.2
506.72	585.5
507.118	567
507.536	573.4
507.955	571.2
508.352	576.3
508.771	580.3
509.169	578.5
509.587	567.3
510.006	570.5
510.404	566.3
510.823	565.9
511.221	570.9
511.64	566.7
512.038	585.4
512.457	572.1
512.877	577.6
513.275	565.8
513.694	565.9
514.092	563.7
514.512	571.1
514.91	571.5
515.33	577.3
515.749	571.5
516.148	576.9
516.568	571.1
516.966	572.9
517.386	569.1
517.785	570.9
518.205	566.3
518.603	573.4
519.024	573.4
519.444	575.1
519.843	579.1
520.263	573.9
520.662	569.7
521.082	570.2
521.481	575
521.902	572
522.301	574.1
522.722	574
523.121	574.2
523.542	569.5
523.963	567.5
524.362	569.9
524.783	579.8
525.183	573.6
525.604	569.4
526.003	559.1
526.425	566
526.824	577.6
527.246	584.6
527.646	585.1
528.067	569.7
528.467	566.9
528.888	571.7
529.289	570.5
529.71	572
530.11	570.7
530.532	573.7
530.932	565.3
531.354	562.2
531.755	602.2
532.176	574.9
532.577	571.7
532.999	576.1
533.4	571.9
533.822	585.1
534.223	577.8
534.645	568.3
535.046	567.6
535.468	572.6
535.869	581.2
536.292	564.8
536.693	568.9
537.115	574.3
537.516	564.2
537.939	564.8
538.34	588.2
538.742	582.1
539.165	573.6
539.566	570
539.989	564.8
540.391	565.1
540.814	568.3
541.216	574.1
541.639	572
542.041	574.4
542.464	567.6
542.866	561.8
543.268	558.2
543.691	574.4
544.093	579.6
544.517	588.4
544.919	557.8
545.343	590.1
545.745	562.9
546.147	575.3
546.571	564.5
546.974	565.4
547.398	574.2
547.8	587.6
548.224	568.8
548.627	561.7
549.03	574.8
549.454	565.7
549.857	566.1
550.281	566.1
550.684	564.7
551.087	585.7
551.512	576.2
551.915	577.9
552.34	571.3
552.743	565.3
553.146	571.1
553.571	570.1
553.975	585.1
554.399	562.1
554.803	614.6
555.207	563
555.632	568.5
556.036	574.6
556.461	560.6
556.865	575.4
557.268	558.6
557.694	568.5
558.098	571
558.502	576
558.927	568.7
559.332	565.9
559.736	568.3
560.162	577.7
560.566	568.8
560.992	572.1
561.396	572.1
561.801	561.5
562.227	566.9
562.631	568.6
563.036	570.2
563.462	575.6
563.867	569.9
564.272	558.9
564.698	573.1
565.103	556.7
565.508	587.5
565.935	570
566.34	573.7
566.745	581.8
567.172	567.5
567.577	593.9
567.982	577.4
568.409	574.1
568.815	560.9
569.22	572.2
569.626	577.7
570.053	558.6
570.459	570.7
570.865	580.8
571.292	581.9
571.698	573.1
572.104	555.4
572.531	563.9
572.937	579.7
573.343	569.8
573.75	561.9
574.177	573.1
574.583	572.6
574.99	563.1
575.396	574.1
575.824	561.8
576.231	574.8
576.637	560.5
577.065	593.1
577.472	565.4
577.879	565.8
578.286	583.6
578.714	561
579.121	565.5
579.528	572.9
579.935	573.4
580.364	568.6
580.771	557.1
581.178	560.3
581.585	572
582.014	580
582.421	561
582.829	558.4
583.236	582.2
583.644	567.4
584.073	565.8
584.481	569.6
584.889	563.6
585.296	570
585.726	575.2
586.134	565
586.542	567.4
586.95	590.7
587.358	559.7
587.787	563.8
588.196	553.5
588.604	563.7
589.012	567.1
589.421	558.7
589.851	558.8
590.259	558.9
590.668	564
591.076	599.5
591.485	564.6
591.894	568.3
592.324	583
592.733	581.6
593.142	556
593.551	565.4
593.96	598.8
594.369	557.6
594.8	556
595.209	563.7
595.618	551.7
596.028	560.8
596.437	560.2
596.847	567.4
597.256	567.9
597.687	572.8
598.097	565.3
598.507	556.5
598.917	573.5
599.327	576.4
599.736	571
600.146	578.8
600.556	570.6
600.988	578.5
601.398	568.6
601.808	578.1
602.219	558
602.629	567.4
603.039	565.7
603.45	597.2
603.86	568.7
604.271	584.5
604.703	570.5
605.114	567.5
605.525	569.5
605.935	572
606.346	584.7
606.757	577
607.168	568.5
607.579	555.3
607.99	576.5
608.402	565.4
608.813	572.6
609.224	566
609.636	561
610.047	561.9
610.48	570.3
610.892	574.9
611.303	573.8
611.715	564.5
612.127	557.8
612.539	564.2
612.95	565.9
613.362	556.8
613.774	554.1
614.186	562.7
614.599	562.6
615.011	575.6
615.423	555.7
615.835	558.6
616.248	554.6
616.66	569.2
617.073	562.8
617.485	560.6
617.898	567.6
618.311	566.3
618.723	562.7
619.136	597.3
619.549	571.4
619.962	587.8
620.375	563.4
620.788	568.3
621.201	560.8
621.614	567.1
622.028	565.1
622.441	568.7
622.854	581
623.268	554.3
623.681	567.7
624.095	564.6
624.509	574.8
624.922	568.7
625.336	557.6
625.728	563.8
626.142	575.8
626.556	583.7
626.97	572.1
627.384	562.6
627.799	567.1
628.213	575.5
628.627	561.3
629.041	561.8
629.456	558.8
629.87	563.6
630.285	573.3
630.699	570.8
631.093	564
631.507	565.8
631.922	566.5
632.337	580.3
632.752	556.1
633.167	563.6
633.582	564.1
633.997	565.4
634.412	559.7
634.806	565.2
635.221	555.4
635.637	573.6
636.052	555.3
636.468	573.8
636.883	583
637.299	562.5
637.715	551.8
638.109	558.7
638.525	557.3
638.941	575.4
639.357	568
639.773	576.8
640.189	562.6
640.584	561.1
641	572
641.416	556.9
641.832	563.5
642.249	560.6
642.665	565.1
643.06	566.3
643.477	575.4
643.894	554.5
644.31	563
644.727	556.4
645.123	565.6
645.54	558.3
645.957	569.2
646.374	568.6
646.77	567.1
647.187	597.6
647.604	563.3
648.021	555.2
648.439	559.5
648.835	569.2
649.252	564.3
649.67	563.1
650.088	566.1
650.484	564.6
650.902	564.9
651.32	575
651.738	561.8
652.134	561.5
652.552	581.5
652.971	569.3
653.389	564.8
653.786	576.8
654.204	560.1
654.622	557.3
655.019	561.6
655.438	571.4
655.857	563.7
656.275	565.9
656.673	561.8
657.091	636.5
657.51	560.1
657.908	573.1
658.327	576.3
658.746	553.6
659.144	562.9
659.563	572.8
659.982	567.7
660.38	555.6
660.8	565.6
661.219	577.3
661.617	569.7
662.037	565.2
662.457	576.7
662.855	555.4
663.275	592.2
663.695	565.2
664.094	564.7
664.514	565.6
664.934	553.8
665.333	567.9
665.753	559.1
666.152	560.7
666.572	555.1
666.993	570.2
667.392	560.4
667.812	566.3
668.212	566.6
668.632	576.6
669.053	563.2
669.453	572.7
669.874	563.2
670.273	566.4
670.694	557.4
671.116	570.1
671.515	569
671.937	561.6
672.337	559.3
672.758	559.3
673.158	565.7
673.58	561.3
673.98	563.3
674.402	574
674.824	563.1
675.224	558.3
675.646	552.7
676.047	557.8
676.469	563.3
676.869	571.8
677.292	564.1
677.693	562.3
678.115	565.6
678.516	565.4
678.939	569.1
679.34	565.8
679.762	580.3
680.164	569.9
680.586	559.3
680.988	569.6
681.411	592.5
681.812	557.5
682.236	552.7
682.637	558.3
683.061	556.2
683.462	570
683.864	561.7
684.288	575.5
684.69	560.1
685.114	564.2
685.516	572.5
685.94	554.2
686.342	569.4
686.766	554.7
687.168	559.3
687.571	582.6
687.995	563.1
688.398	553.3
688.822	562.8
689.225	574.6
689.628	580.7
690.052	560.8
690.456	568.4
690.88	559.3
691.284	551.6
691.687	564
692.112	555.5
692.515	556.8
692.919	563.3
693.344	568
693.747	559.9
694.173	560.3
694.577	571.8
694.98	567.5
695.406	558.2
695.81	568.1
696.214	564
696.64	569.4
697.044	568.5
697.448	576
697.874	563.4
698.279	557.5
698.684	556.7
699.11	558.6
699.514	558.8
699.919	563.4
700.324	551.5
700.75	565.3
701.156	559.7
701.561	577.9
701.987	563.7
702.393	579.9
702.798	576.9
703.203	558.7
703.63	557.7
704.036	563.4
704.442	565.7
704.847	558.7
705.274	558.5
705.68	561
706.086	570.2
706.492	555.1
706.92	561.2
707.326	572.3
707.732	560
708.139	562.8
708.545	551.4
708.973	558.2
709.38	563.4
709.786	550.5
710.193	575.4
710.6	565.9
711.028	555.9
711.435	562.1
711.842	563.9
712.249	559.6
712.656	558.8
713.064	574.5
713.492	556.7
713.9	558.3
714.307	566.2
714.715	561.6
715.123	571.5
715.53	561.1
715.938	567.8
716.367	566.3
716.775	558.8
717.184	554
717.592	556.7
718	569.8
718.408	591.3
718.816	602.6
719.225	564.7
719.633	558.7
720.042	555.5
720.472	564
720.881	577.7
721.29	564.6
721.699	556.4
722.108	567.9
722.517	564.2
722.926	558.9
723.335	574.7
723.744	559
724.154	567.6
724.563	561.7
724.973	565.1
725.382	560.7
725.792	558.6
726.202	552.3
726.612	574
727.022	566.3
727.432	556.8
779.813	559.8
780.223	602.7
780.634	558.5
781.044	557
781.454	555.6
781.865	569.8
782.276	552.7
782.686	576.6
783.097	557
783.508	559.8
783.919	562.3
784.33	574.4
784.741	575.8
785.152	558.2
785.563	548.6
785.974	555.5
786.386	572.2
786.776	560.8
787.188	562.8
787.599	548.5
788.011	565.3
788.423	562.7
788.835	558.1
789.247	556.5
789.659	559.5
790.071	556.1
790.483	599.3
790.874	561.9
791.286	566.1
791.699	552.4
792.111	559.7
792.524	561.4
792.937	561.6
793.349	550
793.741	554.7
794.154	557.6
794.567	575.9
794.98	558.7
795.393	554.7
795.785	577.8
796.198	553.5
796.612	560.6
797.026	551.7
797.439	544.3
797.831	559.5
798.245	551.4
798.659	560.6
799.073	554.6
799.487	550
799.88	557.6
800.294	559.7
800.708	562
801.123	560.7
801.516	574.7
801.93	551.9
802.345	548.6
802.76	558.1
803.153	565.2
803.568	566.7
803.983	568.3
804.377	565.3
804.792	552.2
805.207	546.2
805.601	562.7
806.016	593.2
806.432	557.5
806.826	596.1
807.242	569
807.658	563.6
808.052	563
808.468	557.4
808.884	554.2
809.279	555.2
809.695	566.3
810.111	581.7
810.506	567
810.922	575.8
811.339	547.3
811.734	566.1
812.151	552.3
812.546	555.6
812.963	555
813.38	571.2
813.776	565.1
814.193	577.1
814.589	552.3
815.006	556.1
815.402	553.6
815.82	553.3
816.237	556.1
816.633	563.2
817.051	553.1
817.448	556.8
817.866	552.4
818.262	579.6
818.68	553.3
819.077	551.6
819.495	559.7
819.892	590.9
820.311	557.2
820.708	550.1
821.127	553.5
821.524	568.6
821.943	558.5
822.34	569.8
822.759	554.1
823.157	564.3
823.576	572.7
823.974	566.9
824.393	568
824.791	554.9
825.189	547.3
825.609	553.5
826.007	560.3
826.427	547
826.826	549.6
827.246	566.3
827.644	546.4
828.043	572.6
828.463	553.2
828.862	571.2
829.261	562.5
829.682	549.8
830.081	562.8
830.502	553.1
830.901	559.1
831.301	545.6
831.722	548.2
832.121	559.1
832.521	552.2
832.943	554.9
833.342	556.5
833.742	552.3
834.164	548.6
834.564	552.3
834.965	554.9
835.386	556.2
835.787	557.8
836.188	553.4
836.588	556.8
837.01	559.2
837.411	547.3
837.812	559.5
838.213	561.4
838.636	554.6
839.037	617.2
839.438	560.4
839.84	560.5
840.263	561.4
840.664	562.9
841.066	559.4
841.468	555.3
841.891	551.7
842.293	562.1
842.695	571.2
843.098	568
843.5	557.3
843.902	561.6
844.326	564.9
844.729	560.3
845.131	569.1
845.534	562.8
845.937	567.4
846.34	573.3
846.764	551.9
847.167	562.6
