#lambda/nm	C1
208.295	477.4
208.67	444.5
209.045	406.4
209.419	408.8
209.794	587.4
210.169	565.5
210.544	678.3
210.919	575.7
211.295	568.7
211.67	581.9
212.045	576.2
212.421	580.3
212.796	612.3
213.172	569
213.547	572.5
213.923	575.9
214.299	575.8
214.675	583.8
215.051	580.3
215.427	579.3
215.803	589.7
216.179	586.8
216.555	567.9
216.932	584.8
217.308	573.9
217.684	577.8
218.061	581.6
218.438	577.9
218.814	568.4
219.191	584.2
219.568	565.5
219.945	573.2
220.322	582.3
220.699	580.1
221.076	576.3
221.453	584
221.83	564.6
222.208	569.1
222.585	574.8
222.962	577.4
223.34	581.2
223.717	577.3
224.095	567.2
224.473	580.1
224.851	574.7
225.229	564.1
225.607	593.9
225.985	568.3
226.363	576.6
226.741	578.7
227.119	576.2
227.497	582.7
227.876	567.8
228.254	584.8
228.633	580.2
229.011	583.4
229.39	582.9
229.769	578.6
230.148	586.4
230.527	592.6
230.905	572.8
231.284	580.9
231.664	573.2
232.043	590.4
232.422	584.3
232.801	571.9
233.181	580.8
233.56	580
233.94	573.5
234.319	567.2
234.699	569.9
235.079	614.3
235.458	613
235.838	592.9
236.218	566
236.598	567.3
236.978	570.1
237.358	568.2
237.738	577.6
238.119	586.2
238.499	569.2
238.88	576.3
239.26	588.8
239.641	566.2
240.021	572.2
240.402	575.8
240.783	576.6
241.163	569.6
241.544	576.8
241.925	575.9
242.306	594.6
242.687	567.6
243.069	575.2
243.45	576.8
243.831	576.2
244.212	572.4
244.594	605.4
244.975	587.3
245.357	581.7
245.739	570
246.12	578.5
246.502	589.2
246.884	572.2
247.266	574.3
247.648	577.7
248.03	592.5
248.412	577.2
248.794	580.6
249.176	572.9
249.559	580.5
249.941	569
250.323	570.6
250.706	568.3
251.089	581
251.471	580.6
251.854	576.8
252.237	574.2
252.62	588.8
253.002	573.8
253.385	578.4
253.769	590.3
254.152	581
254.535	584.2
254.918	567.8
255.301	577
255.685	576.1
256.068	572.9
256.452	594.6
256.835	579.4
257.219	585.9
257.603	591.9
257.986	570.8
258.37	583.1
258.754	566.3
259.138	588.8
259.522	584.1
259.906	574.8
260.29	577.3
260.675	570.8
261.059	576.7
261.443	569.7
261.828	583.8
262.212	578.6
262.597	566.5
262.981	573.9
263.366	584.9
263.751	581.6
264.136	571.6
264.521	572.5
264.906	563.7
265.291	585
265.676	573.3
266.061	585.3
266.446	591.7
266.831	576.4
267.217	593.3
267.602	583.2
267.987	577.2
268.373	570
268.759	583.9
269.144	582.6
269.53	573.8
269.916	569.9
270.302	573.6
270.688	582
271.074	576.2
271.46	588.9
271.846	603.5
272.232	574.3
272.618	573.8
273.004	581.6
273.391	585.7
273.777	592.5
274.164	578.6
274.55	593.8
274.937	577.4
275.324	573.6
275.71	584.7
276.097	579.8
276.484	572
276.871	580
277.258	586.6
277.645	571.7
278.032	579.4
278.419	584.4
278.807	574.4
279.194	571.4
279.581	574.4
279.969	583.2
280.356	577.1
280.744	578.7
281.131	604.9
281.519	587.3
281.907	573.6
282.295	576.7
282.682	585.8
283.07	577.9
283.458	582.1
283.846	592.2
284.235	588.2
284.623	587.7
285.011	561.9
285.399	573
285.788	575.2
286.176	565
286.565	585.9
286.953	567.2
287.342	572.7
287.731	564.1
288.119	562.7
288.508	570.6
288.897	578.9
289.286	564.5
289.675	577.3
290.064	587.9
290.453	574.5
290.821	572.5
291.21	586.7
291.599	576.3
291.989	577.2
292.378	580.8
292.768	594.1
293.157	577.6
293.547	587.5
293.936	574.9
294.326	571.2
294.716	583.8
295.106	569.2
295.496	583.3
295.886	589.8
296.276	579.7
296.666	570.5
297.056	571.7
297.446	566.1
297.836	594.5
298.227	580.7
298.617	579.5
299.008	588.9
299.398	574.1
299.789	572.3
300.179	579.3
300.57	595.9
300.961	570
301.352	577.3
301.742	583
302.133	570.3
302.524	569.4
302.915	577.4
303.307	568.5
303.698	588
304.089	583.9
304.48	573.9
304.872	582
305.263	580.1
305.655	570.5
306.046	583.9
306.438	586.5
306.829	577
307.221	590.3
307.613	580.6
308.005	584.2
308.397	592.3
308.789	594.1
309.181	599.6
309.573	594.4
309.965	589.6
310.357	577.9
310.749	585.1
311.142	571.4
311.534	575.8
311.926	590.1
312.319	579.3
312.711	568.8
313.104	585
313.497	575.2
313.889	616.9
314.282	598
314.675	598.4
315.068	581.9
315.461	584.5
315.854	610
316.247	583.1
316.64	580.9
317.033	577.2
317.405	588.1
317.798	574.3
318.192	587
318.585	570.3
318.979	578.7
319.372	571
319.766	580.9
320.16	588.4
320.553	595.1
320.947	600.5
321.341	577.7
321.735	580.9
322.129	567.7
322.523	604.6
322.917	573.1
323.311	587.7
323.705	579.9
324.099	585.1
324.494	595.7
324.888	590.1
325.282	578.7
325.677	586.2
326.071	588.4
326.466	589.6
326.861	586.4
327.255	591.5
327.65	594.7
328.045	595.5
328.44	586
328.835	583.4
329.23	571.3
329.625	600.5
330.02	575.6
330.415	597.6
330.81	580.7
331.206	585
331.601	577.6
331.996	586.2
332.37	586.5
332.766	571.7
333.161	598.7
333.557	575.3
333.953	580.6
334.348	989.8
334.744	585.4
335.14	576.9
335.536	576.9
335.932	586
336.328	581.2
336.724	591.6
337.12	582.9
337.516	579.5
337.913	577.1
338.309	590.5
338.705	584.1
339.102	590.5
339.498	574.9
339.895	593
340.291	577.4
340.688	581.8
341.085	571.3
341.481	582.1
341.878	575.5
342.275	598.8
342.672	572.1
343.069	574.6
343.466	563.3
343.842	582.3
344.239	571.7
344.636	579.3
345.033	565.1
345.431	571.3
345.828	575.3
346.225	568.3
346.623	588.6
347.02	577
347.418	583.5
347.816	585.1
348.213	571.9
348.611	583.9
349.009	568.1
349.407	587.5
349.805	570.2
350.203	566.8
350.601	587.6
350.999	573.1
351.397	567.3
351.795	582.5
352.193	583.4
352.57	585.1
352.969	589.9
353.367	569
353.766	566.6
354.164	574.2
354.563	586.5
354.961	575.3
355.36	566.9
355.759	572.1
356.158	564.5
356.557	569.4
356.956	565.4
357.355	565.7
357.754	577.1
358.153	578.7
358.552	593.1
358.951	574.2
359.35	583.6
359.75	573
360.149	570.6
360.527	560
360.926	573
361.326	571.1
361.726	579.1
362.125	570.2
362.525	575.6
362.925	576.5
363.325	572.4
363.724	573.8
364.124	569.1
364.524	568.1
364.924	571.9
365.324	583.4
365.725	559.9
366.125	576.5
366.525	572.1
366.904	566.3
367.304	555.8
367.705	583.4
368.105	583
368.506	571
368.906	572.1
369.307	572.5
369.708	576.6
370.108	558
370.509	579.9
370.91	559.2
371.311	571.5
371.712	576.6
372.113	566.7
372.514	553.6
372.894	570.2
373.295	566.2
373.696	579.4
374.097	575
374.499	601.1
374.9	573.2
375.301	569.7
375.703	569.9
376.105	567.3
376.506	572.9
376.908	580.4
377.309	571.9
377.711	574.8
378.113	563.1
378.493	569
378.895	568.2
379.297	579.1
379.699	565.1
380.102	575.4
380.504	575.3
380.906	562.6
381.308	587.6
381.71	568.4
382.113	578.5
382.515	567.5
382.918	570.9
383.299	564.4
383.701	576.1
384.104	572.5
384.507	551.7
384.909	561.9
385.312	554.7
385.715	559.1
386.118	564
386.521	556.5
386.924	577.8
387.327	561.9
387.709	557.1
388.112	553.3
388.515	564.7
388.918	570.5
389.322	571.1
389.725	562.4
390.129	585.1
390.532	568
390.936	564.1
391.339	565.6
391.743	573.3
392.125	569.4
392.529	577
392.933	575.3
393.337	570
393.74	565.1
394.144	566.5
394.548	562.2
394.953	562.4
395.357	574.5
395.761	565.4
396.144	571.7
396.548	564.8
396.952	573.7
397.357	572.9
397.761	568.6
398.166	567.5
398.57	566.7
398.975	559.1
399.379	574.4
399.763	618.5
400.168	578.4
400.572	568.1
400.977	568.9
401.382	588.7
401.787	580.4
402.192	585
402.597	587.9
403.002	562
403.386	581.6
403.791	586.1
404.197	563.4
404.602	570.2
405.007	569.5
405.413	565.7
405.818	559.3
406.224	564.3
406.608	564.7
407.014	563.8
407.42	590.4
407.825	566.8
408.231	577.6
408.637	580.2
409.043	581.2
409.449	568.1
409.834	561.5
410.24	564.1
410.646	581.7
411.052	575.8
411.458	572
411.865	576.7
412.271	579.1
412.677	574.4
413.062	570.4
413.469	560.5
413.875	594.7
414.282	581
414.689	574.2
415.095	573.9
415.502	569.8
415.888	570.5
416.294	560.9
416.701	604.2
417.108	561.3
417.515	576.8
417.923	567.9
418.33	586
418.715	578.5
419.123	564.9
419.53	575.7
419.937	577.7
420.345	590.2
420.752	564
421.16	580.2
421.546	569.3
421.953	579.8
422.361	568.2
422.769	573.5
423.177	564.8
423.585	595.7
423.992	589.2
424.379	579.6
424.787	586.4
425.195	596.3
425.603	576.6
426.011	581.8
426.419	588.6
426.806	574.2
427.214	578.9
427.623	581.9
428.031	589.7
428.44	575.6
428.848	586
429.235	587.4
429.644	578.7
430.053	569.5
430.461	587.7
430.87	598.6
431.279	581.8
431.666	565.7
432.075	575
432.484	577.7
432.893	572.1
433.302	592.2
433.711	616.9
434.099	577.3
434.508	567
434.918	565.2
435.327	583
435.737	573.9
436.125	574.5
436.534	572.9
436.944	576.4
437.353	576.8
437.763	589
438.173	563.1
438.561	581.3
438.971	561.3
439.381	570.7
439.791	576.9
440.201	553
440.589	572
440.999	577.6
441.409	573.1
441.819	557.8
442.23	578.6
442.619	572.7
443.029	572
443.439	571.3
443.85	575.3
444.26	582.8
444.649	577.5
445.06	571.6
445.471	564.9
445.881	572.6
446.292	584
446.682	584.3
447.092	557.6
447.503	612.3
447.914	571.4
448.325	568.2
448.715	567.5
449.126	564.9
449.537	566.7
449.948	567
450.338	567
450.75	572.5
451.161	567.9
451.572	574.6
451.984	564.1
452.374	556.4
452.786	569.5
453.197	574.6
453.609	574.4
453.999	558.4
454.411	559.4
454.823	578.5
455.235	569
455.647	563.8
456.037	568.8
456.449	555.3
456.862	565.4
457.274	569
457.665	560.7
458.077	570.7
458.489	573.3
458.902	567.7
459.293	563.8
459.705	563.9
460.118	559.3
460.53	570.8
460.921	564.4
461.334	574.1
461.747	566
462.16	580.6
462.551	578.5
462.964	566
463.377	552.6
463.79	565.5
464.182	566.2
464.595	563.2
465.008	566.4
465.421	568.9
465.813	562.6
466.226	570.8
466.64	562.1
467.053	607
467.445	580.4
467.859	564.2
468.272	568
468.686	573.5
469.078	565.9
469.492	549.6
469.906	566.9
470.298	572
470.712	559.1
471.126	591.5
471.54	553.3
471.933	554.1
472.347	556.2
472.761	558.4
473.175	553.5
473.568	560.8
473.982	551.2
474.397	565.1
474.79	557.4
475.204	569.8
475.619	559.8
476.033	564.2
476.426	562.7
476.841	558
477.256	583.7
477.649	554
478.064	556.5
478.479	551.4
478.872	554.5
479.287	547.4
479.702	555.5
480.118	559.2
480.511	556.4
480.927	557.7
481.342	555.6
481.736	563.2
482.151	557.8
482.566	570.5
482.96	558.3
483.376	566.5
483.792	549.1
484.186	567.3
484.602	556.1
485.017	566.1
485.412	562.1
485.827	564.6
486.243	560.5
486.638	583.6
487.054	570.2
487.47	573.9
487.865	556.9
488.281	555.2
488.697	550.9
489.092	561.2
489.508	554.1
489.925	574.4
490.32	553.2
490.736	563.4
491.153	564
491.548	559.5
491.964	570
492.381	550.9
492.776	566.8
493.193	561
493.61	571.9
494.006	561.3
494.422	569.8
494.84	560.7
495.235	570.4
495.652	561.7
496.069	565.5
496.465	548.9
496.883	558.3
497.3	583.8
497.696	557.9
498.113	568.9
498.509	548.2
498.927	555
499.344	552.1
499.741	554.6
500.158	564.4
500.576	567.7
500.973	562.5
501.39	549.9
501.787	548.4
502.205	559.3
502.623	553.4
503.02	552
503.438	554.5
503.856	555.1
504.253	563.6
504.671	557.7
505.068	550.7
505.486	553.1
505.905	572.6
506.302	561.3
506.72	572.2
507.118	548.6
507.536	558.2
507.955	550.8
508.352	561.4
508.771	563.1
509.169	565.1
509.587	558.1
510.006	560.3
510.404	547.1
510.823	550.8
511.221	552.7
511.64	555.2
512.038	574.3
512.457	562.2
512.877	555.3
513.275	560.2
513.694	557.7
514.092	557.8
514.512	556.6
514.91	558.5
515.33	559
515.749	553.5
516.148	564
516.568	564.1
516.966	561.6
517.386	561.7
517.785	560.9
518.205	557.2
518.603	557.7
519.024	553.7
519.444	558.1
519.843	568.4
520.263	566.1
520.662	562.3
521.082	559.5
521.481	560.4
521.902	558.7
522.301	560.4
522.722	561.5
523.121	554.8
523.542	553.5
523.963	560.3
524.362	561.2
524.783	559.7
525.183	558.8
525.604	561.1
526.003	549
526.425	555.9
526.824	565.4
527.246	563.3
527.646	567.2
528.067	558.4
528.467	563.4
528.888	567.9
529.289	558.7
529.71	560.5
530.11	554.3
530.532	554
530.932	551.4
531.354	558.2
531.755	591.6
532.176	566.7
532.577	560.5
532.999	560.8
533.4	555.1
533.822	568.6
534.223	560.7
534.645	554.1
535.046	555.9
535.468	553.8
535.869	562.6
536.292	554
536.693	557.3
537.115	563.8
537.516	550.7
537.939	553.8
538.34	569.8
538.742	570.3
539.165	560.4
539.566	555.7
539.989	549
540.391	560.3
540.814	552.8
541.216	561.1
541.639	560
542.041	566
542.464	555.2
542.866	553.8
543.268	551
543.691	559.9
544.093	558.6
544.517	579.6
544.919	554
545.343	577.9
545.745	551.1
546.147	561.6
546.571	549.2
546.974	544.6
547.398	556.2
547.8	568.7
548.224	557.6
548.627	551
549.03	564.1
549.454	550.1
549.857	551.3
550.281	553.7
550.684	549.3
551.087	559.2
551.512	557.4
551.915	563.3
552.34	556.5
552.743	550.4
553.146	556.4
553.571	557.1
553.975	572.1
554.399	551.2
554.803	603.2
555.207	545.3
555.632	546.5
556.036	564
556.461	551.3
556.865	559.1
557.268	542.7
557.694	549.6
558.098	561.8
558.502	563.5
558.927	554.4
559.332	547.2
559.736	558.3
560.162	565.2
560.566	549.3
560.992	561.4
561.396	556.8
561.801	555
562.227	554.8
562.631	554.6
563.036	558.3
563.462	562.1
563.867	556.1
564.272	544.6
564.698	554.4
565.103	543.9
565.508	569.2
565.935	551
566.34	551.8
566.745	569.7
567.172	551
567.577	578.4
567.982	563.9
568.409	561
568.815	544.3
569.22	559.1
569.626	560.1
570.053	539.3
570.459	557.9
570.865	565.3
571.292	559.1
571.698	558.6
572.104	544
572.531	550.5
572.937	560.5
573.343	554.1
573.75	550.3
574.177	557.1
574.583	555.1
574.99	552.3
575.396	555.5
575.824	550.3
576.231	556.5
576.637	545.8
577.065	584.4
577.472	552.9
577.879	552.1
578.286	567.3
578.714	547.3
579.121	549.9
579.528	558.7
579.935	559.4
580.364	550.2
580.771	532.6
581.178	548.1
581.585	557.5
582.014	558.3
582.421	546.8
582.829	556.3
583.236	565.4
583.644	547.5
584.073	551.4
584.481	552.9
584.889	542.6
585.296	559.1
585.726	554.6
586.134	546.8
586.542	544.7
586.95	575.9
587.358	544
587.787	556.5
588.196	543.5
588.604	551.3
589.012	556
589.421	550.3
589.851	546
590.259	560.2
590.668	547.8
591.076	587.4
591.485	550.3
591.894	554.1
592.324	561.6
592.733	563.7
593.142	544.1
593.551	554.2
593.96	583.2
594.369	542
594.8	545
595.209	548.6
595.618	539.3
596.028	547.9
596.437	544.5
596.847	556.7
597.256	556
597.687	555.3
598.097	553.6
598.507	545
598.917	553.6
599.327	556.7
599.736	555.5
600.146	562.6
600.556	552.7
600.988	563.5
601.398	549.9
601.808	564.9
602.219	541.3
602.629	554.4
603.039	554.3
603.45	572.2
603.86	553.5
604.271	568
604.703	556.8
605.114	548.8
605.525	556.3
605.935	556.3
606.346	570.5
606.757	559.6
607.168	555
607.579	551.4
607.99	559.9
608.402	555.2
608.813	554.9
609.224	549.6
609.636	546.9
610.047	547.5
610.48	554.6
610.892	562.4
611.303	561.3
611.715	555.1
612.127	546
612.539	550.1
612.95	556
613.362	539.7
613.774	539.9
614.186	545.9
614.599	549.3
615.011	556.7
615.423	540.6
615.835	556
616.248	547.3
616.66	559.2
617.073	545.5
617.485	554.8
617.898	554.6
618.311	559.5
618.723	550.1
619.136	579.1
619.549	568
619.962	571
620.375	548.1
620.788	551.6
621.201	543.4
621.614	565.7
622.028	555.1
622.441	564
622.854	563.7
623.268	545.9
623.681	560.1
624.095	551.9
624.509	559.4
624.922	558.5
625.336	542.6
625.728	556.4
626.142	558.3
626.556	570.7
626.97	561.6
627.384	552.3
627.799	556.2
628.213	566.3
628.627	555.4
629.041	545
629.456	546.5
629.87	550.7
630.285	557.5
630.699	559.8
631.093	549.6
631.507	555.5
631.922	554.7
632.337	564.3
632.752	541.8
633.167	555.8
633.582	548.8
633.997	542
634.412	546
634.806	552.6
635.221	543.8
635.637	563.7
636.052	543.7
636.468	553.5
636.883	567.3
637.299	551.7
637.715	538.7
638.109	550.7
638.525	541.7
638.941	562.4
639.357	554.6
639.773	559.7
640.189	544.8
640.584	546.9
641	548.9
641.416	539.3
641.832	553.1
642.249	549.9
642.665	554.4
643.06	556.8
643.477	558.3
643.894	540.2
644.31	549.5
644.727	554
645.123	552.6
645.54	546.3
645.957	547.4
646.374	554.1
646.77	552.7
647.187	577.3
647.604	553.8
648.021	534.2
648.439	539
648.835	555
649.252	544.9
649.67	542.6
650.088	549.6
650.484	554.1
650.902	552.5
651.32	559.7
651.738	545.9
652.134	556.3
652.552	566.9
652.971	556.1
653.389	552.6
653.786	565.6
654.204	555.3
654.622	541.7
655.019	546.4
655.438	550
655.857	554
656.275	556.5
656.673	543.9
657.091	614.4
657.51	540.1
657.908	554.8
658.327	562.8
658.746	537
659.144	549
659.563	560.4
659.982	553.6
660.38	543.7
660.8	553.3
661.219	562.5
661.617	556.7
662.037	553
662.457	558.8
662.855	539.7
663.275	577.4
663.695	548.9
664.094	547
664.514	554.6
664.934	540.1
665.333	549.6
665.753	547.4
666.152	540.1
666.572	542.2
666.993	558.7
667.392	540.9
667.812	543.4
668.212	542.3
668.632	555.2
669.053	545.3
669.453	547.7
669.874	550.3
670.273	548.9
670.694	539.2
671.116	555
671.515	551.5
671.937	547.4
672.337	543.7
672.758	544.1
673.158	561.1
673.58	543.8
673.98	552.4
674.402	560.8
674.824	543
675.224	542.7
675.646	544.4
676.047	547.5
676.469	550.5
676.869	558.9
677.292	549.9
677.693	550.5
678.115	546.3
678.516	553.6
678.939	561.5
679.34	550.3
679.762	560.9
680.164	550.5
680.586	546.4
680.988	552.2
681.411	575.5
681.812	548.9
682.236	541.7
682.637	538.8
683.061	537.9
683.462	548.6
683.864	544
684.288	556.7
684.69	543.9
685.114	562.5
685.516	557.8
685.94	540.7
686.342	558.6
686.766	545.6
687.168	551.1
687.571	563.3
687.995	551.3
688.398	539.5
688.822	546.3
689.225	566.5
689.628	563.4
690.052	550
690.456	553
690.88	545.8
691.284	536.1
691.687	550.6
692.112	540.1
692.515	540.5
692.919	551.3
693.344	545.2
693.747	545
694.173	547.8
694.577	553.8
694.98	545.8
695.406	552.5
695.81	553.2
696.214	554.5
696.64	549.9
697.044	552.5
697.448	557.6
697.874	544.1
698.279	541.1
698.684	539.8
699.11	537.6
699.514	547.7
699.919	548.5
700.324	544.3
700.75	545.7
701.156	546
701.561	559.7
701.987	551.7
702.393	557.8
702.798	550.4
703.203	545
703.63	547.7
704.036	542.2
704.442	546.4
704.847	546.7
705.274	546.4
705.68	554.4
706.086	559.3
706.492	539.6
706.92	550
707.326	562.5
707.732	550
708.139	544.8
708.545	539.7
708.973	545.6
709.38	548.6
709.786	540.2
710.193	559.5
710.6	551.6
711.028	540.8
711.435	546.4
711.842	548.1
712.249	550
712.656	546.6
713.064	561.6
713.492	543.7
713.9	546.9
714.307	550.7
714.715	550.8
715.123	550
715.53	551.2
715.938	560
716.367	552.3
716.775	548.1
717.184	544.5
717.592	548.6
718	560.4
718.408	579.6
718.816	587.6
719.225	553.6
719.633	551.5
720.042	540.6
720.472	548.8
720.881	563.3
721.29	550.3
721.699	541.3
722.108	552.3
722.517	552.1
722.926	544
723.335	553.2
723.744	549.2
724.154	545.3
724.563	551.6
724.973	548.7
725.382	546.7
725.792	545.9
726.202	544
726.612	556.4
727.022	544.7
727.432	543.6
779.813	549
780.223	588.4
780.634	544.6
781.044	536.8
781.454	549.2
781.865	553.1
782.276	539.4
782.686	556.2
783.097	550.1
783.508	543.8
783.919	551.4
784.33	554.1
784.741	554.1
785.152	545.7
785.563	540.5
785.974	539.8
786.386	560.9
786.776	545.4
787.188	544
787.599	542.8
788.011	552.2
788.423	552.5
788.835	543.2
789.247	536.8
789.659	538.5
790.071	539.3
790.483	586
790.874	542.1
791.286	560.1
791.699	538.8
792.111	552
792.524	548.1
792.937	545.7
793.349	547
793.741	540.5
794.154	541.5
794.567	570
794.98	544.3
795.393	537.3
795.785	563.1
796.198	545.6
796.612	545.2
797.026	540.4
797.439	535.7
797.831	541.3
798.245	536.9
798.659	540.7
799.073	539.4
799.487	538.2
799.88	546.6
800.294	545.8
800.708	551.4
801.123	547.5
801.516	562.4
801.93	540.2
802.345	526.7
802.76	540.8
803.153	553.4
803.568	554.8
803.983	556.9
804.377	547.1
804.792	529.7
805.207	536.9
805.601	549.2
806.016	575.6
806.432	546.7
806.826	568.4
807.242	558.4
807.658	546.2
808.052	539.7
808.468	537.8
808.884	535.6
809.279	544.2
809.695	560.1
810.111	565.8
810.506	542.8
810.922	555.2
811.339	540.5
811.734	549.4
812.151	544
812.546	535.6
812.963	544.3
813.38	545.8
813.776	541.5
814.193	565.5
814.589	534.2
815.006	542.8
815.402	544.3
815.82	543.2
816.237	539.8
816.633	549.2
817.051	535.1
817.448	542.5
817.866	535.4
818.262	561.7
818.68	535.6
819.077	539.8
819.495	542.3
819.892	581.6
820.311	537.6
820.708	539.1
821.127	535.1
821.524	553
821.943	546.4
822.34	557.4
822.759	549.3
823.157	545
823.576	555.6
823.974	552.3
824.393	554.2
824.791	538.7
825.189	535.6
825.609	537.6
826.007	545.1
826.427	534.3
826.826	537.9
827.246	549
827.644	530.3
828.043	550.7
828.463	537.1
828.862	554.2
829.261	552.3
829.682	539.2
830.081	552.2
830.502	532.6
830.901	547.5
831.301	541.1
831.722	531
832.121	544.2
832.521	540
832.943	542
833.342	543.5
833.742	537.5
834.164	539.7
834.564	534.8
834.965	543.7
835.386	540.8
835.787	541.9
836.188	542.6
836.588	544.4
837.01	544.9
837.411	532
837.812	551.2
838.213	546.2
838.636	540.3
839.037	608
839.438	546.2
839.84	545.8
840.263	551.1
840.664	549.5
841.066	540.5
841.468	550.6
841.891	536.7
842.293	551.2
842.695	547.9
843.098	552.1
843.5	539.3
843.902	544.5
844.326	550.9
844.729	541.3
845.131	551.8
845.534	539.8
845.937	556.6
846.34	561.8
846.764	538.6
847.167	548
847.571	539.3
847.974	548.8
848.377	541.3
