#lambda/nm	C1
208.295	478.9
208.67	442.9
209.045	409.2
209.419	412.5
209.794	591.2
210.169	570.3
210.544	682.9
210.919	587.9
211.295	578.9
211.67	590.5
212.045	578.3
212.421	579.9
212.796	614.9
213.172	573.5
213.547	576
213.923	580.7
214.299	575.2
214.675	587.5
215.051	590
215.427	592.1
215.803	601.4
216.179	588.8
216.555	572.6
216.932	585.8
217.308	585.6
217.684	582.4
218.061	588.8
218.438	584.2
218.814	582.1
219.191	588.5
219.568	573.8
219.945	583.9
220.322	586.4
220.699	588.3
221.076	589.4
221.453	584.1
221.83	575.5
222.208	581.6
222.585	581.5
222.962	580.8
223.34	588.4
223.717	583
224.095	577.6
224.473	582.8
224.851	579
225.229	573.7
225.607	596.9
225.985	576.7
226.363	583.5
226.741	583.3
227.119	584.8
227.497	591
227.876	568.7
228.254	594.9
228.633	588
229.011	581.5
229.39	589.5
229.769	584.8
230.148	586.1
230.527	600.9
230.905	586.4
231.284	585.3
231.664	582.7
232.043	591.1
232.422	591.1
232.801	577.6
233.181	583
233.56	582.4
233.94	583.2
234.319	573.5
234.699	586.8
235.079	625.3
235.458	621.6
235.838	598.3
236.218	575.2
236.598	566.4
236.978	577.8
237.358	577.3
237.738	581.6
238.119	586.1
238.499	571.7
238.88	577.6
239.26	600.3
239.641	573
240.021	583.2
240.402	586.7
240.783	581.7
241.163	582.7
241.544	582.7
241.925	587.3
242.306	599.2
242.687	577.3
243.069	588.1
243.45	593.2
243.831	574.3
244.212	586.4
244.594	617.8
244.975	594.7
245.357	587.5
245.739	576.3
246.12	586.5
246.502	594.8
246.884	582.2
247.266	580.6
247.648	590.9
248.03	599.4
248.412	590.9
248.794	586.7
249.176	582.1
249.559	588.9
249.941	576.9
250.323	573.7
250.706	574.8
251.089	577.5
251.471	589.4
251.854	588.7
252.237	583.7
252.62	595.1
253.002	588.5
253.385	581.6
253.769	596.4
254.152	580
254.535	591.1
254.918	578.7
255.301	581.2
255.685	585.3
256.068	572.8
256.452	606.1
256.835	590.4
257.219	589
257.603	593.1
257.986	576.7
258.37	586.6
258.754	573.2
259.138	593.7
259.522	598.8
259.906	584
260.29	588.6
260.675	576.3
261.059	587.2
261.443	576.9
261.828	597.5
262.212	588
262.597	577.2
262.981	582.6
263.366	587.7
263.751	589.1
264.136	575.6
264.521	576.2
264.906	577.1
265.291	595.1
265.676	581.3
266.061	584
266.446	605.1
266.831	582.8
267.217	610.2
267.602	589.5
267.987	593
268.373	578.9
268.759	597.2
269.144	591.1
269.53	582.2
269.916	582.8
270.302	581.7
270.688	594.1
271.074	585.6
271.46	594.3
271.846	611
272.232	586.8
272.618	579.4
273.004	585.3
273.391	594
273.777	596.5
274.164	586.4
274.55	601
274.937	586.8
275.324	580.6
275.71	589.4
276.097	589.3
276.484	579.2
276.871	584.7
277.258	587.4
277.645	573.3
278.032	583.9
278.419	580.5
278.807	587.6
279.194	577
279.581	580.3
279.969	590.7
280.356	586.4
280.744	588.1
281.131	607.9
281.519	599.2
281.907	579.5
282.295	585.5
282.682	597.3
283.07	588.2
283.458	596.1
283.846	595.9
284.235	593.9
284.623	593.1
285.011	578.2
285.399	581.5
285.788	583.2
286.176	574.8
286.565	601.4
286.953	584.6
287.342	580.6
287.731	579
288.119	578.9
288.508	585.7
288.897	588.9
289.286	576
289.675	586.6
290.064	586
290.453	577.7
290.821	579.4
291.21	601.5
291.599	577.7
291.989	588.6
292.378	591.2
292.768	607.3
293.157	585.5
293.547	592.1
293.936	584.9
294.326	578.5
294.716	583
295.106	582.9
295.496	584
295.886	588.5
296.276	583.7
296.666	574.2
297.056	580.8
297.446	574.1
297.836	598.1
298.227	572.3
298.617	584.3
299.008	597.1
299.398	579
299.789	576.3
300.179	586.8
300.57	597.7
300.961	579.5
301.352	579
301.742	595.2
302.133	585.8
302.524	584.3
302.915	584.3
303.307	577.9
303.698	590.7
304.089	583.8
304.48	583.9
304.872	588.9
305.263	590.7
305.655	582
306.046	590.1
306.438	586.8
306.829	576.2
307.221	596.6
307.613	589.5
308.005	598.9
308.397	595.8
308.789	608.9
309.181	607
309.573	602.2
309.965	592.2
310.357	579.5
310.749	590.7
311.142	574.4
311.534	578.1
311.926	594
312.319	589.9
312.711	579.3
313.104	590.5
313.497	584.1
313.889	620.7
314.282	599.8
314.675	609.4
315.068	591.5
315.461	597.2
315.854	616
316.247	593.1
316.64	588.9
317.033	582.7
317.405	592.6
317.798	582.1
318.192	592.7
318.585	582.9
318.979	592.7
319.372	579.8
319.766	584.4
320.16	596.1
320.553	601.9
320.947	604
321.341	579.5
321.735	584.8
322.129	575.2
322.523	606
322.917	577.9
323.311	597
323.705	587.8
324.099	593.1
324.494	599.6
324.888	595.7
325.282	582.9
325.677	587.2
326.071	592
326.466	593.2
326.861	593
327.255	595.7
327.65	595.2
328.045	603.3
328.44	586.8
328.835	583.8
329.23	580
329.625	601.9
330.02	585.9
330.415	608.8
330.81	583
331.206	586.5
331.601	586.8
331.996	595.7
332.37	598
332.766	578
333.161	611
333.557	584.5
333.953	585.6
334.348	868.6
334.744	580.7
335.14	584.4
335.536	578.3
335.932	593.3
336.328	583.8
336.724	594.6
337.12	583.7
337.516	590.6
337.913	585.4
338.309	600.9
338.705	587.5
339.102	599.3
339.498	586.4
339.895	600.7
340.291	583.3
340.688	599.1
341.085	578.9
341.481	583
341.878	585.3
342.275	601.2
342.672	572.8
343.069	578.1
343.466	575.1
343.842	592.7
344.239	578.1
344.636	587.6
345.033	577.4
345.431	577.8
345.828	584.3
346.225	574
346.623	595.7
347.02	585.3
347.418	592.3
347.816	603
348.213	571.4
348.611	583.2
349.009	577
349.407	595.7
349.805	571.7
350.203	570.5
350.601	595.8
350.999	586.4
351.397	579.7
351.795	581.5
352.193	593
352.57	595.5
352.969	592.3
353.367	580.1
353.766	578.6
354.164	581.6
354.563	594.8
354.961	581.7
355.36	578.8
355.759	581.4
356.158	574
356.557	578
356.956	573.7
357.355	575.8
357.754	590.1
358.153	589.5
358.552	606.4
358.951	579.8
359.35	588.7
359.75	575.9
360.149	571.3
360.527	567.5
360.926	572.7
361.326	585
361.726	581
362.125	577.2
362.525	586.4
362.925	581.2
363.325	582.4
363.724	588
364.124	574.7
364.524	571.7
364.924	582.1
365.324	589.7
365.725	564.5
366.125	591.2
366.525	580.6
366.904	576.9
367.304	564.8
367.705	597.5
368.105	596
368.506	578.6
368.906	582
369.307	578.2
369.708	586.2
370.108	573
370.509	587.4
370.91	568.1
371.311	579.9
371.712	582.3
372.113	580.3
372.514	565.8
372.894	575.6
373.295	576.8
373.696	589.5
374.097	590.6
374.499	618.3
374.9	577.4
375.301	571.9
375.703	579
376.105	570.6
376.506	587.9
376.908	583.6
377.309	580.5
377.711	577.8
378.113	575.1
378.493	580.3
378.895	579.2
379.297	582.9
379.699	567.4
380.102	586.7
380.504	581.3
380.906	575.6
381.308	606.2
381.71	573.8
382.113	588.8
382.515	581.1
382.918	581.6
383.299	577.3
383.701	583.7
384.104	576.4
384.507	563.7
384.909	574.5
385.312	562.4
385.715	570
386.118	573.7
386.521	570.9
386.924	587.8
387.327	566.6
387.709	569.3
388.112	561.4
388.515	573.7
388.918	574.5
389.322	583
389.725	567.8
390.129	590.8
390.532	576.6
390.936	567
391.339	562.1
391.743	574.3
392.125	567.4
392.529	584.3
392.933	584.9
393.337	570.2
393.74	571.5
394.144	572.5
394.548	568.2
394.953	569.2
395.357	583.4
395.761	574.5
396.144	578.7
396.548	573
396.952	573.4
397.357	568.8
397.761	571.4
398.166	575.7
398.57	568.6
398.975	568.8
399.379	576
399.763	625.4
400.168	580.7
400.572	575.6
400.977	579.1
401.382	596.8
401.787	586.8
402.192	593.9
402.597	593.8
403.002	564.6
403.386	592
403.791	591
404.197	569.7
404.602	574.6
405.007	573.9
405.413	574.5
405.818	566.2
406.224	571.4
406.608	570.7
407.014	572.2
407.42	590.2
407.825	573.5
408.231	589
408.637	580.2
409.043	586.6
409.449	571.6
409.834	568.2
410.24	579.3
410.646	589.1
411.052	586.1
411.458	584.9
411.865	587.2
412.271	586.2
412.677	578.4
413.062	583.2
413.469	571.3
413.875	599.6
414.282	592.7
414.689	581.1
415.095	589.3
415.502	567.8
415.888	579.4
416.294	565.7
416.701	618.3
417.108	573.2
417.515	589.7
417.923	576.5
418.33	601.3
418.715	590.8
419.123	577.1
419.53	579.3
419.937	583.5
420.345	591.3
420.752	573.6
421.16	592
421.546	579.5
421.953	587.9
422.361	572.6
422.769	578.9
423.177	570.6
423.585	601.8
423.992	598.4
424.379	594
424.787	591.7
425.195	599.7
425.603	581.2
426.011	590.5
426.419	592.7
426.806	583.7
427.214	583.3
427.623	597.4
428.031	597
428.44	583.7
428.848	591.1
429.235	595.3
429.644	587.1
430.053	579.9
430.461	590.2
430.87	612.4
431.279	588.4
431.666	572.1
432.075	578.7
432.484	589.2
432.893	582.3
433.302	599.2
433.711	619.6
434.099	587
434.508	577.8
434.918	570.9
435.327	581
435.737	583.2
436.125	575.9
436.534	579.2
436.944	589.3
437.353	585.1
437.763	593
438.173	572.5
438.561	597.4
438.971	562.3
439.381	570.6
439.791	581.4
440.201	556.2
440.589	578.9
440.999	582.9
441.409	580.5
441.819	570.2
442.23	579.9
442.619	582.7
443.029	581.3
443.439	577.3
443.85	589.2
444.26	599.3
444.649	586.7
445.06	576.2
445.471	572.5
445.881	576.3
446.292	592.4
446.682	598.1
447.092	560.4
447.503	617.6
447.914	583.7
448.325	580.5
448.715	578
449.126	573.9
449.537	573
449.948	579.4
450.338	577.4
450.75	583.9
451.161	575.7
451.572	584.4
451.984	575.4
452.374	560.9
452.786	573.4
453.197	579.3
453.609	577.1
453.999	565.4
454.411	562.5
454.823	584.2
455.235	576.5
455.647	573.9
456.037	582.6
456.449	556.6
456.862	571.9
457.274	576.8
457.665	566
458.077	575.4
458.489	585.1
458.902	575.3
459.293	576.9
459.705	573.5
460.118	570.9
460.53	572
460.921	574.5
461.334	576.1
461.747	575.5
462.16	584.2
462.551	589.6
462.964	584.6
463.377	564.7
463.79	570
464.182	582.8
464.595	572
465.008	577.7
465.421	576.6
465.813	572.7
466.226	581.3
466.64	571.7
467.053	613
467.445	585.3
467.859	575.5
468.272	577.1
468.686	585.2
469.078	569.5
469.492	560
469.906	576.9
470.298	578.8
470.712	569.1
471.126	611
471.54	561.5
471.933	565.5
472.347	574.6
472.761	566.1
473.175	566.1
473.568	566.8
473.982	564.8
474.397	569.2
474.79	575.4
475.204	583.5
475.619	573.5
476.033	573.4
476.426	572.4
476.841	563.8
477.256	597.2
477.649	561.7
478.064	565
478.479	560.6
478.872	562.5
479.287	557.2
479.702	568.9
480.118	567.9
480.511	570.2
480.927	564.5
481.342	568.7
481.736	575.3
482.151	567.8
482.566	574.4
482.96	572.8
483.376	580.6
483.792	565.2
484.186	566.8
484.602	564.9
485.017	565
485.412	568.2
485.827	568.4
486.243	565.1
486.638	590.8
487.054	574.6
487.47	576
487.865	558.5
488.281	563
488.697	561.3
489.092	567.1
489.508	555
489.925	573.9
490.32	560.9
490.736	569.7
491.153	567.3
491.548	571.4
491.964	575.9
492.381	550.5
492.776	575.8
493.193	567
493.61	577.8
494.006	569
494.422	577.4
494.84	564.6
495.235	578.5
495.652	570.1
496.069	567.8
496.465	560.9
496.883	565.5
497.3	592.8
497.696	562.4
498.113	575.9
498.509	561.7
498.927	557.1
499.344	557
499.741	564.6
500.158	582.3
500.576	577.8
500.973	570.4
501.39	564.4
501.787	557.1
502.205	573.7
502.623	567.9
503.02	557.5
503.438	559.3
503.856	565.2
504.253	571.1
504.671	565.7
505.068	560
505.486	562.2
505.905	581.1
506.302	570.3
506.72	575.8
507.118	566.5
507.536	570
507.955	564.1
508.352	574.6
508.771	575.6
509.169	573.5
509.587	563.6
510.006	568.8
510.404	553.6
510.823	562.1
511.221	563.6
511.64	557.2
512.038	581.3
512.457	564.8
512.877	563.2
513.275	559.4
513.694	565.8
514.092	559.4
514.512	567.7
514.91	564.4
515.33	568.7
515.749	565.7
516.148	565.5
516.568	568.3
516.966	562.5
517.386	559.9
517.785	566.6
518.205	565.8
518.603	561.3
519.024	558.9
519.444	563.7
519.843	575.2
520.263	572.7
520.662	572.8
521.082	564.6
521.481	568.9
521.902	565.2
522.301	569.9
522.722	573.9
523.121	562.2
523.542	558
523.963	566.6
524.362	565.9
524.783	567
525.183	562.9
525.604	569.1
526.003	561.3
526.425	558.1
526.824	567.6
527.246	573.4
527.646	576.9
528.067	566.4
528.467	567.5
528.888	563.1
529.289	566.2
529.71	563.6
530.11	562.7
530.532	567.4
530.932	559.8
531.354	556.9
531.755	597.5
532.176	571.5
532.577	564.3
532.999	567.9
533.4	562
533.822	573.6
534.223	564.3
534.645	560.2
535.046	556.4
535.468	568.7
535.869	576.1
536.292	559.1
536.693	561.6
537.115	572.9
537.516	564.2
537.939	555.1
538.34	581.8
538.742	577.5
539.165	571.8
539.566	566.2
539.989	558.8
540.391	561
540.814	564.3
541.216	570.2
541.639	565.9
542.041	571.6
542.464	562.8
542.866	561.2
543.268	558.2
543.691	570.6
544.093	574.8
544.517	586.9
544.919	554.8
545.343	586
545.745	555.2
546.147	568.8
546.571	562.8
546.974	556.2
547.398	565
547.8	579.1
548.224	561.4
548.627	554.3
549.03	576.7
549.454	555.2
549.857	555.5
550.281	561.9
550.684	561.9
551.087	571.4
551.512	567.2
551.915	573.3
552.34	563.3
552.743	561.3
553.146	568.6
553.571	554.1
553.975	581.9
554.399	561.2
554.803	609.9
555.207	566.9
555.632	558.8
556.036	573.4
556.461	558.5
556.865	567.1
557.268	552.2
557.694	559.2
558.098	565.9
558.502	568.5
558.927	565.4
559.332	567
559.736	561.5
560.162	570.7
560.566	564.2
560.992	567.1
561.396	563.5
561.801	559.6
562.227	561.1
562.631	562.1
563.036	564.9
563.462	571.1
563.867	562.3
564.272	553.2
564.698	568.3
565.103	554.9
565.508	584
565.935	568.1
566.34	565.7
566.745	577.2
567.172	561.3
567.577	585.5
567.982	576.3
568.409	571
568.815	552
569.22	561
569.626	573.2
570.053	554.7
570.459	567.3
570.865	566.5
571.292	569.1
571.698	567.8
572.104	553.4
572.531	553.2
572.937	571.1
573.343	560.9
573.75	557.4
574.177	565.5
574.583	569.2
574.99	561.5
575.396	564.5
575.824	560.1
576.231	563.3
576.637	558.1
577.065	585
577.472	556.4
577.879	554
578.286	576.8
578.714	553.7
579.121	562.6
579.528	564.5
579.935	568.7
580.364	560.4
580.771	546.5
581.178	550
581.585	562.4
582.014	563.2
582.421	556.2
582.829	554.9
583.236	569.1
583.644	552.6
584.073	556.7
584.481	559
584.889	551.3
585.296	562.9
585.726	553.6
586.134	553
586.542	554.3
586.95	576.3
587.358	552.6
587.787	564.6
588.196	554.4
588.604	562.2
589.012	557
589.421	553.5
589.851	556.5
590.259	562.7
590.668	557.7
591.076	591.6
591.485	555.3
591.894	558.1
592.324	577.8
592.733	573
593.142	550.6
593.551	560.5
593.96	589.7
594.369	557.1
594.8	560.5
595.209	555.8
595.618	545.8
596.028	556.3
596.437	553.3
596.847	554.7
597.256	561.8
597.687	569.9
598.097	559.6
598.507	548.4
598.917	558.4
599.327	566.7
599.736	563.4
600.146	567.8
600.556	562.3
600.988	570.9
601.398	560
601.808	569.6
602.219	552.1
602.629	562
603.039	567.1
603.45	585.5
603.86	558.3
604.271	580.2
604.703	561.3
605.114	561.5
605.525	562.4
605.935	566.4
606.346	584.5
606.757	567.3
607.168	558.5
607.579	552.2
607.99	566.6
608.402	560.8
608.813	564.2
609.224	559
609.636	551.1
610.047	553.4
610.48	563.3
610.892	568.9
611.303	568.5
611.715	558.7
612.127	551.7
612.539	556.3
612.95	566
613.362	555.4
613.774	548.2
614.186	556.5
614.599	555.9
615.011	567.6
615.423	556
615.835	556.9
616.248	547.5
616.66	557.1
617.073	549.3
617.485	558.9
617.898	566.8
618.311	560.6
618.723	558.6
619.136	582.3
619.549	569.7
619.962	579.4
620.375	554.5
620.788	562.6
621.201	551.6
621.614	564.7
622.028	555.6
622.441	560.3
622.854	573.3
623.268	555.9
623.681	564.8
624.095	561.9
624.509	566.7
624.922	568.2
625.336	544.8
625.728	567.9
626.142	568.2
626.556	575.7
626.97	567
627.384	558.3
627.799	558.9
628.213	566.2
628.627	554.1
629.041	552.9
629.456	559
629.87	557.8
630.285	567.8
630.699	568.8
631.093	556.5
631.507	561.1
631.922	564.9
632.337	574.6
632.752	552.4
633.167	562.8
633.582	554.3
633.997	556.2
634.412	549.8
634.806	559.1
635.221	551.3
635.637	569.7
636.052	553.9
636.468	562.9
636.883	574.7
637.299	559.8
637.715	547.3
638.109	558.9
638.525	547.4
638.941	565
639.357	563.3
639.773	568.7
640.189	552.5
640.584	561.8
641	564
641.416	552.2
641.832	560.3
642.249	557.7
642.665	551.6
643.06	562.5
643.477	565.4
643.894	549.2
644.31	555.8
644.727	555
645.123	559.8
645.54	550.4
645.957	562.1
646.374	567.1
646.77	555.1
647.187	583.3
647.604	558.9
648.021	548.4
648.439	551.8
648.835	560.8
649.252	564
649.67	560
650.088	556.5
650.484	562.3
650.902	560.9
651.32	561
651.738	555.3
652.134	563.8
652.552	571.9
652.971	570.5
653.389	555.5
653.786	570.7
654.204	562.4
654.622	549.2
655.019	553.1
655.438	567.1
655.857	563.4
656.275	556.4
656.673	557.3
657.091	623.2
657.51	557.9
657.908	564.9
658.327	573.3
658.746	547.9
659.144	558.1
659.563	564.7
659.982	561.8
660.38	551.1
660.8	559.5
661.219	565.7
661.617	560.9
662.037	557.2
662.457	568.8
662.855	550.5
663.275	586.9
663.695	560.7
664.094	560.2
664.514	562.1
664.934	546.4
665.333	566.5
665.753	556.9
666.152	545.8
666.572	550.5
666.993	573.9
667.392	555.2
667.812	553.7
668.212	555.5
668.632	564.9
669.053	560.6
669.453	562.7
669.874	562.1
670.273	559.3
670.694	555.9
671.116	564.9
671.515	566.1
671.937	556
672.337	546.8
672.758	547.7
673.158	564.9
673.58	547.9
673.98	562.4
674.402	574.3
674.824	549.4
675.224	549.1
675.646	547
676.047	557.8
676.469	553.5
676.869	562.7
677.292	557.7
677.693	551.8
678.115	551.4
678.516	560.5
678.939	553.9
679.34	553.1
679.762	566.3
680.164	558.6
680.586	552.8
680.988	556.5
681.411	576.3
681.812	547.8
682.236	547.6
682.637	543.9
683.061	544
683.462	553.8
683.864	561.3
684.288	561.3
684.69	549.6
685.114	563.3
685.516	565.7
685.94	548.7
686.342	561.5
686.766	550.2
687.168	551.1
687.571	577.5
687.995	555.2
688.398	547.7
688.822	555.2
689.225	574.4
689.628	575.2
690.052	554.2
690.456	559.6
690.88	553.7
691.284	546.6
691.687	559.5
692.112	544.9
692.515	551.2
692.919	553.4
693.344	564.4
693.747	554.7
694.173	549.1
694.577	567.4
694.98	556.3
695.406	553.3
695.81	561.4
696.214	567.3
696.64	562.8
697.044	561.4
697.448	565.6
697.874	555.2
698.279	552.9
698.684	546.7
699.11	554.4
699.514	555.7
699.919	551.8
700.324	551.3
700.75	559.9
701.156	557.1
701.561	566.8
701.987	561.5
702.393	565.6
702.798	568.7
703.203	556.4
703.63	554.5
704.036	554.2
704.442	554.6
704.847	550.1
705.274	552.6
705.68	556.8
706.086	564.5
706.492	545.1
706.92	555.9
707.326	566.2
707.732	552.2
708.139	545.9
708.545	543
708.973	547.2
709.38	553.9
709.786	541.3
710.193	568.7
710.6	554.9
711.028	552.1
711.435	555
711.842	562.1
712.249	547.1
712.656	560.1
713.064	561.4
713.492	550.2
713.9	551.9
714.307	561
714.715	553.4
715.123	555
715.53	559.6
715.938	560.5
716.367	559.4
716.775	553.5
717.184	550.4
717.592	555.8
718	565.5
718.408	584.8
718.816	600.1
719.225	564
719.633	552.8
720.042	546.2
720.472	555.5
720.881	576
721.29	555.5
721.699	549.9
722.108	556.6
722.517	560.1
722.926	551.7
723.335	562.4
723.744	555.5
724.154	550.2
724.563	554.9
724.973	558
725.382	555.5
725.792	547.4
726.202	550.1
726.612	563.2
727.022	553.7
727.432	548.1
779.813	544.9
780.223	594.5
780.634	557
781.044	550
781.454	555.1
781.865	568.6
782.276	546.1
782.686	560.3
783.097	555.2
783.508	549.1
783.919	559.8
784.33	569.7
784.741	568.3
785.152	548.8
785.563	544.8
785.974	548
786.386	564.7
786.776	550.8
787.188	551.8
787.599	548.9
788.011	555.3
788.423	565
788.835	550.6
789.247	552.3
789.659	558.8
790.071	555.5
790.483	588
790.874	547.3
791.286	557.9
791.699	548.8
792.111	559.3
792.524	559.5
792.937	558.2
793.349	544.1
793.741	548.5
794.154	550.8
794.567	576.4
794.98	559.6
795.393	543.9
795.785	561.9
796.198	548.3
796.612	562.3
797.026	554.6
797.439	540.6
797.831	548.4
798.245	543.7
798.659	551.5
799.073	552.1
799.487	551.1
799.88	552.8
800.294	553
800.708	558.6
801.123	557.7
801.516	566.8
801.93	541.1
802.345	544.3
802.76	556.3
803.153	569.5
803.568	562.5
803.983	560.5
804.377	553.7
804.792	545.1
805.207	543.2
805.601	550.6
806.016	588.9
806.432	549.7
806.826	580.5
807.242	569.7
807.658	560.4
808.052	545.3
808.468	546.6
808.884	547.4
809.279	551.7
809.695	565.2
810.111	571.6
810.506	553.5
810.922	572.9
811.339	550.5
811.734	561.4
812.151	549
812.546	548.8
812.963	553
813.38	554.8
813.776	550.1
814.193	570.2
814.589	551.8
815.006	552
815.402	551.9
815.82	543.7
816.237	548.8
816.633	554.5
817.051	544.6
817.448	557.7
817.866	539.4
818.262	562.6
818.68	551
819.077	543.5
819.495	550.1
819.892	596.7
820.311	542.1
820.708	544.7
821.127	544.5
821.524	555.8
821.943	552.5
822.34	563.6
822.759	549.6
823.157	551.7
823.576	567.2
823.974	554.1
824.393	558
824.791	546.2
825.189	541.2
825.609	551.3
826.007	547.3
826.427	544.6
826.826	548.9
827.246	552.9
827.644	541
828.043	557.2
828.463	549.6
828.862	558.7
829.261	557.6
829.682	544.4
830.081	554.1
830.502	546.6
830.901	550.3
831.301	541.8
831.722	540.9
832.121	555
832.521	539.3
832.943	557
833.342	554.5
833.742	551.6
834.164	545
834.564	545.7
834.965	552.4
835.386	545
835.787	550
836.188	554.4
836.588	556.3
837.01	553.4
837.411	540.9
837.812	553.5
838.213	552
838.636	546
839.037	611.7
839.438	544.3
839.84	552.6
840.263	555.8
840.664	550.1
841.066	551.9
841.468	552.2
841.891	548.3
842.293	563.5
842.695	556.5
843.098	560.5
843.5	548.6
843.902	555.2
844.326	556.6
844.729	548.5
845.131	565.7
845.534	552.9
845.937	566.7
846.34	566.3
846.764	547.4
847.167	557.2
847.571	544.5
847.974	551.4
