#lambda/nm	C1
208.295	484.3
208.67	446.9
209.045	407.9
209.419	411.6
209.794	594
210.169	575.5
210.544	687.9
210.919	590.8
211.295	579.2
211.67	590.4
212.045	584.1
212.421	582.9
212.796	618.2
213.172	584.4
213.547	577.8
213.923	585.5
214.299	575.5
214.675	591.1
215.051	589.8
215.427	589.4
215.803	605
216.179	588.7
216.555	580.2
216.932	587.5
217.308	584.5
217.684	586.5
218.061	593.5
218.438	591.5
218.814	582.7
219.191	590.6
219.568	576.2
219.945	581.9
220.322	595.7
220.699	595.9
221.076	594.7
221.453	591.4
221.83	576.5
222.208	580.8
222.585	582
222.962	591.3
223.34	586.4
223.717	589.5
224.095	584.4
224.473	583.8
224.851	581.3
225.229	572.2
225.607	596.9
225.985	575.1
226.363	588.7
226.741	588.8
227.119	588.5
227.497	601.3
227.876	576.7
228.254	584.9
228.633	592.5
229.011	589.7
229.39	592
229.769	584.4
230.148	594.1
230.527	600.7
230.905	585.4
231.284	589.9
231.664	584.2
232.043	599.8
232.422	595.5
232.801	579.1
233.181	590.2
233.56	581.6
233.94	583.5
234.319	568.9
234.699	577.4
235.079	626.4
235.458	619.1
235.838	602.2
236.218	579.6
236.598	573
236.978	578.2
237.358	581.2
237.738	582.2
238.119	594.4
238.499	578.9
238.88	589
239.26	603.7
239.641	575.5
240.021	583.6
240.402	589.4
240.783	584.6
241.163	586.8
241.544	587.6
241.925	579.6
242.306	593.5
242.687	578.2
243.069	585.7
243.45	589.7
243.831	578.5
244.212	583
244.594	622.5
244.975	593.5
245.357	591.7
245.739	577.3
246.12	588.3
246.502	600
246.884	583.8
247.266	583.9
247.648	587.8
248.03	604.9
248.412	580.9
248.794	588.4
249.176	581.2
249.559	599.7
249.941	578.7
250.323	576.9
250.706	582.1
251.089	582.6
251.471	587.3
251.854	584.9
252.237	586.3
252.62	589.4
253.002	582.9
253.385	579.8
253.769	600.6
254.152	583.1
254.535	594.5
254.918	572.7
255.301	584.7
255.685	580.8
256.068	583.9
256.452	608.9
256.835	591.5
257.219	589.3
257.603	593
257.986	573.9
258.37	591.7
258.754	580.2
259.138	592.1
259.522	596.4
259.906	579.9
260.29	587
260.675	583.3
261.059	587.2
261.443	574.6
261.828	594.7
262.212	587
262.597	571
262.981	579.7
263.366	593.9
263.751	589.5
264.136	573.4
264.521	579.4
264.906	581.5
265.291	597.4
265.676	578.1
266.061	590
266.446	601.6
266.831	592.5
267.217	605.5
267.602	593.8
267.987	594.7
268.373	585.2
268.759	598.6
269.144	591.6
269.53	592.5
269.916	576.6
270.302	581.9
270.688	590.1
271.074	585.5
271.46	595.2
271.846	613.5
272.232	582.6
272.618	577.4
273.004	582.2
273.391	590.4
273.777	602.3
274.164	590.6
274.55	595.6
274.937	587.4
275.324	585.5
275.71	588.8
276.097	591.8
276.484	577.4
276.871	591.9
277.258	589.8
277.645	570.9
278.032	584.6
278.419	581.2
278.807	592.4
279.194	580.7
279.581	580.6
279.969	591.4
280.356	594
280.744	588.9
281.131	609.3
281.519	597.2
281.907	579.1
282.295	584.2
282.682	594.9
283.07	591.1
283.458	596.2
283.846	599.3
284.235	597.6
284.623	597.1
285.011	577.2
285.399	590.2
285.788	582.3
286.176	577.3
286.565	596.6
286.953	579.3
287.342	587.5
287.731	575.3
288.119	577
288.508	583.9
288.897	583.4
289.286	579.7
289.675	585.1
290.064	591.8
290.453	579.2
290.821	583.6
291.21	602.4
291.599	584.8
291.989	585.8
292.378	590.6
292.768	605.7
293.157	588.8
293.547	593.9
293.936	586.2
294.326	582.7
294.716	591.7
295.106	580.2
295.496	587
295.886	595.5
296.276	585.1
296.666	576.5
297.056	584.3
297.446	578.9
297.836	598.8
298.227	583.6
298.617	588.2
299.008	598.3
299.398	586.2
299.789	578.8
300.179	591.8
300.57	597.8
300.961	581
301.352	581.9
301.742	596.6
302.133	590.7
302.524	584
302.915	588.4
303.307	581
303.698	589.9
304.089	597.2
304.48	582.7
304.872	590.3
305.263	586.2
305.655	579.2
306.046	594.8
306.438	591
306.829	580.9
307.221	599.8
307.613	593.7
308.005	597.3
308.397	593.6
308.789	612
309.181	613.4
309.573	604.8
309.965	606.1
310.357	586.3
310.749	589.3
311.142	588
311.534	580.8
311.926	597.4
312.319	588.1
312.711	586.4
313.104	598.5
313.497	589.6
313.889	623.9
314.282	603.8
314.675	612.7
315.068	594.8
315.461	593.9
315.854	615
316.247	594.7
316.64	590.8
317.033	588
317.405	601
317.798	596.3
318.192	595
318.585	581.9
318.979	597.1
319.372	579
319.766	587.7
320.16	594.1
320.553	598.8
320.947	605.6
321.341	581.6
321.735	587.6
322.129	577.4
322.523	611.7
322.917	582.4
323.311	599.2
323.705	590.4
324.099	590
324.494	602
324.888	600.4
325.282	587.4
325.677	589.5
326.071	596.8
326.466	600.1
326.861	593.7
327.255	596.3
327.65	606.7
328.045	605.1
328.44	588.5
328.835	582.3
329.23	575.9
329.625	615.8
330.02	582.5
330.415	605.5
330.81	589.5
331.206	591
331.601	581
331.996	595.5
332.37	601.5
332.766	582.8
333.161	607.9
333.557	584.2
333.953	587.7
334.348	1003.3
334.744	584.4
335.14	582
335.536	580.5
335.932	593.4
336.328	585.6
336.724	598.8
337.12	590.3
337.516	586.4
337.913	587.5
338.309	603.1
338.705	588.3
339.102	596.9
339.498	587.1
339.895	603.7
340.291	581.1
340.688	597.6
341.085	579
341.481	587.2
341.878	584.2
342.275	602.2
342.672	574.7
343.069	582.9
343.466	572.4
343.842	598.5
344.239	583
344.636	582.1
345.033	577.5
345.431	584.5
345.828	586.8
346.225	577.6
346.623	593.6
347.02	586.6
347.418	591.2
347.816	601.2
348.213	576.8
348.611	592.2
349.009	579.3
349.407	594.3
349.805	576
350.203	571
350.601	595.1
350.999	581.3
351.397	580.2
351.795	579.7
352.193	597
352.57	593.7
352.969	593.4
353.367	579.2
353.766	577.2
354.164	583.6
354.563	598.3
354.961	590
355.36	580.1
355.759	582
356.158	575.8
356.557	581.9
356.956	575.7
357.355	583.2
357.754	585.9
358.153	591.8
358.552	607.9
358.951	582.5
359.35	593.1
359.75	577.4
360.149	575.8
360.527	569
360.926	578.5
361.326	587.1
361.726	585.6
362.125	578.6
362.525	593.5
362.925	584.6
363.325	588.9
363.724	579.4
364.124	576.1
364.524	575.7
364.924	577.8
365.324	593.2
365.725	572.5
366.125	589.2
366.525	582.8
366.904	572.1
367.304	565.6
367.705	597.4
368.105	593.7
368.506	578.6
368.906	578.8
369.307	584
369.708	586.1
370.108	568.1
370.509	591.2
370.91	577.3
371.311	587.8
371.712	580.3
372.113	572.7
372.514	561.9
372.894	581.1
373.295	570.5
373.696	588.2
374.097	590.6
374.499	613.3
374.9	579.5
375.301	574.5
375.703	581.8
376.105	572.9
376.506	579.6
376.908	583.1
377.309	581.7
377.711	579.9
378.113	571.7
378.493	577.8
378.895	569.4
379.297	587.4
379.699	569.9
380.102	579.8
380.504	577.8
380.906	573.6
381.308	601.6
381.71	583.4
382.113	582.4
382.515	578.1
382.918	581.7
383.299	582
383.701	585.7
384.104	575.9
384.507	566.3
384.909	577.1
385.312	560
385.715	566.7
386.118	576.9
386.521	569.7
386.924	589.9
387.327	573.1
387.709	567.6
388.112	561.1
388.515	576.5
388.918	582.9
389.322	583.5
389.725	574.7
390.129	595.1
390.532	584.8
390.936	573.6
391.339	568.9
391.743	582.9
392.125	573.7
392.529	588.4
392.933	595.4
393.337	580.7
393.74	576.2
394.144	579.9
394.548	576.8
394.953	574.1
395.357	586.1
395.761	575.4
396.144	581.4
396.548	577.7
396.952	579.7
397.357	584.3
397.761	580.8
398.166	570.6
398.57	571.6
398.975	570.3
399.379	585.8
399.763	622.7
400.168	582.4
400.572	581
400.977	579.6
401.382	600
401.787	582.4
402.192	592.8
402.597	596.2
403.002	568.2
403.386	592.1
403.791	598
404.197	572.2
404.602	576.7
405.007	581.2
405.413	575.6
405.818	572.9
406.224	576
406.608	579.2
407.014	573.3
407.42	595.6
407.825	574.7
408.231	585.5
408.637	586.4
409.043	593.8
409.449	575.4
409.834	575.6
410.24	579.6
410.646	592.8
411.052	591.9
411.458	587.4
411.865	582.3
412.271	592.2
412.677	585
413.062	585.5
413.469	572.1
413.875	608.4
414.282	590.8
414.689	585
415.095	588.1
415.502	573.8
415.888	580.7
416.294	570
416.701	621.8
417.108	577.2
417.515	586.7
417.923	580.6
418.33	599.9
418.715	591.2
419.123	572.8
419.53	572.2
419.937	582.6
420.345	591.3
420.752	576.4
421.16	592.5
421.546	580.8
421.953	591.3
422.361	576.7
422.769	576.5
423.177	575.5
423.585	600.3
423.992	600.1
424.379	593.3
424.787	590.3
425.195	592.8
425.603	584.4
426.011	588.9
426.419	602.8
426.806	580.8
427.214	589.6
427.623	594.5
428.031	600.1
428.44	586.9
428.848	597.6
429.235	594.3
429.644	583.2
430.053	583.9
430.461	596.5
430.87	606.2
431.279	591.5
431.666	577.8
432.075	581.3
432.484	583.4
432.893	579.3
433.302	604.2
433.711	616.4
434.099	584.7
434.508	581.7
434.918	574.7
435.327	590.6
435.737	580.3
436.125	582.3
436.534	579.2
436.944	583
437.353	580
437.763	606.4
438.173	577
438.561	586.8
438.971	566.1
439.381	575
439.791	582.6
440.201	560.7
440.589	580.8
440.999	587.4
441.409	577.7
441.819	568.2
442.23	585.7
442.619	583.1
443.029	579.7
443.439	575.8
443.85	586.2
444.26	590.7
444.649	583.5
445.06	580.3
445.471	566.6
445.881	572.1
446.292	592
446.682	590.3
447.092	570.3
447.503	623.9
447.914	579.1
448.325	571
448.715	577.7
449.126	571
449.537	578.5
449.948	570
450.338	575.4
450.75	587
451.161	577
451.572	582.7
451.984	574.7
452.374	566
452.786	577.3
453.197	584.6
453.609	582
453.999	560
454.411	568.9
454.823	580.9
455.235	579.6
455.647	577.1
456.037	584.3
456.449	563.9
456.862	578.1
457.274	577.5
457.665	571.4
458.077	583.7
458.489	585.5
458.902	574.4
459.293	579.6
459.705	577.2
460.118	570.8
460.53	573.6
460.921	577.5
461.334	581.1
461.747	579.7
462.16	589.1
462.551	591.4
462.964	581.8
463.377	563.9
463.79	572
464.182	577
464.595	568.1
465.008	575.9
465.421	581.2
465.813	576.2
466.226	574.5
466.64	570.3
467.053	618.3
467.445	577.6
467.859	577.2
468.272	574.7
468.686	583.4
469.078	567.2
469.492	565
469.906	573.2
470.298	583.3
470.712	566.3
471.126	601.3
471.54	559.7
471.933	566.9
472.347	570.2
472.761	572.7
473.175	556.5
473.568	566.6
473.982	565.5
474.397	571.5
474.79	569.6
475.204	575.6
475.619	573.3
476.033	573.1
476.426	570.4
476.841	563.9
477.256	598.5
477.649	557.7
478.064	563.7
478.479	570.9
478.872	568
479.287	558.5
479.702	560.9
480.118	572.6
480.511	567
480.927	564.2
481.342	570.2
481.736	572.2
482.151	569.1
482.566	583
482.96	573.6
483.376	584.7
483.792	566.2
484.186	576.6
484.602	562.8
485.017	569.5
485.412	571.4
485.827	571.1
486.243	570.9
486.638	591.2
487.054	577.6
487.47	588.3
487.865	567
488.281	561.9
488.697	569.2
489.092	566.2
489.508	563.2
489.925	581.8
490.32	561.7
490.736	570.3
491.153	568.1
491.548	579.8
491.964	583.3
492.381	559
492.776	578.1
493.193	574.8
493.61	582.2
494.006	575.6
494.422	581
494.84	563.8
495.235	580.7
495.652	565.4
496.069	568.9
496.465	561.2
496.883	573.4
497.3	595
497.696	567.1
498.113	576.3
498.509	560.1
498.927	561
499.344	560.7
499.741	564.7
500.158	574.3
500.576	584.5
500.973	573
501.39	563.6
501.787	564.2
502.205	578.1
502.623	559.5
503.02	558.7
503.438	563.8
503.856	565
504.253	574.3
504.671	571.2
505.068	565.9
505.486	566.3
505.905	587.5
506.302	577.6
506.72	576.6
507.118	559.3
507.536	568.3
507.955	561.9
508.352	573.3
508.771	575.5
509.169	566
509.587	565.9
510.006	567.9
510.404	558.9
510.823	559.6
511.221	569
511.64	564.2
512.038	577.1
512.457	566.9
512.877	569.7
513.275	555.9
513.694	562.2
514.092	566.8
514.512	572.9
514.91	570.3
515.33	568.6
515.749	570.7
516.148	571.6
516.568	567.9
516.966	568.5
517.386	564.7
517.785	569.3
518.205	567
518.603	565.8
519.024	563.2
519.444	574.5
519.843	574.7
520.263	570.4
520.662	576.7
521.082	567.2
521.481	572.3
521.902	567.7
522.301	568.1
522.722	575.4
523.121	569.2
523.542	563.5
523.963	562
524.362	566.7
524.783	570.5
525.183	565.3
525.604	569.4
526.003	564.4
526.425	561.9
526.824	574.8
527.246	577.5
527.646	577
528.067	567.2
528.467	569.2
528.888	571.6
529.289	573.3
529.71	572.6
530.11	563
530.532	564.9
530.932	562.4
531.354	559.4
531.755	600
532.176	572
532.577	570.7
532.999	573.5
533.4	563
533.822	572.8
534.223	562.8
534.645	566
535.046	558.3
535.468	569.6
535.869	577.1
536.292	559.4
536.693	563.1
537.115	567.1
537.516	561.3
537.939	568.8
538.34	580.2
538.742	577.6
539.165	570
539.566	561.5
539.989	559.1
540.391	561.5
540.814	567
541.216	574.2
541.639	569.3
542.041	572.7
542.464	562
542.866	558.3
543.268	556.8
543.691	566.9
544.093	574
544.517	585.1
544.919	558.4
545.343	589.9
545.745	561.5
546.147	562.4
546.571	564.5
546.974	564
547.398	569.6
547.8	581.8
548.224	563.7
548.627	558.4
549.03	564.5
549.454	563.5
549.857	559.5
550.281	565.1
550.684	557.8
551.087	578.9
551.512	566
551.915	577.7
552.34	568.4
552.743	561.2
553.146	565.4
553.571	569.9
553.975	582.2
554.399	560.8
554.803	609.2
555.207	565.4
555.632	556.4
556.036	573.4
556.461	558.8
556.865	565.2
557.268	557.7
557.694	566.3
558.098	568
558.502	565.9
558.927	557.3
559.332	567.8
559.736	566.6
560.162	570.8
560.566	564.8
560.992	572.1
561.396	561.3
561.801	557.7
562.227	565.1
562.631	560.4
563.036	567.4
563.462	569.7
563.867	566.7
564.272	551.4
564.698	564.6
565.103	550.8
565.508	582.6
565.935	564
566.34	563.6
566.745	571
567.172	563.7
567.577	577.9
567.982	576.5
568.409	562.7
568.815	556.3
569.22	562
569.626	570.4
570.053	550.7
570.459	569.3
570.865	571.7
571.292	570.7
571.698	563.8
572.104	551.8
572.531	560.6
572.937	571.5
573.343	558.4
573.75	556
574.177	572.1
574.583	573.6
574.99	565.1
575.396	571.2
575.824	563.4
576.231	568.1
576.637	559.7
577.065	595.3
577.472	561
577.879	563
578.286	574.3
578.714	551.4
579.121	567.4
579.528	566.2
579.935	574.3
580.364	560.8
580.771	552.8
581.178	556.6
581.585	566.8
582.014	570.6
582.421	559.5
582.829	564.2
583.236	571.6
583.644	562.8
584.073	562
584.481	567.1
584.889	565
585.296	567.7
585.726	561.7
586.134	554.4
586.542	563.3
586.95	580
587.358	550.8
587.787	563
588.196	551.6
588.604	566.4
589.012	562.1
589.421	554.9
589.851	556.4
590.259	567.1
590.668	558.9
591.076	592.6
591.485	555.8
591.894	564.3
592.324	576.7
592.733	576.5
593.142	549.4
593.551	562.3
593.96	597.2
594.369	554.3
594.8	551
595.209	559
595.618	547.9
596.028	557.2
596.437	560.4
596.847	559.7
597.256	561.1
597.687	566.6
598.097	568
598.507	551.8
598.917	565.9
599.327	571.5
599.736	566.9
600.146	571.7
600.556	565.3
600.988	578.6
601.398	559.6
601.808	573.4
602.219	551.8
602.629	564.4
603.039	563.3
603.45	584.2
603.86	565.2
604.271	572.2
604.703	566.4
605.114	562.2
605.525	564.4
605.935	569.5
606.346	582.2
606.757	569.8
607.168	566.8
607.579	553.5
607.99	571.6
608.402	565.8
608.813	570.9
609.224	559.2
609.636	553.1
610.047	557.1
610.48	567.4
610.892	569.7
611.303	570.7
611.715	560.5
612.127	550.7
612.539	560.1
612.95	564
613.362	550.5
613.774	550.1
614.186	556.1
614.599	555.7
615.011	567.2
615.423	551.1
615.835	560.8
616.248	556.7
616.66	566.2
617.073	553.6
617.485	561
617.898	569
618.311	560.2
618.723	560.5
619.136	585.2
619.549	576.8
619.962	584
620.375	559.3
620.788	564.8
621.201	557.7
621.614	566
622.028	561.2
622.441	571.2
622.854	570.7
623.268	553.2
623.681	562.6
624.095	567.8
624.509	568
624.922	563.5
625.336	551.5
625.728	568.1
626.142	568.7
626.556	575.5
626.97	568
627.384	557.8
627.799	561.4
628.213	571.9
628.627	561.7
629.041	556.7
629.456	555.5
629.87	557
630.285	567
630.699	571.7
631.093	561.5
631.507	566
631.922	567.6
632.337	572.6
632.752	557.1
633.167	557
633.582	560.4
633.997	554.3
634.412	556.1
634.806	558.5
635.221	554.8
635.637	567.4
636.052	548.9
636.468	565.7
636.883	578
637.299	560.6
637.715	547.7
638.109	565.3
638.525	551.5
638.941	574
639.357	561.4
639.773	571.8
640.189	554.2
640.584	561.1
641	564.2
641.416	549.1
641.832	556.9
642.249	559.9
642.665	566
643.06	567.6
643.477	564.2
643.894	545.6
644.31	558.8
644.727	558.4
645.123	566.9
645.54	555.6
645.957	559.4
646.374	574.5
646.77	562.5
647.187	590
647.604	563.5
648.021	549.4
648.439	553.9
648.835	561.7
649.252	561.3
649.67	565.3
650.088	561.6
650.484	564.6
650.902	564
651.32	565
651.738	555.4
652.134	562.5
652.552	582.3
652.971	571.4
653.389	564.4
653.786	572.6
654.204	560.6
654.622	554.9
655.019	562.2
655.438	563.4
655.857	561
656.275	568.7
656.673	551.1
657.091	625.5
657.51	553.1
657.908	564.9
658.327	569.5
658.746	548.8
659.144	563.9
659.563	566.6
659.982	559.7
660.38	552.6
660.8	559.2
661.219	568.7
661.617	560.4
662.037	558.9
662.457	573.4
662.855	543.4
663.275	593.1
663.695	563.4
664.094	558.7
664.514	563.1
664.934	552.4
665.333	567.7
665.753	553.2
666.152	552.1
666.572	555.6
666.993	574.2
667.392	553.8
667.812	559.4
668.212	556.9
668.632	569.7
669.053	558.7
669.453	562.8
669.874	565.8
670.273	563.1
670.694	552.4
671.116	576.3
671.515	569.5
671.937	560.9
672.337	557.1
672.758	557.1
673.158	569.5
673.58	549
673.98	561.3
674.402	571.6
674.824	560.6
675.224	551.4
675.646	549.1
676.047	551.9
676.469	562.2
676.869	567.2
677.292	562.2
677.693	550.8
678.115	552.1
678.516	564
678.939	567.2
679.34	552.3
679.762	569.2
680.164	566.7
680.586	551.5
680.988	564.6
681.411	590.4
681.812	554.8
682.236	558.9
682.637	552.9
683.061	548.8
683.462	563.3
683.864	556.9
684.288	563.9
684.69	553.2
685.114	578.2
685.516	570.5
685.94	550.7
686.342	563.3
686.766	558.9
687.168	553.2
687.571	575.4
687.995	561.2
688.398	549.9
688.822	557.2
689.225	570.9
689.628	575.6
690.052	558.3
690.456	567.2
690.88	559.5
691.284	551
691.687	568
692.112	556.4
692.515	557.7
692.919	553.4
693.344	569.4
693.747	557.8
694.173	554.3
694.577	564.3
694.98	563.6
695.406	557
695.81	563.6
696.214	563.8
696.64	562.4
697.044	563.8
697.448	569.1
697.874	554.1
698.279	561.1
698.684	553.4
699.11	548.2
699.514	554.8
699.919	554.2
700.324	552.2
700.75	553.2
701.156	553.8
701.561	567.6
701.987	560.5
702.393	571.3
702.798	574.2
703.203	560
703.63	554.6
704.036	555.3
704.442	558.1
704.847	554.3
705.274	555.8
705.68	564.5
706.086	570.5
706.492	551.6
706.92	555.3
707.326	563.7
707.732	553.4
708.139	551
708.545	552.7
708.973	551.1
709.38	558.4
709.786	544
710.193	571.3
710.6	561
711.028	548.5
711.435	559.2
711.842	557.1
712.249	553.7
712.656	557.8
713.064	562.9
713.492	552.5
713.9	554.6
714.307	559.6
714.715	560.2
715.123	563.1
715.53	558.3
715.938	562
716.367	562.3
716.775	555.6
717.184	553.7
717.592	555.4
718	562.5
718.408	581.9
718.816	595.5
719.225	561.4
719.633	559.6
720.042	554.1
720.472	552.2
720.881	573.1
721.29	560.5
721.699	551.1
722.108	557.3
722.517	561.1
722.926	549.6
723.335	559.2
723.744	557.1
724.154	563.2
724.563	561.1
724.973	562.2
725.382	562.9
725.792	557
726.202	545.6
726.612	567.4
727.022	550.2
727.432	546.7
779.813	552
780.223	599.8
780.634	558.3
781.044	550.5
781.454	556.4
781.865	566.2
782.276	547
782.686	565.4
783.097	554.4
783.508	553.6
783.919	555.9
784.33	568.9
784.741	568.3
785.152	549.8
785.563	547.1
785.974	549.9
786.386	568.3
786.776	551.4
787.188	554.3
787.599	544.5
788.011	556.6
788.423	561.1
788.835	551.3
789.247	547.2
789.659	551.6
790.071	552.4
790.483	593
790.874	556.4
791.286	560.7
791.699	553.5
792.111	559.1
792.524	559
792.937	554.6
793.349	549.4
793.741	550.9
794.154	549.4
794.567	571.1
794.98	554.8
795.393	545.5
795.785	568.8
796.198	549.8
796.612	554.8
797.026	557.2
797.439	546.2
797.831	557.5
798.245	544.5
798.659	549.9
799.073	553
799.487	547.4
799.88	553.1
800.294	555.1
800.708	561.4
801.123	558.5
801.516	572
801.93	538.3
802.345	540.8
802.76	553.7
803.153	561.6
803.568	564.5
803.983	563.9
804.377	557.5
804.792	547.6
805.207	538
805.601	554
806.016	588.4
806.432	548.8
806.826	580.8
807.242	571.4
807.658	557.7
808.052	546.3
808.468	552.1
808.884	541.6
809.279	551.4
809.695	564.1
810.111	578.4
810.506	560.7
810.922	565.8
811.339	551.7
811.734	561.2
812.151	552.8
812.546	548.6
812.963	550.5
813.38	554.2
813.776	554.4
814.193	575
814.589	552.4
815.006	553.6
815.402	548.4
815.82	547.8
816.237	553
816.633	558.3
817.051	550.3
817.448	558.3
817.866	547.8
818.262	577.1
818.68	548.1
819.077	546.9
819.495	559.7
819.892	598
820.311	545.6
820.708	552
821.127	552.6
821.524	565.8
821.943	556.5
822.34	572.9
822.759	556.2
823.157	554.8
823.576	566.7
823.974	561.9
824.393	561.7
824.791	545.9
825.189	550.6
825.609	550.4
826.007	554.8
826.427	538.9
826.826	551.4
827.246	558.9
827.644	546.1
828.043	567.6
828.463	554.5
828.862	560.4
829.261	562.4
829.682	547
830.081	560
830.502	544.3
830.901	560.8
831.301	549.8
831.722	546.7
832.121	557.6
832.521	550.8
832.943	556.7
833.342	554.8
833.742	549.7
834.164	554.4
834.564	546
834.965	551.2
835.386	552.7
835.787	553.5
836.188	556.8
836.588	555.3
837.01	549.8
837.411	548.2
837.812	563.5
838.213	554.8
838.636	554.2
839.037	621.1
839.438	560.4
839.84	553.7
840.263	562.5
840.664	553
841.066	559.4
841.468	558.5
841.891	555.6
842.293	565.4
842.695	556.5
843.098	560.9
843.5	550.5
843.902	564.4
844.326	551.4
844.729	552.6
845.131	565.8
845.534	558.4
845.937	566.7
846.34	571.7
846.764	547
847.167	555
847.571	548.6
847.974	549.4
848.377	555.4
