#lambda/nm	C1
208.295	485.1
208.67	447
209.045	409.5
209.419	412
209.794	589.6
210.169	570.1
210.544	690.6
210.919	596.3
211.295	579.1
211.67	592.7
212.045	582.8
212.421	583.9
212.796	618.1
213.172	581
213.547	587.4
213.923	583
214.299	581.5
214.675	594.9
215.051	588.9
215.427	589.6
215.803	606.9
216.179	588.8
216.555	589.1
216.932	592.1
217.308	586.5
217.684	585
218.061	590.4
218.438	591.5
218.814	584.3
219.191	596.9
219.568	583.3
219.945	592.8
220.322	595.4
220.699	590.9
221.076	596.9
221.453	592.6
221.83	578.3
222.208	586
222.585	583.4
222.962	589.8
223.34	589.8
223.717	585.7
224.095	585.7
224.473	590.2
224.851	584.2
225.229	576.1
225.607	600.9
225.985	576.6
226.363	589.1
226.741	584.3
227.119	584
227.497	598.3
227.876	574.5
228.254	592
228.633	594.8
229.011	586.9
229.39	590.4
229.769	591.9
230.148	591.7
230.527	602.6
230.905	588.3
231.284	590.3
231.664	584.8
232.043	595.8
232.422	596.2
232.801	586.5
233.181	581.4
233.56	583.2
233.94	584.5
234.319	578.4
234.699	582.7
235.079	619.7
235.458	627.9
235.838	604.8
236.218	581.4
236.598	577.2
236.978	585.2
237.358	579.4
237.738	586.6
238.119	590.8
238.499	574
238.88	584.4
239.26	595.5
239.641	570.9
240.021	582.3
240.402	581
240.783	585.4
241.163	583.3
241.544	593.4
241.925	585.3
242.306	597
242.687	577.1
243.069	587.3
243.45	592.4
243.831	585.4
244.212	585.1
244.594	622.5
244.975	595.2
245.357	591.6
245.739	584.5
246.12	587.9
246.502	597.7
246.884	588.9
247.266	580.8
247.648	596.6
248.03	602.5
248.412	589.7
248.794	596.5
249.176	582.1
249.559	594
249.941	582.2
250.323	578.9
250.706	578.2
251.089	587.1
251.471	588.6
251.854	589.4
252.237	590.1
252.62	597.1
253.002	590
253.385	589.3
253.769	597.9
254.152	591.8
254.535	599.2
254.918	576.6
255.301	585.8
255.685	587.2
256.068	578.2
256.452	608.2
256.835	594
257.219	594.9
257.603	604.8
257.986	580
258.37	588.2
258.754	575.7
259.138	597.4
259.522	598.5
259.906	578.6
260.29	592.5
260.675	585.7
261.059	592.1
261.443	584.8
261.828	593.9
262.212	587.9
262.597	576.5
262.981	580.9
263.366	593
263.751	586.6
264.136	579.7
264.521	584.3
264.906	578.2
265.291	593.4
265.676	589.7
266.061	591.6
266.446	602.9
266.831	592.3
267.217	608
267.602	590.3
267.987	595.7
268.373	582.3
268.759	599.4
269.144	595.5
269.53	596.7
269.916	583.8
270.302	582
270.688	594.1
271.074	588.8
271.46	600.9
271.846	621.5
272.232	588.4
272.618	586.3
273.004	591.7
273.391	594
273.777	600.1
274.164	588.6
274.55	602.2
274.937	596.2
275.324	582.3
275.71	595.6
276.097	602.8
276.484	579.7
276.871	590.1
277.258	594.7
277.645	573.8
278.032	586.4
278.419	581.4
278.807	592
279.194	585
279.581	581.6
279.969	600.4
280.356	589.4
280.744	589.9
281.131	610
281.519	598.3
281.907	586.4
282.295	585.7
282.682	603.5
283.07	596.1
283.458	597.7
283.846	597.8
284.235	594.3
284.623	603.9
285.011	580.2
285.399	593.9
285.788	584.7
286.176	581.7
286.565	600.8
286.953	583.5
287.342	581.1
287.731	578.5
288.119	579.6
288.508	582.7
288.897	586.7
289.286	574.5
289.675	585.8
290.064	594.2
290.453	585
290.821	594.1
291.21	605.2
291.599	589.9
291.989	585.7
292.378	596.5
292.768	609.5
293.157	594.3
293.547	598.6
293.936	588.5
294.326	585.9
294.716	591.6
295.106	582.7
295.496	588.9
295.886	600.3
296.276	591.7
296.666	588.2
297.056	587.7
297.446	581.5
297.836	603.2
298.227	586.8
298.617	590.4
299.008	597.8
299.398	584
299.789	589.3
300.179	593.6
300.57	598.8
300.961	582.6
301.352	588.3
301.742	597.9
302.133	590.2
302.524	589
302.915	591.1
303.307	587.1
303.698	600
304.089	599.9
304.48	583.9
304.872	594.4
305.263	585.5
305.655	583.3
306.046	596.5
306.438	592.4
306.829	587
307.221	602
307.613	590.3
308.005	599.8
308.397	602.2
308.789	609.1
309.181	616.4
309.573	614.5
309.965	602
310.357	589.7
310.749	593.3
311.142	584.9
311.534	581
311.926	598.8
312.319	593.1
312.711	585
313.104	603.1
313.497	588.9
313.889	625
314.282	602.1
314.675	612.9
315.068	587
315.461	599.4
315.854	619.2
316.247	600.7
316.64	586.9
317.033	592.1
317.405	599.9
317.798	589
318.192	600.9
318.585	582.9
318.979	594.2
319.372	581.3
319.766	581.7
320.16	598
320.553	603.5
320.947	609.8
321.341	582.8
321.735	589.8
322.129	575.7
322.523	613.9
322.917	584.5
323.311	600.2
323.705	588.2
324.099	594.7
324.494	608
324.888	600.6
325.282	589.1
325.677	590.1
326.071	596
326.466	602.2
326.861	592.3
327.255	599
327.65	601.6
328.045	601.6
328.44	586.9
328.835	597.6
329.23	582
329.625	612.8
330.02	586.2
330.415	601.7
330.81	590.5
331.206	594.7
331.601	580
331.996	595.6
332.37	600.7
332.766	578
333.161	610.3
333.557	580.4
333.953	590.9
334.348	957.7
334.744	589.9
335.14	585.6
335.536	579.7
335.932	601.6
336.328	584.9
336.724	595.7
337.12	592
337.516	590.6
337.913	590.5
338.309	606.8
338.705	585.7
339.102	592.4
339.498	584.5
339.895	601
340.291	588.4
340.688	595.8
341.085	582.2
341.481	587.2
341.878	587.4
342.275	607.9
342.672	585
343.069	577.4
343.466	581.7
343.842	595.2
344.239	577.3
344.636	580.8
345.033	582.7
345.431	580.2
345.828	586.6
346.225	580.2
346.623	602.6
347.02	582.9
347.418	596.8
347.816	605.2
348.213	580.6
348.611	602.3
349.009	589
349.407	598.2
349.805	578.7
350.203	575.7
350.601	602.6
350.999	580.3
351.397	582.4
351.795	579
352.193	595.5
352.57	591.5
352.969	598.9
353.367	579.9
353.766	579.1
354.164	589.8
354.563	598.5
354.961	586.9
355.36	578.2
355.759	585.7
356.158	575.6
356.557	581.4
356.956	579.9
357.355	571.6
357.754	587.6
358.153	593.9
358.552	611.2
358.951	587.2
359.35	597.6
359.75	581.1
360.149	570.2
360.527	576.7
360.926	575.3
361.326	590.3
361.726	583.5
362.125	576.2
362.525	592.3
362.925	580.5
363.325	588.3
363.724	585.8
364.124	573.6
364.524	575.6
364.924	585.5
365.324	593
365.725	569.8
366.125	590
366.525	585.7
366.904	575.1
367.304	568.2
367.705	601.1
368.105	595.1
368.506	586.9
368.906	582.8
369.307	583.8
369.708	585
370.108	571.7
370.509	593.4
370.91	582.8
371.311	584.5
371.712	582.8
372.113	583.5
372.514	568.8
372.894	579.7
373.295	577.2
373.696	596.8
374.097	591.2
374.499	611.2
374.9	580.4
375.301	574.6
375.703	583.1
376.105	574.7
376.506	584
376.908	593.4
377.309	590.6
377.711	585.2
378.113	577.5
378.493	584.9
378.895	577.1
379.297	592.5
379.699	571.8
380.102	580.1
380.504	584.3
380.906	578.3
381.308	607.3
381.71	579.7
382.113	592.7
382.515	573.5
382.918	583.1
383.299	582.1
383.701	594.6
384.104	585.2
384.507	564.5
384.909	586.1
385.312	575.9
385.715	568.8
386.118	584.6
386.521	572.8
386.924	591.2
387.327	575.9
387.709	571.5
388.112	568.7
388.515	577.5
388.918	577.8
389.322	583.7
389.725	582.4
390.129	598.9
390.532	586
390.936	579.7
391.339	583.9
391.743	588.4
392.125	578.2
392.529	590.9
392.933	594.5
393.337	580.6
393.74	577.5
394.144	586
394.548	575.8
394.953	573.2
395.357	585.2
395.761	575.6
396.144	582
396.548	577.1
396.952	584.5
397.357	582
397.761	572.8
398.166	576.8
398.57	577.7
398.975	574.4
399.379	577.7
399.763	623.9
400.168	580.6
400.572	579.4
400.977	583.3
401.382	595.7
401.787	591.5
402.192	597.2
402.597	592.9
403.002	569.1
403.386	596.1
403.791	603.6
404.197	575.6
404.602	582.9
405.007	585.5
405.413	574.4
405.818	574.2
406.224	574.1
406.608	583.9
407.014	573.5
407.42	599.9
407.825	573.3
408.231	590.5
408.637	588.3
409.043	598.4
409.449	579.3
409.834	578.5
410.24	583.1
410.646	591.7
411.052	593.4
411.458	582.5
411.865	587.6
412.271	592.2
412.677	579.7
413.062	592.3
413.469	574.7
413.875	607.3
414.282	596.6
414.689	582.9
415.095	587.5
415.502	575.2
415.888	587.2
416.294	566.7
416.701	620.3
417.108	580.7
417.515	590.9
417.923	578.3
418.33	602.8
418.715	586.9
419.123	579.9
419.53	573.9
419.937	583.1
420.345	600.4
420.752	583.8
421.16	599.5
421.546	581.7
421.953	588.4
422.361	579.6
422.769	582.7
423.177	573.7
423.585	608.1
423.992	598.9
424.379	596
424.787	587.4
425.195	604.2
425.603	581.9
426.011	594.2
426.419	596.6
426.806	579.9
427.214	587.6
427.623	586.5
428.031	597
428.44	583.7
428.848	594.1
429.235	594.1
429.644	585.2
430.053	583.8
430.461	602.4
430.87	607.7
431.279	590.5
431.666	579.5
432.075	583.3
432.484	582.1
432.893	583
433.302	600.4
433.711	619.1
434.099	586.8
434.508	580.6
434.918	576
435.327	586.2
435.737	580.8
436.125	583.7
436.534	580.2
436.944	586.5
437.353	582.1
437.763	605.2
438.173	572.3
438.561	594
438.971	568.6
439.381	578.1
439.791	583.2
440.201	560
440.589	582.2
440.999	586.5
441.409	584.6
441.819	573.6
442.23	582
442.619	589.2
443.029	585.2
443.439	584.5
443.85	594.4
444.26	594
444.649	585
445.06	576.8
445.471	573.2
445.881	581
446.292	597.2
446.682	599.5
447.092	561.4
447.503	627.6
447.914	581.1
448.325	580.9
448.715	577.3
449.126	569.2
449.537	574.1
449.948	582
450.338	579.4
450.75	590.4
451.161	586.9
451.572	585.7
451.984	575.6
452.374	566.7
452.786	571.5
453.197	582
453.609	578.4
453.999	570.3
454.411	571
454.823	588.3
455.235	586
455.647	572
456.037	585.4
456.449	568
456.862	574
457.274	576.3
457.665	570.8
458.077	585.4
458.489	592.5
458.902	574.2
459.293	583.8
459.705	581.3
460.118	571.9
460.53	582.5
460.921	579
461.334	584.1
461.747	581.1
462.16	587.9
462.551	587.7
462.964	590.8
463.377	568.6
463.79	578.6
464.182	588.4
464.595	569.9
465.008	575.6
465.421	581.9
465.813	576.9
466.226	585.4
466.64	578.1
467.053	620.7
467.445	582.5
467.859	577.5
468.272	582.1
468.686	587.8
469.078	582.4
469.492	562.3
469.906	575.9
470.298	584.1
470.712	570.3
471.126	608.9
471.54	566.3
471.933	565.1
472.347	573.5
472.761	567.7
473.175	566.9
473.568	573.5
473.982	562.2
474.397	569.3
474.79	578.9
475.204	581.3
475.619	572.4
476.033	579.6
476.426	574.2
476.841	571.1
477.256	604.1
477.649	570.7
478.064	569.1
478.479	568.1
478.872	571.7
479.287	556.4
479.702	564.5
480.118	579
480.511	573.4
480.927	566
481.342	567.2
481.736	578.7
482.151	565.8
482.566	584.2
482.96	580.5
483.376	588
483.792	569.4
484.186	575.6
484.602	571.7
485.017	572.7
485.412	570.4
485.827	578.5
486.243	575.2
486.638	597.7
487.054	576.9
487.47	589.1
487.865	572.6
488.281	569.6
488.697	572.2
489.092	574.9
489.508	570.9
489.925	587.6
490.32	566.6
490.736	579.7
491.153	579.1
491.548	577
491.964	584.1
492.381	565.4
492.776	578.4
493.193	574.9
493.61	580.3
494.006	575.3
494.422	583.5
494.84	567.2
495.235	581
495.652	570.7
496.069	580.8
496.465	560.9
496.883	575.3
497.3	598.6
497.696	573.9
498.113	571.7
498.509	562.3
498.927	565.6
499.344	568.8
499.741	567.3
500.158	587.7
500.576	581.5
500.973	577.2
501.39	566.3
501.787	563.2
502.205	575.5
502.623	562.8
503.02	566.5
503.438	568.9
503.856	574.7
504.253	571.7
504.671	576.3
505.068	569.9
505.486	573.2
505.905	589.3
506.302	573
506.72	579.5
507.118	569.2
507.536	570.2
507.955	570
508.352	569.2
508.771	576.7
509.169	581.1
509.587	566.1
510.006	572.1
510.404	562.7
510.823	565.7
511.221	568.5
511.64	570.4
512.038	579.5
512.457	571
512.877	568.2
513.275	568.4
513.694	562.2
514.092	567.2
514.512	574.5
514.91	571.9
515.33	572.3
515.749	573.5
516.148	570.4
516.568	572
516.966	565.6
517.386	566.8
517.785	570.2
518.205	565.7
518.603	568.7
519.024	566.9
519.444	565.6
519.843	576.2
520.263	573.8
520.662	570
521.082	568.1
521.481	574.8
521.902	570.4
522.301	576.6
522.722	567.5
523.121	569.7
523.542	567.7
523.963	565.7
524.362	568.8
524.783	570.9
525.183	570.6
525.604	571.2
526.003	562.6
526.425	562.2
526.824	574.6
527.246	574.3
527.646	578.4
528.067	569.7
528.467	568.1
528.888	572.1
529.289	569.2
529.71	573.8
530.11	564.7
530.532	570.9
530.932	558.8
531.354	557.5
531.755	599.6
532.176	571.7
532.577	565.3
532.999	571.2
533.4	562.9
533.822	571.9
534.223	572
534.645	565.9
535.046	576.1
535.468	568.4
535.869	588
536.292	567
536.693	573.1
537.115	568
537.516	570.8
537.939	563.4
538.34	589.1
538.742	580.7
539.165	574.4
539.566	571.8
539.989	564.4
540.391	563.5
540.814	573.4
541.216	576.3
541.639	572.6
542.041	578.4
542.464	566.5
542.866	564.7
543.268	560.5
543.691	574.2
544.093	576.3
544.517	585.3
544.919	558.2
545.343	588.3
545.745	557.7
546.147	572.3
546.571	569.2
546.974	557
547.398	569.2
547.8	580.7
548.224	563.9
548.627	562.2
549.03	574.8
549.454	563.3
549.857	556.7
550.281	564.2
550.684	567
551.087	574.8
551.512	573.6
551.915	577.7
552.34	565
552.743	562.4
553.146	569.6
553.571	566
553.975	582.5
554.399	560.7
554.803	614.7
555.207	566.6
555.632	565.2
556.036	564.2
556.461	562.8
556.865	568.5
557.268	553.5
557.694	568.7
558.098	570.7
558.502	571.7
558.927	563.4
559.332	566.3
559.736	565.9
560.162	576.3
560.566	564.5
560.992	574
561.396	569.9
561.801	566.4
562.227	575.2
562.631	564.7
563.036	566.9
563.462	575.7
563.867	567.8
564.272	563.8
564.698	573.2
565.103	560.9
565.508	579
565.935	565.5
566.34	570.8
566.745	578.7
567.172	560.8
567.577	593.5
567.982	583.5
568.409	573.9
568.815	564.2
569.22	572.8
569.626	572.4
570.053	555.6
570.459	573.1
570.865	568.3
571.292	572.4
571.698	573
572.104	553.1
572.531	561.7
572.937	570.3
573.343	563.8
573.75	565.5
574.177	572
574.583	573.6
574.99	566.3
575.396	572.8
575.824	564.2
576.231	570.7
576.637	565.1
577.065	586.7
577.472	563.1
577.879	565
578.286	580.7
578.714	561.4
579.121	561.8
579.528	567.8
579.935	575.9
580.364	558.1
580.771	556.2
581.178	561.1
581.585	567.8
582.014	573.9
582.421	565.3
582.829	561.3
583.236	575.6
583.644	560.9
584.073	562
584.481	565.1
584.889	565.1
585.296	562.4
585.726	563.3
586.134	561.5
586.542	563.6
586.95	582.2
587.358	554.5
587.787	568.7
588.196	556.7
588.604	562.9
589.012	563.9
589.421	553.9
589.851	555.5
590.259	568.7
590.668	560.7
591.076	598.1
591.485	559.1
591.894	558.4
592.324	578.6
592.733	579.9
593.142	554.6
593.551	564.2
593.96	572.5
594.369	558.1
594.8	558.9
595.209	566.5
595.618	551.3
596.028	557.9
596.437	564.9
596.847	562.2
597.256	567.7
597.687	568.8
598.097	563.9
598.507	561.9
598.917	564.4
599.327	567.6
599.736	567.7
600.146	576.4
600.556	568.3
600.988	578.3
601.398	561.6
601.808	572.4
602.219	557.1
602.629	562.7
603.039	569.3
603.45	592.1
603.86	566.5
604.271	574.2
604.703	566.1
605.114	565.3
605.525	569.9
605.935	570.5
606.346	582.8
606.757	572.5
607.168	562.2
607.579	556.1
607.99	567.8
608.402	569.7
608.813	569.2
609.224	565
609.636	558.7
610.047	557.5
610.48	563.8
610.892	571.4
611.303	567.3
611.715	563.6
612.127	554.9
612.539	565.1
612.95	563.7
613.362	551.7
613.774	558.1
614.186	559.8
614.599	559.1
615.011	572.4
615.423	553.2
615.835	558.9
616.248	552
616.66	570.2
617.073	553.2
617.485	556.7
617.898	572.5
618.311	564.8
618.723	559.1
619.136	590.4
619.549	573.6
619.962	576.9
620.375	560.9
620.788	562.1
621.201	555.2
621.614	570.2
622.028	559
622.441	565.9
622.854	574.6
623.268	561.3
623.681	561.4
624.095	560.4
624.509	575.5
624.922	570.7
625.336	553.5
625.728	564.6
626.142	575.1
626.556	581.6
626.97	570.1
627.384	559.8
627.799	563.5
628.213	576.3
628.627	560.1
629.041	559.1
629.456	564.7
629.87	565.3
630.285	574.5
630.699	579.3
631.093	563.7
631.507	568.5
631.922	565.3
632.337	573.3
632.752	556.6
633.167	563
633.582	561.4
633.997	560.3
634.412	563.8
634.806	564.7
635.221	555.2
635.637	572.6
636.052	558.9
636.468	567.9
636.883	581.5
637.299	568.6
637.715	550.2
638.109	559.4
638.525	548.4
638.941	570.6
639.357	567.4
639.773	575.7
640.189	559
640.584	560
641	569.8
641.416	552.1
641.832	555.9
642.249	554.8
642.665	562.2
643.06	565.6
643.477	566.1
643.894	549.2
644.31	553.5
644.727	561
645.123	561.9
645.54	554.3
645.957	564.6
646.374	568.5
646.77	563.5
647.187	596.3
647.604	563
648.021	556.5
648.439	560
648.835	561.3
649.252	564
649.67	555.2
650.088	568.5
650.484	559.8
650.902	574.3
651.32	574.7
651.738	562.7
652.134	571.5
652.552	580
652.971	570.1
653.389	563.8
653.786	578.4
654.204	563
654.622	557.6
655.019	567.6
655.438	566.9
655.857	564.9
656.275	572.3
656.673	555.1
657.091	631.1
657.51	563.1
657.908	572.8
658.327	579.7
658.746	555.3
659.144	562.6
659.563	574.1
659.982	567.9
660.38	554.9
660.8	560.1
661.219	573.1
661.617	570
662.037	558.2
662.457	574.8
662.855	552.2
663.275	597.4
663.695	561.3
664.094	566.9
664.514	564.2
664.934	556.8
665.333	565.6
665.753	554.2
666.152	551.6
666.572	553.9
666.993	571
667.392	552.7
667.812	563.2
668.212	561
668.632	571.5
669.053	560
669.453	565.6
669.874	562.4
670.273	559.5
670.694	557.9
671.116	572.3
671.515	563.4
671.937	556.5
672.337	555
672.758	553.6
673.158	575.2
673.58	556.6
673.98	565.4
674.402	578.4
674.824	559.8
675.224	558.9
675.646	550.8
676.047	554.7
676.469	556.3
676.869	571.9
677.292	565.5
677.693	553.8
678.115	559
678.516	568.2
678.939	569.1
679.34	555.5
679.762	575.3
680.164	565.6
680.586	559
680.988	566.4
681.411	588.1
681.812	558
682.236	551.6
682.637	560.2
683.061	554.2
683.462	564.9
683.864	564.3
684.288	568.3
684.69	557.2
685.114	574
685.516	566.2
685.94	555.4
686.342	567.2
686.766	557.2
687.168	555.2
687.571	580.5
687.995	557.7
688.398	551.7
688.822	562.2
689.225	577.2
689.628	584.2
690.052	565.8
690.456	568
690.88	561.3
691.284	551.5
691.687	566.5
692.112	553.2
692.515	554.8
692.919	557.3
693.344	563.5
693.747	558.4
694.173	555.8
694.577	575.6
694.98	560.6
695.406	560.4
695.81	564.6
696.214	567.5
696.64	563.6
697.044	567
697.448	567.5
697.874	560.1
698.279	562.3
698.684	544.1
699.11	554.1
699.514	559.5
699.919	556.4
700.324	547.4
700.75	559.4
701.156	560.4
701.561	573.1
701.987	567.9
702.393	571.4
702.798	564.5
703.203	559.7
703.63	550.8
704.036	558.5
704.442	557
704.847	551.6
705.274	562.5
705.68	565.2
706.086	567.8
706.492	550.4
706.92	557.2
707.326	571.1
707.732	558.3
708.139	558.8
708.545	547.8
708.973	557.1
709.38	556.3
709.786	551
710.193	579.5
710.6	560.8
711.028	553.4
711.435	557.4
711.842	565
712.249	555
712.656	557.7
713.064	565.1
713.492	555.3
713.9	555.1
714.307	561.3
714.715	557.6
715.123	562.6
715.53	555.7
715.938	568.4
716.367	557.5
716.775	554.7
717.184	543.2
717.592	551.9
718	567.4
718.408	591.3
718.816	593.4
719.225	556
719.633	556
720.042	547.6
720.472	552.6
720.881	578.8
721.29	563.3
721.699	556.2
722.108	558.9
722.517	556.9
722.926	554.2
723.335	566.7
723.744	558.1
724.154	559.8
724.563	568.3
724.973	558.9
725.382	559.2
725.792	559.8
726.202	553.5
726.612	567.5
727.022	555.8
727.432	558.4
779.813	552.2
780.223	598.8
780.634	558.5
781.044	557.7
781.454	562.5
781.865	573.7
782.276	548.2
782.686	565.7
783.097	561.4
783.508	554.8
783.919	561.9
784.33	572.4
784.741	569.8
785.152	554.5
785.563	545.1
785.974	547.9
786.386	567.5
786.776	550.5
787.188	554.6
787.599	553.5
788.011	564.4
788.423	562.8
788.835	557.7
789.247	551.7
789.659	548.4
790.071	554.1
790.483	591.3
790.874	553.5
791.286	564.6
791.699	557.2
792.111	560.6
792.524	563.2
792.937	557.7
793.349	552
793.741	552
794.154	557.4
794.567	571.9
794.98	557.4
795.393	547.5
795.785	568.3
796.198	553.3
796.612	556.9
797.026	554.5
797.439	547.5
797.831	550.5
798.245	539.7
798.659	553.8
799.073	554.5
799.487	552
799.88	555.9
800.294	558.1
800.708	558.9
801.123	561.7
801.516	578.2
801.93	546.5
802.345	544.6
802.76	563
803.153	568.2
803.568	573.8
803.983	567.4
804.377	563.5
804.792	553.4
805.207	546.1
805.601	560.7
806.016	587.3
806.432	554.3
806.826	588.8
807.242	573.7
807.658	562.1
808.052	557.5
808.468	554
808.884	561.9
809.279	559.6
809.695	567.6
810.111	575.5
810.506	561.1
810.922	566.5
811.339	552.8
811.734	569
812.151	550.8
812.546	555.8
812.963	561.8
813.38	560.7
813.776	557.5
814.193	581.6
814.589	551.1
815.006	549.6
815.402	547.2
815.82	552.9
816.237	557.8
816.633	562.2
817.051	549
817.448	560.6
817.866	541.5
818.262	572.3
818.68	553.9
819.077	551
819.495	558.8
819.892	595.8
820.311	556.7
820.708	551.1
821.127	556.3
821.524	565.8
821.943	563.5
822.34	577.7
822.759	561.1
823.157	556.8
823.576	567.7
823.974	565.4
824.393	568.5
824.791	551.9
825.189	552.4
825.609	553.4
826.007	559.3
826.427	551.2
826.826	555.6
827.246	564
827.644	543.3
828.043	566.2
828.463	552
828.862	564.2
829.261	563.8
829.682	547.8
830.081	562.3
830.502	555
830.901	561.8
831.301	553.6
831.722	548.6
832.121	554.7
832.521	547.6
832.943	558.7
833.342	554.7
833.742	551.5
834.164	553.8
834.564	548.1
834.965	558.6
835.386	551.5
835.787	551.8
836.188	558.7
836.588	554.5
837.01	556.1
837.411	547
837.812	568.6
838.213	557.9
838.636	549.8
839.037	622.2
839.438	557.1
839.84	556.9
840.263	564.3
840.664	556.9
841.066	553
841.468	557.4
841.891	547.1
842.293	562.8
842.695	559.4
843.098	564.4
843.5	554.5
843.902	560.9
844.326	561.5
844.729	560.1
845.131	567.5
845.534	549.6
845.937	561.2
846.34	574.7
846.764	552.5
847.167	561.2
847.571	547
