#lambda/nm	C1
208.295	479.9
208.67	442.6
209.045	406.5
209.419	410.2
209.794	577.8
210.169	558.2
210.544	670.6
210.919	579.3
211.295	565.4
211.67	575.5
212.045	571.9
212.421	570.9
212.796	603.7
213.172	569.2
213.547	569.5
213.923	568
214.299	565.7
214.675	580
215.051	576.2
215.427	574.7
215.803	586.3
216.179	572.4
216.555	564.2
216.932	574.9
217.308	568.6
217.684	568.7
218.061	577.1
218.438	571.3
218.814	559
219.191	581.5
219.568	566.6
219.945	569.2
220.322	579.7
220.699	571.8
221.076	580.1
221.453	572.4
221.83	567.6
222.208	570.4
222.585	573
222.962	571
223.34	575.3
223.717	573.4
224.095	568.8
224.473	568.8
224.851	565
225.229	567.6
225.607	587
225.985	561.1
226.363	572.6
226.741	572.4
227.119	568.4
227.497	585.3
227.876	557.5
228.254	579.3
228.633	579.3
229.011	568.2
229.39	574.2
229.769	572.5
230.148	584.9
230.527	591
230.905	572.4
231.284	577.4
231.664	564.9
232.043	584.9
232.422	583.9
232.801	568.5
233.181	572.7
233.56	572.4
233.94	572.1
234.319	563.4
234.699	571.2
235.079	615.2
235.458	610.4
235.838	587.3
236.218	561.9
236.598	563.6
236.978	572.1
237.358	567.8
237.738	565.9
238.119	583.6
238.499	565
238.88	571.6
239.26	587.8
239.641	559.1
240.021	567.5
240.402	569.8
240.783	574.5
241.163	568.4
241.544	575.5
241.925	570.2
242.306	584.2
242.687	565.7
243.069	573.4
243.45	577.9
243.831	571.4
244.212	568.9
244.594	607.2
244.975	576
245.357	571.8
245.739	568.5
246.12	573.4
246.502	582.4
246.884	567.9
247.266	571.7
247.648	576.5
248.03	591.5
248.412	577.9
248.794	573.6
249.176	568.7
249.559	582.9
249.941	571.5
250.323	564.4
250.706	562.1
251.089	570.4
251.471	575.2
251.854	567.6
252.237	567.9
252.62	583.5
253.002	574.2
253.385	571.1
253.769	582.7
254.152	567.1
254.535	578.1
254.918	569.7
255.301	570.7
255.685	566.7
256.068	559.2
256.452	592.3
256.835	575.8
257.219	579.1
257.603	580.4
257.986	563
258.37	567.4
258.754	557.6
259.138	581.7
259.522	577.4
259.906	564
260.29	577.5
260.675	567.4
261.059	578
261.443	559.9
261.828	579.4
262.212	575.3
262.597	558.6
262.981	565.3
263.366	579.4
263.751	577.4
264.136	569.7
264.521	566.7
264.906	568.2
265.291	578
265.676	574
266.061	578.6
266.446	592.1
266.831	571.4
267.217	595.5
267.602	576.1
267.987	571.5
268.373	575.6
268.759	580.4
269.144	582.5
269.53	572.8
269.916	565.7
270.302	570.5
270.688	579.3
271.074	574
271.46	583.6
271.846	606.5
272.232	571.2
272.618	568.7
273.004	569
273.391	577.9
273.777	588.9
274.164	574.5
274.55	586.1
274.937	578.4
275.324	565
275.71	581.7
276.097	580.3
276.484	567.1
276.871	576.4
277.258	575
277.645	568.8
278.032	574.7
278.419	569.4
278.807	576.5
279.194	566.2
279.581	565.9
279.969	579.2
280.356	577.5
280.744	574.9
281.131	599.8
281.519	584.3
281.907	576
282.295	573.8
282.682	587.6
283.07	578.7
283.458	580.1
283.846	581
284.235	585.5
284.623	581.3
285.011	563.8
285.399	578.8
285.788	571
286.176	563.6
286.565	586.3
286.953	566.5
287.342	564.8
287.731	571.1
288.119	566.2
288.508	570.4
288.897	572.8
289.286	562.4
289.675	574.9
290.064	583.6
290.453	568.9
290.821	576
291.21	589.9
291.599	567.2
291.989	574.7
292.378	582.4
292.768	590.4
293.157	576.5
293.547	577.8
293.936	572.8
294.326	566.3
294.716	579.7
295.106	572.9
295.496	585.4
295.886	583.8
296.276	567.9
296.666	565
297.056	565.7
297.446	557.6
297.836	588.7
298.227	573.6
298.617	572.5
299.008	584.7
299.398	569
299.789	567.4
300.179	583.4
300.57	587.1
300.961	570.9
301.352	568.4
301.742	579.1
302.133	574.1
302.524	567.2
302.915	573.8
303.307	565.2
303.698	579.3
304.089	576.1
304.48	568.9
304.872	578.7
305.263	570.9
305.655	570.9
306.046	580.2
306.438	573.4
306.829	565.3
307.221	586.7
307.613	579.3
308.005	582
308.397	586.6
308.789	602.6
309.181	597.5
309.573	594.8
309.965	586.7
310.357	571.8
310.749	572.1
311.142	563.6
311.534	566.9
311.926	578.4
312.319	575.2
312.711	569.1
313.104	581.8
313.497	573.2
313.889	609
314.282	586.2
314.675	597.9
315.068	576.4
315.461	579.3
315.854	600
316.247	578.3
316.64	571.5
317.033	575.9
317.405	579.6
317.798	568.6
318.192	581.3
318.585	568.3
318.979	585.4
319.372	570.1
319.766	575.1
320.16	582.4
320.553	589.8
320.947	591.7
321.341	574
321.735	573.2
322.129	564.6
322.523	595.5
322.917	566.1
323.311	580.3
323.705	579
324.099	577.6
324.494	590.6
324.888	578.1
325.282	572.3
325.677	583.4
326.071	581
326.466	582.3
326.861	578.7
327.255	587.7
327.65	584.5
328.045	592.2
328.44	582.7
328.835	575.4
329.23	568.5
329.625	598.2
330.02	566.9
330.415	595.7
330.81	576.3
331.206	575.7
331.601	572
331.996	582.4
332.37	587.1
332.766	566.6
333.161	592.8
333.557	567
333.953	571.5
334.348	929.3
334.744	571.8
335.14	569.4
335.536	573.3
335.932	586.6
336.328	569
336.724	579.3
337.12	573.8
337.516	577.3
337.913	571.8
338.309	582.1
338.705	571.3
339.102	584.6
339.498	574.3
339.895	586.1
340.291	567.4
340.688	584.1
341.085	564.5
341.481	567.2
341.878	572
342.275	587.4
342.672	562.9
343.069	566.1
343.466	560.7
343.842	586.4
344.239	567.1
344.636	571.8
345.033	573.3
345.431	560.2
345.828	580.6
346.225	568.6
346.623	581.1
347.02	573.5
347.418	580.5
347.816	587.9
348.213	565.7
348.611	576.6
349.009	569.6
349.407	580
349.805	561
350.203	561.7
350.601	580
350.999	565.7
351.397	557.5
351.795	569.1
352.193	574.4
352.57	579
352.969	580.4
353.367	558
353.766	563.1
354.164	565.4
354.563	575.9
354.961	572.2
355.36	563.5
355.759	570
356.158	559.9
356.557	563.6
356.956	557.7
357.355	560.2
357.754	576.3
358.153	570.6
358.552	589.4
358.951	571.9
359.35	580.4
359.75	562.6
360.149	563.6
360.527	556.2
360.926	562.6
361.326	571.8
361.726	565.6
362.125	566
362.525	577.3
362.925	568.9
363.325	567.9
363.724	571.2
364.124	567.5
364.524	559.6
364.924	565.6
365.324	580.1
365.725	558.7
366.125	572.9
366.525	567.9
366.904	559.1
367.304	554.5
367.705	588.6
368.105	574.9
368.506	561.9
368.906	568.4
369.307	567.9
369.708	573.8
370.108	558.1
370.509	576.1
370.91	568.9
371.311	571.5
371.712	567.7
372.113	568.9
372.514	556.1
372.894	567.9
373.295	560.4
373.696	579.7
374.097	575.5
374.499	592.5
374.9	568.2
375.301	561.9
375.703	573.2
376.105	559.4
376.506	570.7
376.908	571
377.309	572.6
377.711	570.8
378.113	563
378.493	571.2
378.895	563.8
379.297	575.4
379.699	558.8
380.102	575.1
380.504	568.9
380.906	558.4
381.308	588.9
381.71	567.5
382.113	575.2
382.515	571.3
382.918	573
383.299	564.3
383.701	576.3
384.104	567.3
384.507	554.2
384.909	562.7
385.312	561.3
385.715	557.3
386.118	560.5
386.521	558.4
386.924	575.7
387.327	559.6
387.709	550.9
388.112	553.9
388.515	561.8
388.918	566.9
389.322	566.1
389.725	560.1
390.129	581.6
390.532	571.8
390.936	566.5
391.339	555
391.743	567.8
392.125	560
392.529	567.6
392.933	575.9
393.337	563.2
393.74	560.5
394.144	562.2
394.548	556.1
394.953	561.1
395.357	567.5
395.761	560.4
396.144	563
396.548	565.3
396.952	561.5
397.357	567.3
397.761	563.8
398.166	565.7
398.57	563.8
398.975	563
399.379	568
399.763	606.5
400.168	567
400.572	565.6
400.977	563.1
401.382	587.6
401.787	577.1
402.192	579.7
402.597	582.7
403.002	553.5
403.386	582.6
403.791	583.4
404.197	563.4
404.602	566.6
405.007	568.4
405.413	565.9
405.818	561.9
406.224	569.2
406.608	563
407.014	560.3
407.42	578.4
407.825	558.4
408.231	574.1
408.637	564.5
409.043	579.8
409.449	561.4
409.834	556.9
410.24	573.4
410.646	577.1
411.052	577.4
411.458	569
411.865	576.3
412.271	572.2
412.677	566.1
413.062	567.8
413.469	558.6
413.875	593.5
414.282	581.4
414.689	571.4
415.095	572.4
415.502	563.5
415.888	563.4
416.294	553.7
416.701	603.1
417.108	557.5
417.515	576.7
417.923	566.4
418.33	586.2
418.715	571.6
419.123	560.7
419.53	565
419.937	568.2
420.345	578.7
420.752	563.5
421.16	578.3
421.546	570.2
421.953	573.5
422.361	556.4
422.769	561.1
423.177	561.1
423.585	590.7
423.992	590.1
424.379	580.8
424.787	581.7
425.195	587.9
425.603	567.8
426.011	582.1
426.419	580.4
426.806	573
427.214	576.6
427.623	574.6
428.031	578.4
428.44	571.2
428.848	578.6
429.235	576.8
429.644	569.1
430.053	563.5
430.461	584.6
430.87	593
431.279	575.9
431.666	566.6
432.075	574.4
432.484	573.8
432.893	570.8
433.302	587.6
433.711	606.5
434.099	573.8
434.508	566.6
434.918	562
435.327	575.6
435.737	568.3
436.125	568.9
436.534	566.9
436.944	572.2
437.353	567.6
437.763	579.8
438.173	557.4
438.561	582.3
438.971	553.9
439.381	563.8
439.791	566.6
440.201	553.7
440.589	566.9
440.999	571.7
441.409	569.1
441.819	550
442.23	573.5
442.619	572.3
443.029	565.2
443.439	569.5
443.85	575.9
444.26	580.9
444.649	574.6
445.06	562.7
445.471	562.6
445.881	567.5
446.292	572.6
446.682	584.5
447.092	545
447.503	609.5
447.914	562.9
448.325	559.5
448.715	564.8
449.126	556.7
449.537	568.5
449.948	568.1
450.338	560.4
450.75	567.8
451.161	564.5
451.572	564.4
451.984	563.2
452.374	549.9
452.786	559.2
453.197	563.3
453.609	570.8
453.999	556.5
454.411	560.5
454.823	575.7
455.235	565.2
455.647	554.3
456.037	564.8
456.449	548.7
456.862	566.6
457.274	564
457.665	556.6
458.077	571.2
458.489	574.6
458.902	561.9
459.293	564.4
459.705	565
460.118	558.8
460.53	566.9
460.921	563
461.334	565.7
461.747	567
462.16	573.3
462.551	570.5
462.964	566.8
463.377	547.6
463.79	560.7
464.182	571.8
464.595	553.3
465.008	569.1
465.421	568.8
465.813	556.1
466.226	567.2
466.64	560.1
467.053	603.2
467.445	575.7
467.859	566.7
468.272	570.1
468.686	575.3
469.078	562.9
469.492	546.3
469.906	567.3
470.298	564.7
470.712	559.2
471.126	585.2
471.54	551.5
471.933	561
472.347	562.8
472.761	554.6
473.175	554
473.568	557.7
473.982	550.9
474.397	560.4
474.79	560.9
475.204	564.2
475.619	558.6
476.033	565.7
476.426	563.5
476.841	552.6
477.256	576.1
477.649	557.8
478.064	555.5
478.479	553.2
478.872	558.2
479.287	545.3
479.702	551.9
480.118	557.5
480.511	563.7
480.927	549.5
481.342	555.1
481.736	564.2
482.151	549.4
482.566	567.7
482.96	557.3
483.376	567.3
483.792	552.3
484.186	564.8
484.602	555.6
485.017	557.1
485.412	558
485.827	559.2
486.243	553.6
486.638	578.4
487.054	565.7
487.47	570.4
487.865	547.7
488.281	551.6
488.697	548.1
489.092	555.7
489.508	548.2
489.925	564.3
490.32	552.2
490.736	562.4
491.153	554.3
491.548	558.4
491.964	569.6
492.381	547.4
492.776	557.3
493.193	557.5
493.61	563.6
494.006	555.5
494.422	563.3
494.84	549.8
495.235	572.2
495.652	559.9
496.069	559.9
496.465	548.4
496.883	553.9
497.3	581.7
497.696	560.1
498.113	563.1
498.509	540.9
498.927	544.7
499.344	551.5
499.741	549.4
500.158	564.9
500.576	565.7
500.973	552.9
501.39	549.8
501.787	546.3
502.205	559.3
502.623	548.7
503.02	549
503.438	554.3
503.856	550.4
504.253	559
504.671	560.2
505.068	550.6
505.486	551.4
505.905	574.9
506.302	562.4
506.72	566
507.118	552.4
507.536	554.5
507.955	552.2
508.352	557.7
508.771	559.3
509.169	558.8
509.587	550.6
510.006	561.7
510.404	543
510.823	543.7
511.221	548.3
511.64	550.3
512.038	569.6
512.457	552.1
512.877	554.1
513.275	551
513.694	554.2
514.092	556.1
514.512	551.9
514.91	552.7
515.33	556.5
515.749	556.2
516.148	561.9
516.568	555.1
516.966	554.4
517.386	547.3
517.785	549.8
518.205	549
518.603	550.1
519.024	557.2
519.444	555.4
519.843	563.7
520.263	563.6
520.662	563.8
521.082	552.8
521.481	558.1
521.902	554.7
522.301	563.7
522.722	560.3
523.121	549.6
523.542	550.7
523.963	555.5
524.362	559.2
524.783	550.7
525.183	555.6
525.604	557.2
526.003	545.5
526.425	551.2
526.824	556.9
527.246	559.7
527.646	555.1
528.067	555.3
528.467	554.4
528.888	557.2
529.289	553.7
529.71	556.4
530.11	551.9
530.532	547.8
530.932	538.2
531.354	541.1
531.755	583.1
532.176	560.9
532.577	553.8
532.999	557.9
533.4	550
533.822	565.3
534.223	555.3
534.645	554.4
535.046	549.6
535.468	560.1
535.869	561.6
536.292	554
536.693	551.1
537.115	555.8
537.516	555.6
537.939	556.3
538.34	569.3
538.742	563.8
539.165	558.7
539.566	546.6
539.989	549.1
540.391	551.1
540.814	550.9
541.216	556.5
541.639	548.6
542.041	558.7
542.464	545.3
542.866	544.5
543.268	541.8
543.691	556
544.093	557.7
544.517	572.6
544.919	535.5
545.343	569
545.745	543.2
546.147	554.5
546.571	547
546.974	543.3
547.398	554.4
547.8	562.4
548.224	549.8
548.627	541.6
549.03	559.2
549.454	544.3
549.857	548.6
550.281	546.1
550.684	544.2
551.087	562.8
551.512	561.4
551.915	554.8
552.34	549.7
552.743	557.8
553.146	562.8
553.571	548.8
553.975	570.2
554.399	541.5
554.803	595.4
555.207	555.2
555.632	545.9
556.036	553.3
556.461	545.9
556.865	554.3
557.268	552.1
557.694	552
558.098	557.3
558.502	555.8
558.927	550
559.332	552.3
559.736	551.2
560.162	555.5
560.566	547.9
560.992	560.8
561.396	556.7
561.801	550.7
562.227	549.6
562.631	554.1
563.036	551.6
563.462	564
563.867	560.1
564.272	543.9
564.698	556.3
565.103	540.5
565.508	572.1
565.935	549.9
566.34	552.1
566.745	560.4
567.172	551.8
567.577	574.2
567.982	561.2
568.409	555.7
568.815	546.4
569.22	553.3
569.626	562
570.053	538.3
570.459	552.8
570.865	555.7
571.292	562.6
571.698	558
572.104	540.1
572.531	549.3
572.937	553
573.343	551.6
573.75	550.4
574.177	554.1
574.583	556.7
574.99	549.7
575.396	557.1
575.824	548.6
576.231	554.5
576.637	546.4
577.065	576.1
577.472	545.2
577.879	552.1
578.286	564.8
578.714	540
579.121	551
579.528	556.4
579.935	560.4
580.364	553.3
580.771	542.5
581.178	543.4
581.585	551.6
582.014	556.8
582.421	541.2
582.829	542.1
583.236	553.7
583.644	537.7
584.073	544.9
584.481	546.8
584.889	542.2
585.296	553.2
585.726	549.7
586.134	545.3
586.542	541.4
586.95	563.6
587.358	543.9
587.787	548.4
588.196	537.6
588.604	544.2
589.012	550.7
589.421	537.4
589.851	541.4
590.259	548.7
590.668	542.4
591.076	580.2
591.485	544.3
591.894	548.4
592.324	561
592.733	563.8
593.142	534
593.551	544.6
593.96	555.3
594.369	538.1
594.8	543.9
595.209	544.7
595.618	539.8
596.028	544.6
596.437	542.2
596.847	550.4
597.256	552.6
597.687	551.1
598.097	547.6
598.507	542.5
598.917	553.1
599.327	548.4
599.736	552.1
600.146	559.5
600.556	551.5
600.988	562.1
601.398	551.4
601.808	560
602.219	536
602.629	547.2
603.039	553.5
603.45	573.1
603.86	549.6
604.271	566.3
604.703	549.1
605.114	551.1
605.525	554.6
605.935	555.5
606.346	570.1
606.757	559.1
607.168	549
607.579	538.5
607.99	553.4
608.402	547.7
608.813	553.1
609.224	543.7
609.636	542.8
610.047	542.8
610.48	554.1
610.892	551.9
611.303	562
611.715	547.5
612.127	539.2
612.539	544.6
612.95	550.5
613.362	535.7
613.774	547.8
614.186	549
614.599	547
615.011	556.8
615.423	545.1
615.835	544.6
616.248	535.8
616.66	556
617.073	542.6
617.485	546.6
617.898	558.8
618.311	549.7
618.723	542.5
619.136	571.3
619.549	568.5
619.962	562
620.375	547.2
620.788	550.7
621.201	544.4
621.614	555.3
622.028	545.9
622.441	549.3
622.854	557.2
623.268	540.4
623.681	545.2
624.095	555.8
624.509	558.5
624.922	554.7
625.336	539.1
625.728	550.2
626.142	559.2
626.556	560.1
626.97	551.2
627.384	541.6
627.799	543.3
628.213	556.6
628.627	547
629.041	542.1
629.456	545.3
629.87	543.4
630.285	553.6
630.699	555.9
631.093	547.4
631.507	548.9
631.922	554.1
632.337	558.1
632.752	544.2
633.167	548.7
633.582	544.2
633.997	546.8
634.412	540.1
634.806	546.9
635.221	542.3
635.637	560.5
636.052	539.1
636.468	546.6
636.883	563.6
637.299	544.5
637.715	532.3
638.109	544.2
638.525	539.7
638.941	560.4
639.357	547.1
639.773	555.9
640.189	539.1
640.584	545.5
641	543.4
641.416	534.5
641.832	545.4
642.249	540.8
642.665	544.1
643.06	548.6
643.477	560.8
643.894	532.7
644.31	550.2
644.727	547.1
645.123	548.8
645.54	542.3
645.957	548
646.374	557.3
646.77	550.2
647.187	579.3
647.604	552.2
648.021	537.7
648.439	538.5
648.835	545.5
649.252	546.8
649.67	546.1
650.088	548.2
650.484	546.7
650.902	555.6
651.32	558.3
651.738	549.8
652.134	551.3
652.552	567.8
652.971	556.9
653.389	544.8
653.786	558.1
654.204	544.6
654.622	543.9
655.019	547.2
655.438	549.8
655.857	550.3
656.275	552.6
656.673	539.8
657.091	605.6
657.51	540.7
657.908	554.2
658.327	561.2
658.746	542.9
659.144	550.9
659.563	555.1
659.982	547.2
660.38	536.3
660.8	548.2
661.219	556.1
661.617	547.5
662.037	547.6
662.457	558.5
662.855	534.7
663.275	576.1
663.695	548.9
664.094	545.4
664.514	550.8
664.934	540.4
665.333	557
665.753	544
666.152	539.4
666.572	544.6
666.993	562.1
667.392	543
667.812	549.4
668.212	542.3
668.632	555.2
669.053	550.4
669.453	554
669.874	552.3
670.273	549.2
670.694	546.9
671.116	556.2
671.515	553
671.937	545
672.337	545.2
672.758	538.1
673.158	553.3
673.58	539.1
673.98	549.1
674.402	556.4
674.824	545.5
675.224	551.1
675.646	540.4
676.047	540.1
676.469	548.1
676.869	550.2
677.292	549.7
677.693	543.5
678.115	539.4
678.516	554.6
678.939	548.7
679.34	544.1
679.762	552
680.164	547.7
680.586	534.7
680.988	546.5
681.411	565.6
681.812	540.8
682.236	540.8
682.637	537.7
683.061	531.4
683.462	546.5
683.864	540.1
684.288	547.2
684.69	538
685.114	555.1
685.516	551
685.94	532.8
686.342	552.5
686.766	539.1
687.168	541
687.571	558.8
687.995	544.6
688.398	540.7
688.822	539.2
689.225	561.6
689.628	561.7
690.052	541.1
690.456	550.2
690.88	542.6
691.284	534.1
691.687	545.9
692.112	529.2
692.515	536.1
692.919	547.6
693.344	551.7
693.747	544.3
694.173	539.3
694.577	548.5
694.98	540.3
695.406	539.2
695.81	547.1
696.214	547.5
696.64	544.7
697.044	545.7
697.448	550.5
697.874	540.4
698.279	544.9
698.684	532.9
699.11	537.6
699.514	539.5
699.919	539.2
700.324	538.1
700.75	549.6
701.156	550.4
701.561	557
701.987	553.5
702.393	553
702.798	552.8
703.203	547.5
703.63	539.2
704.036	541.4
704.442	544.1
704.847	536.2
705.274	545.5
705.68	548.2
706.086	554
706.492	539.5
706.92	545.6
707.326	554.4
707.732	550.2
708.139	537
708.545	534.4
708.973	542.9
709.38	542.1
709.786	535.9
710.193	559.7
710.6	547.2
711.028	535.7
711.435	542.5
711.842	549.6
712.249	535.6
712.656	545.3
713.064	548.7
713.492	537.6
713.9	539.2
714.307	547.1
714.715	548.3
715.123	547.4
715.53	541
715.938	554
716.367	548.9
716.775	542.7
717.184	532.6
717.592	543.1
718	552.5
718.408	576.8
718.816	584.4
719.225	546.3
719.633	546.2
720.042	533.4
720.472	544.5
720.881	563.5
721.29	548.1
721.699	533.6
722.108	540.6
722.517	547.1
722.926	540.9
723.335	546.4
723.744	547
724.154	541.9
724.563	543.9
724.973	547.7
725.382	548.2
725.792	539.7
726.202	535.8
726.612	554.5
727.022	537.6
727.432	538.8
779.813	536.6
780.223	578.7
780.634	541.6
781.044	537.3
781.454	536.1
781.865	551.9
782.276	536.2
782.686	549.9
783.097	542.1
783.508	538.3
783.919	544.4
784.33	550.7
784.741	556.1
785.152	533.7
785.563	529.2
785.974	535.8
786.386	551.5
786.776	535.6
787.188	534.1
787.599	533.1
788.011	550.9
788.423	551.4
788.835	540.7
789.247	529.7
789.659	532.4
790.071	538.2
790.483	575.9
790.874	538.3
791.286	548.3
791.699	536
792.111	544.8
792.524	541.4
792.937	545.2
793.349	532.4
793.741	537.6
794.154	539.7
794.567	553
794.98	546.4
795.393	532.2
795.785	552.8
796.198	537.1
796.612	540.9
797.026	536.5
797.439	522.5
797.831	541.2
798.245	531.5
798.659	534
799.073	540.6
799.487	539.8
799.88	542.9
800.294	540.2
800.708	543.2
801.123	545.1
801.516	561.7
801.93	532.2
802.345	532
802.76	542.1
803.153	554.2
803.568	556.7
803.983	547.1
804.377	545.5
804.792	532
805.207	525.1
805.601	541.8
806.016	572.8
806.432	537.3
806.826	569.5
807.242	557.7
807.658	546.3
808.052	539.1
808.468	540.7
808.884	543.5
809.279	539.9
809.695	554.8
810.111	561.8
810.506	546
810.922	554
811.339	539.8
811.734	550.9
812.151	534.6
812.546	533.4
812.963	535.9
813.38	545.6
813.776	543.6
814.193	557
814.589	537.9
815.006	539.7
815.402	533.9
815.82	537.4
816.237	541.7
816.633	543.3
817.051	528.7
817.448	540.2
817.866	535.1
818.262	559.5
818.68	536.7
819.077	536.6
819.495	539
819.892	578.8
820.311	537.1
820.708	540.7
821.127	540
821.524	553.5
821.943	543.5
822.34	560.8
822.759	545.3
823.157	542.7
823.576	553.1
823.974	545.8
824.393	550.6
824.791	538.7
825.189	531.1
825.609	540.6
826.007	535.9
826.427	526.9
826.826	541.9
827.246	535.8
827.644	532.2
828.043	553.3
828.463	535.2
828.862	546.4
829.261	548.1
829.682	527.6
830.081	546.2
830.502	534.7
830.901	544.5
831.301	532.1
831.722	531.8
832.121	538.2
832.521	537.4
832.943	539.1
833.342	536.4
833.742	533.3
834.164	542.2
834.564	531.5
834.965	538.4
835.386	532.1
835.787	533.1
836.188	533.1
836.588	536.1
837.01	538.2
837.411	528
837.812	544.8
838.213	540.6
838.636	535.6
839.037	598.9
839.438	538.3
839.84	541.8
840.263	551.2
840.664	548.1
841.066	539.4
841.468	542
841.891	539.7
842.293	546.8
842.695	541.5
843.098	551.6
843.5	534.8
843.902	539.8
844.326	540.5
844.729	539.4
845.131	550.4
845.534	537
845.937	548.9
846.34	558.6
846.764	535.8
