#lambda/nm	C1
208.295	483.4
208.67	444.7
209.045	415.3
209.419	416.7
209.794	594
210.169	576.3
210.544	690.9
210.919	593.4
211.295	580.1
211.67	590.8
212.045	579.8
212.421	584.3
212.796	620
213.172	581.1
213.547	584.5
213.923	584.8
214.299	579.1
214.675	593
215.051	596
215.427	595.1
215.803	604.4
216.179	586.4
216.555	579.9
216.932	586.7
217.308	587.4
217.684	591.5
218.061	599.6
218.438	590.9
218.814	582.4
219.191	594.8
219.568	580.3
219.945	586.2
220.322	595.9
220.699	593.1
221.076	601.3
221.453	589.5
221.83	581
222.208	584.4
222.585	581.1
222.962	593.8
223.34	591.5
223.717	592.9
224.095	584.6
224.473	590.2
224.851	587.6
225.229	574.6
225.607	603.7
225.985	577.6
226.363	591.5
226.741	589.5
227.119	594.4
227.497	598.5
227.876	580.3
228.254	590.5
228.633	593.9
229.011	589.3
229.39	592.6
229.769	589.3
230.148	594.9
230.527	611.7
230.905	589.1
231.284	587.7
231.664	583.6
232.043	602
232.422	594.4
232.801	586
233.181	592.2
233.56	586.4
233.94	590.8
234.319	579.7
234.699	584.4
235.079	623.7
235.458	620.4
235.838	604.9
236.218	586.3
236.598	579
236.978	581.8
237.358	579.8
237.738	585.5
238.119	592.4
238.499	577.8
238.88	586.9
239.26	602.1
239.641	579.3
240.021	582.8
240.402	589.1
240.783	584.1
241.163	583.5
241.544	590.6
241.925	590.1
242.306	598.7
242.687	582.2
243.069	593.9
243.45	594.9
243.831	579
244.212	582.7
244.594	623.8
244.975	592.3
245.357	588.5
245.739	582.1
246.12	588.3
246.502	601.6
246.884	583.7
247.266	581.8
247.648	590.9
248.03	611
248.412	588.3
248.794	591.7
249.176	580.2
249.559	599
249.941	581.8
250.323	582.8
250.706	582.4
251.089	586.7
251.471	596.5
251.854	595.8
252.237	587.6
252.62	596.8
253.002	585.7
253.385	585.9
253.769	603.4
254.152	592.6
254.535	592.9
254.918	581.2
255.301	586.4
255.685	582.8
256.068	581
256.452	612
256.835	597
257.219	589.1
257.603	600.6
257.986	577.5
258.37	588.8
258.754	573.5
259.138	598.6
259.522	599.4
259.906	587.6
260.29	590.4
260.675	594.6
261.059	589.1
261.443	579
261.828	591.5
262.212	592.4
262.597	575.9
262.981	589.1
263.366	593.9
263.751	591.4
264.136	584.3
264.521	586.7
264.906	578.7
265.291	599.7
265.676	584.4
266.061	585.8
266.446	608
266.831	591.4
267.217	604.3
267.602	590.6
267.987	592.2
268.373	585.8
268.759	597.4
269.144	593.7
269.53	586.2
269.916	585.2
270.302	584.9
270.688	588.2
271.074	588.8
271.46	598.4
271.846	619.6
272.232	587.6
272.618	578
273.004	582.6
273.391	598.4
273.777	600.7
274.164	598.2
274.55	605.2
274.937	592.4
275.324	589.4
275.71	593.5
276.097	595.1
276.484	578.9
276.871	589.7
277.258	587.4
277.645	579
278.032	592.1
278.419	590
278.807	593.5
279.194	583
279.581	578.6
279.969	589.5
280.356	588.6
280.744	586.9
281.131	612.5
281.519	602.1
281.907	583.9
282.295	586.5
282.682	600.1
283.07	591.9
283.458	599.4
283.846	600.7
284.235	603.3
284.623	593.5
285.011	580.6
285.399	594.4
285.788	586.7
286.176	580.9
286.565	601.6
286.953	585.5
287.342	587.4
287.731	583.1
288.119	584.3
288.508	591.4
288.897	590.7
289.286	578
289.675	587.5
290.064	594.5
290.453	587.7
290.821	583.2
291.21	601.9
291.599	583.7
291.989	592.9
292.378	596.9
292.768	610.2
293.157	593.3
293.547	599.5
293.936	589.1
294.326	581
294.716	592.3
295.106	588.4
295.496	588.3
295.886	598.7
296.276	586.6
296.666	581.5
297.056	586.3
297.446	581.1
297.836	605.1
298.227	583.4
298.617	591.9
299.008	603.2
299.398	589.2
299.789	586.8
300.179	597
300.57	601.2
300.961	582.3
301.352	579.5
301.742	592.7
302.133	592.8
302.524	587.6
302.915	590.8
303.307	578.7
303.698	595.6
304.089	598.2
304.48	589.3
304.872	599
305.263	586.2
305.655	585.6
306.046	594.5
306.438	596.4
306.829	588.5
307.221	600.9
307.613	597.6
308.005	601
308.397	600.2
308.789	614.4
309.181	611.6
309.573	602
309.965	602.2
310.357	588.5
310.749	596.5
311.142	584.5
311.534	583.6
311.926	598.9
312.319	591.6
312.711	578.7
313.104	601.7
313.497	588.8
313.889	627
314.282	604.4
314.675	611.7
315.068	591.2
315.461	604.4
315.854	620.1
316.247	597.8
316.64	594.1
317.033	593.9
317.405	602.8
317.798	594.6
318.192	593.6
318.585	585.3
318.979	592.5
319.372	587.1
319.766	589.8
320.16	606.9
320.553	602.6
320.947	613
321.341	585
321.735	589.2
322.129	579.2
322.523	612.4
322.917	585.4
323.311	598
323.705	597.6
324.099	597.6
324.494	602.7
324.888	601.3
325.282	592.8
325.677	594.3
326.071	606.6
326.466	603.3
326.861	589.3
327.255	601.3
327.65	606.9
328.045	602.4
328.44	597.2
328.835	590.4
329.23	585.5
329.625	619.1
330.02	591.5
330.415	612.5
330.81	594.1
331.206	593.2
331.601	582.9
331.996	598.6
332.37	603.9
332.766	585.2
333.161	616
333.557	582.5
333.953	588.3
334.348	1017.6
334.744	590.1
335.14	590.6
335.536	588.6
335.932	603.4
336.328	591
336.724	600.3
337.12	592.1
337.516	588.5
337.913	589.5
338.309	601.9
338.705	588.8
339.102	600.8
339.498	588.5
339.895	603.2
340.291	579.1
340.688	596.8
341.085	582.6
341.481	591.4
341.878	586.3
342.275	611.8
342.672	586.2
343.069	580.6
343.466	576.9
343.842	596.1
344.239	581.1
344.636	590.5
345.033	586.1
345.431	582.5
345.828	595
346.225	578.8
346.623	596.7
347.02	587.4
347.418	601.5
347.816	608.5
348.213	581.2
348.611	596.1
349.009	584.9
349.407	598.4
349.805	582
350.203	581.5
350.601	600.7
350.999	581.8
351.397	582.3
351.795	583.9
352.193	593
352.57	595.4
352.969	603.8
353.367	577.6
353.766	577.5
354.164	589.7
354.563	596.5
354.961	583.7
355.36	585.8
355.759	585.1
356.158	579.4
356.557	587.9
356.956	577.7
357.355	569.9
357.754	592
358.153	591
358.552	603.7
358.951	590.1
359.35	595.1
359.75	582.8
360.149	578.1
360.527	570.1
360.926	575.7
361.326	584.1
361.726	582.7
362.125	575.1
362.525	592
362.925	579.1
363.325	584
363.724	581
364.124	578.7
364.524	576.6
364.924	582
365.324	595.2
365.725	571.7
366.125	588.7
366.525	585
366.904	575.5
367.304	568.9
367.705	602.6
368.105	594.8
368.506	581.4
368.906	584.8
369.307	585.3
369.708	583.9
370.108	573.7
370.509	591.3
370.91	572.2
371.311	584.1
371.712	585.2
372.113	577.7
372.514	571.7
372.894	581.7
373.295	574
373.696	594.6
374.097	591.7
374.499	608.7
374.9	584.1
375.301	573.9
375.703	582.8
376.105	577.2
376.506	588.7
376.908	582.1
377.309	583.4
377.711	585
378.113	574.2
378.493	577.7
378.895	583.3
379.297	589.4
379.699	574.4
380.102	586.9
380.504	583.6
380.906	578.6
381.308	603.4
381.71	579.4
382.113	593.5
382.515	581.8
382.918	583.7
383.299	585.6
383.701	589.4
384.104	582.3
384.507	559.2
384.909	575.6
385.312	574.2
385.715	574.9
386.118	572.5
386.521	564.9
386.924	591.3
387.327	574.5
387.709	571.5
388.112	561.9
388.515	581.1
388.918	576.4
389.322	578.6
389.725	571.9
390.129	598.2
390.532	582.9
390.936	578.3
391.339	573.3
391.743	581.1
392.125	571.9
392.529	587.8
392.933	592.4
393.337	580.9
393.74	581.4
394.144	575.9
394.548	574.8
394.953	577.2
395.357	584.1
395.761	574.3
396.144	583.3
396.548	583.5
396.952	584.5
397.357	580.2
397.761	574.6
398.166	577.5
398.57	574
398.975	575.5
399.379	584.6
399.763	622.5
400.168	581.3
400.572	584.2
400.977	579
401.382	595.5
401.787	589.7
402.192	599.9
402.597	594.5
403.002	574.2
403.386	595.1
403.791	593.4
404.197	570.2
404.602	580
405.007	585.2
405.413	577.6
405.818	575
406.224	573.1
406.608	579.4
407.014	575.3
407.42	602.6
407.825	575.8
408.231	594.7
408.637	586.9
409.043	595.1
409.449	573.7
409.834	575.6
410.24	586.8
410.646	588.5
411.052	590.7
411.458	582.6
411.865	589.5
412.271	593.9
412.677	581.8
413.062	592.1
413.469	577.2
413.875	604.1
414.282	599.2
414.689	584.4
415.095	589.3
415.502	573.7
415.888	582.8
416.294	571.6
416.701	619.4
417.108	575.6
417.515	590.7
417.923	580.8
418.33	601.7
418.715	591.5
419.123	582.9
419.53	571.7
419.937	582.8
420.345	597.3
420.752	581.5
421.16	596.2
421.546	579.8
421.953	587.3
422.361	578.6
422.769	581.4
423.177	575
423.585	606.1
423.992	604.2
424.379	598.7
424.787	594
425.195	603.6
425.603	583.8
426.011	594.7
426.419	595
426.806	586.4
427.214	590.1
427.623	592.2
428.031	598.4
428.44	582.2
428.848	599.3
429.235	602.8
429.644	588.6
430.053	582.8
430.461	600.9
430.87	611.2
431.279	596.5
431.666	578.8
432.075	586
432.484	591.8
432.893	582.9
433.302	607.2
433.711	623.9
434.099	588
434.508	583
434.918	572.6
435.327	591.7
435.737	589.3
436.125	587.1
436.534	585.5
436.944	584.1
437.353	589.7
437.763	601.8
438.173	573.8
438.561	587.8
438.971	575.9
439.381	583.2
439.791	579.4
440.201	557.7
440.589	587.3
440.999	592.1
441.409	581.2
441.819	571.7
442.23	589.2
442.619	586.9
443.029	583
443.439	585.3
443.85	591.1
444.26	593.6
444.649	586.1
445.06	581.1
445.471	576.5
445.881	579.1
446.292	592.6
446.682	600.5
447.092	568
447.503	629.9
447.914	581.6
448.325	582.6
448.715	579.3
449.126	578.7
449.537	583.4
449.948	585
450.338	580.6
450.75	585
451.161	579.4
451.572	591.3
451.984	585
452.374	569.7
452.786	574.4
453.197	582
453.609	584.8
453.999	570.2
454.411	565.6
454.823	583.9
455.235	583.8
455.647	575.3
456.037	581.5
456.449	562.1
456.862	572.7
457.274	584.7
457.665	571.5
458.077	579.1
458.489	587.7
458.902	578.7
459.293	579.5
459.705	583.9
460.118	575.5
460.53	581.3
460.921	578
461.334	582.9
461.747	578.3
462.16	587.5
462.551	586.3
462.964	585.6
463.377	566.1
463.79	573.6
464.182	588.7
464.595	572
465.008	581.2
465.421	581.7
465.813	577.3
466.226	587.2
466.64	575.3
467.053	618.8
467.445	590
467.859	576.8
468.272	579.6
468.686	590.6
469.078	573.2
469.492	570.4
469.906	580
470.298	578.9
470.712	573.7
471.126	607.9
471.54	566.5
471.933	569.3
472.347	575.7
472.761	564.5
473.175	565.1
473.568	570.4
473.982	564.7
474.397	575.9
474.79	578.4
475.204	586.1
475.619	575.2
476.033	574.8
476.426	578.6
476.841	570.4
477.256	601.3
477.649	571.2
478.064	563.5
478.479	567.3
478.872	566.7
479.287	565.4
479.702	570.7
480.118	569.7
480.511	568.3
480.927	561.4
481.342	570.3
481.736	581.1
482.151	569.9
482.566	584.5
482.96	577.9
483.376	581.8
483.792	568.1
484.186	581.2
484.602	570.4
485.017	574.8
485.412	568.4
485.827	574.6
486.243	570.8
486.638	595.1
487.054	582.5
487.47	584.4
487.865	574.8
488.281	567.5
488.697	573
489.092	571.3
489.508	569
489.925	585
490.32	567.5
490.736	577
491.153	577.2
491.548	573.2
491.964	583.1
492.381	563.9
492.776	576.3
493.193	574.6
493.61	578.3
494.006	576.9
494.422	582.8
494.84	567.5
495.235	579.2
495.652	573.6
496.069	572.6
496.465	563.2
496.883	573.6
497.3	596.2
497.696	559.9
498.113	577.9
498.509	559.7
498.927	568.5
499.344	563.1
499.741	564.9
500.158	585.3
500.576	582.7
500.973	571.5
501.39	566.3
501.787	565.8
502.205	579
502.623	568.7
503.02	558.5
503.438	566.5
503.856	566.7
504.253	572.4
504.671	570
505.068	569.9
505.486	565.9
505.905	587.2
506.302	568.9
506.72	580.8
507.118	563.3
507.536	571.6
507.955	573
508.352	573.7
508.771	580.7
509.169	575.1
509.587	567
510.006	567.8
510.404	561.7
510.823	563.6
511.221	569.6
511.64	572.5
512.038	584.4
512.457	574.1
512.877	569.3
513.275	570.9
513.694	565.2
514.092	570.5
514.512	571.9
514.91	573.5
515.33	570
515.749	572.5
516.148	571.2
516.568	567.9
516.966	573.9
517.386	565.7
517.785	568
518.205	569
518.603	562.7
519.024	562.5
519.444	575
519.843	577.9
520.263	577.8
520.662	579.6
521.082	566
521.481	573.4
521.902	572
522.301	575.1
522.722	571.1
523.121	573.9
523.542	562.7
523.963	569.9
524.362	572
524.783	571.6
525.183	574
525.604	576.1
526.003	565.5
526.425	563.5
526.824	572.7
527.246	578.3
527.646	578
528.067	574.6
528.467	566.1
528.888	569.2
529.289	570.3
529.71	572.3
530.11	566.4
530.532	569.3
530.932	557.9
531.354	560
531.755	604.8
532.176	578.7
532.577	562.2
532.999	575.1
533.4	564.6
533.822	575.4
534.223	572.3
534.645	572.1
535.046	569.9
535.468	571.1
535.869	582.7
536.292	567.3
536.693	573
537.115	573.1
537.516	567.1
537.939	566.7
538.34	585.1
538.742	583.9
539.165	564.9
539.566	573.5
539.989	566.2
540.391	567.7
540.814	563.4
541.216	568.8
541.639	565.4
542.041	574.7
542.464	563.3
542.866	562
543.268	563.3
543.691	571.9
544.093	574.3
544.517	584.8
544.919	564.5
545.343	590.3
545.745	565.7
546.147	574.5
546.571	567.4
546.974	559.5
547.398	565.3
547.8	581.6
548.224	567.4
548.627	560.1
549.03	570
549.454	564.4
549.857	561.4
550.281	559.1
550.684	562.3
551.087	578.9
551.512	571.2
551.915	576.3
552.34	566
552.743	564.1
553.146	566.5
553.571	567
553.975	585.4
554.399	564.4
554.803	615.5
555.207	563.1
555.632	562.8
556.036	575.7
556.461	560.3
556.865	565.4
557.268	559.6
557.694	564
558.098	577.1
558.502	574.7
558.927	568.5
559.332	558.2
559.736	570.9
560.162	572.5
560.566	572.6
560.992	572.1
561.396	563.5
561.801	564.9
562.227	569.9
562.631	565.1
563.036	567.5
563.462	573.9
563.867	569.4
564.272	555.6
564.698	576.7
565.103	556.9
565.508	588.8
565.935	564.9
566.34	567.2
566.745	572.5
567.172	563
567.577	586.1
567.982	579.4
568.409	574.7
568.815	565.3
569.22	565.4
569.626	572.2
570.053	553.6
570.459	567.7
570.865	568.2
571.292	578.6
571.698	569
572.104	554.4
572.531	569.2
572.937	571.3
573.343	560.1
573.75	564.2
574.177	565.8
574.583	571
574.99	567.2
575.396	569.9
575.824	560.1
576.231	569.5
576.637	562.6
577.065	587.8
577.472	559.8
577.879	566.6
578.286	582.7
578.714	553.8
579.121	570.7
579.528	565.3
579.935	570.1
580.364	564.7
580.771	548.6
581.178	562.5
581.585	566.4
582.014	577
582.421	563
582.829	559.6
583.236	575.1
583.644	559
584.073	564
584.481	565.6
584.889	563.5
585.296	570.1
585.726	560.4
586.134	556.5
586.542	558.8
586.95	589
587.358	559.1
587.787	569.9
588.196	560
588.604	562.9
589.012	566.7
589.421	556.8
589.851	559.7
590.259	569
590.668	565.6
591.076	597.9
591.485	560.8
591.894	562
592.324	579.9
592.733	576.7
593.142	556.7
593.551	561.6
593.96	598.6
594.369	555.2
594.8	554.3
595.209	564.7
595.618	551.7
596.028	559.7
596.437	556.5
596.847	565.8
597.256	571.2
597.687	567.3
598.097	561.6
598.507	553.3
598.917	568.4
599.327	570
599.736	565.3
600.146	578.8
600.556	565.7
600.988	577.6
601.398	566.3
601.808	575.3
602.219	555.2
602.629	561.5
603.039	567.9
603.45	591.3
603.86	564
604.271	580.5
604.703	573.3
605.114	571.1
605.525	568.2
605.935	571.2
606.346	592.7
606.757	566.4
607.168	564.4
607.579	558.8
607.99	579
608.402	573.4
608.813	571.1
609.224	564.6
609.636	556
610.047	558.7
610.48	565.8
610.892	576
611.303	579.6
611.715	562.6
612.127	563.7
612.539	562.8
612.95	569.3
613.362	555.7
613.774	552.6
614.186	560.2
614.599	559.7
615.011	570
615.423	552.6
615.835	557.3
616.248	560.7
616.66	570.1
617.073	554.7
617.485	565.8
617.898	572.6
618.311	564.4
618.723	563.9
619.136	589.2
619.549	578.5
619.962	591.3
620.375	558.3
620.788	562.5
621.201	558.8
621.614	569.9
622.028	562.5
622.441	564.2
622.854	579.5
623.268	557.8
623.681	564.4
624.095	564.5
624.509	569.5
624.922	570.1
625.336	556.4
625.728	564.8
626.142	574.2
626.556	578.3
626.97	572.1
627.384	560.8
627.799	564.8
628.213	572.3
628.627	556.8
629.041	556.1
629.456	562.3
629.87	561.9
630.285	569.3
630.699	572.1
631.093	567.1
631.507	568.9
631.922	563.6
632.337	568.7
632.752	553
633.167	563.2
633.582	559.3
633.997	561.5
634.412	554.8
634.806	562.1
635.221	552.3
635.637	570.1
636.052	552.5
636.468	565
636.883	586.1
637.299	561.6
637.715	550.3
638.109	559.1
638.525	556
638.941	580.3
639.357	568
639.773	576.2
640.189	556.9
640.584	564
641	566
641.416	547
641.832	562.6
642.249	559.2
642.665	563
643.06	565.8
643.477	573.4
643.894	556.1
644.31	563.8
644.727	564.5
645.123	566.2
645.54	548.3
645.957	563.8
646.374	567.2
646.77	556.9
647.187	587.8
647.604	567.7
648.021	548
648.439	560.1
648.835	568.9
649.252	558.5
649.67	552.5
650.088	557
650.484	565.4
650.902	572.9
651.32	566.6
651.738	561.6
652.134	567.9
652.552	581
652.971	569.9
653.389	569.4
653.786	579.4
654.204	568.6
654.622	559.9
655.019	564.2
655.438	569.2
655.857	560.9
656.275	567.7
656.673	552.8
657.091	631
657.51	554.1
657.908	571.1
658.327	579.3
658.746	548.5
659.144	561.9
659.563	575
659.982	565
660.38	555.8
660.8	562.5
661.219	572
661.617	571.7
662.037	561
662.457	568.9
662.855	545.3
663.275	590.5
663.695	564.1
664.094	559.8
664.514	561.4
664.934	557.8
665.333	570.2
665.753	559.3
666.152	553.9
666.572	556.6
666.993	571.7
667.392	555.1
667.812	560.8
668.212	558.9
668.632	569.1
669.053	561.6
669.453	568.8
669.874	559.1
670.273	564.4
670.694	554.2
671.116	570.1
671.515	569
671.937	561.8
672.337	555.4
672.758	561.8
673.158	569.4
673.58	554
673.98	566.6
674.402	572.7
674.824	556.8
675.224	559.2
675.646	555.4
676.047	556.6
676.469	559.9
676.869	566.6
677.292	563.7
677.693	555.4
678.115	552.7
678.516	564.4
678.939	567.2
679.34	559.9
679.762	572.5
680.164	562.5
680.586	553.3
680.988	565.1
681.411	586.7
681.812	557
682.236	552.1
682.637	554.9
683.061	550.1
683.462	564.6
683.864	558.1
684.288	561.1
684.69	554
685.114	566.8
685.516	568.9
685.94	558.3
686.342	571.7
686.766	551.3
687.168	558.4
687.571	574.6
687.995	562.1
688.398	547.8
688.822	556.1
689.225	578.4
689.628	579.2
690.052	559.1
690.456	565.4
690.88	561.6
691.284	555.7
691.687	566.6
692.112	551.2
692.515	556.1
692.919	561.6
693.344	563
693.747	557.6
694.173	554.8
694.577	576.4
694.98	559.1
695.406	559.1
695.81	559.9
696.214	566.9
696.64	569.2
697.044	560.5
697.448	569.9
697.874	562.4
698.279	555.9
698.684	550.4
699.11	558.5
699.514	557.6
699.919	563.4
700.324	554.2
700.75	561.3
701.156	562.9
701.561	576.9
701.987	566.9
702.393	573.7
702.798	569.6
703.203	560.5
703.63	557.9
704.036	560
704.442	561.7
704.847	550.9
705.274	557.4
705.68	565.2
706.086	562.5
706.492	550.8
706.92	562.9
707.326	571.1
707.732	559.1
708.139	556.4
708.545	552.5
708.973	559.2
709.38	558.2
709.786	551.6
710.193	579.5
710.6	558.8
711.028	555.5
711.435	564.4
711.842	562.3
712.249	559.7
712.656	557.7
713.064	566.2
713.492	552.5
713.9	557.3
714.307	563.7
714.715	562.3
715.123	561.9
715.53	560.8
715.938	568.2
716.367	560.9
716.775	555.4
717.184	554
717.592	554.6
718	563.8
718.408	596.6
718.816	599
719.225	564
719.633	560.3
720.042	554
720.472	552.9
720.881	577.6
721.29	563.7
721.699	553.7
722.108	564.6
722.517	565.2
722.926	555.7
723.335	562
723.744	558.3
724.154	557.9
724.563	562.2
724.973	560.5
725.382	559.4
725.792	559.6
726.202	551.4
726.612	568.5
727.022	565.7
727.432	550.8
779.813	555.9
780.223	602.5
780.634	557.9
781.044	550.8
781.454	556.8
781.865	568.5
782.276	548.1
782.686	566.1
783.097	556.8
783.508	558.4
783.919	566.3
784.33	567.2
784.741	567.2
785.152	555.7
785.563	544.5
785.974	551.3
786.386	569.5
786.776	552.8
787.188	557.5
787.599	553.4
788.011	560.2
788.423	560.4
788.835	554.2
789.247	549.7
789.659	547.8
790.071	553.3
790.483	597.9
790.874	559.1
791.286	566.9
791.699	557
792.111	556.2
792.524	558.8
792.937	559.2
793.349	546.3
793.741	556
794.154	555.1
794.567	575.8
794.98	552.6
795.393	548.4
795.785	566.8
796.198	551.7
796.612	559.2
797.026	552.9
797.439	542.7
797.831	555.1
798.245	548.7
798.659	551
799.073	557.6
799.487	548.4
799.88	556.1
800.294	563.6
800.708	560.4
801.123	561.1
801.516	572.4
801.93	551.2
802.345	545.5
802.76	561.4
803.153	567.5
803.568	564.9
803.983	564.6
804.377	561.8
804.792	545.1
805.207	542.6
805.601	553.3
806.016	588.9
806.432	556.6
806.826	579.6
807.242	567.1
807.658	564.7
808.052	554.1
808.468	553.7
808.884	548.5
809.279	558.7
809.695	567.7
810.111	579.8
810.506	554.4
810.922	573.5
811.339	549.8
811.734	568.9
812.151	551.3
812.546	555.3
812.963	557.4
813.38	570.8
813.776	559.3
814.193	573.7
814.589	553.9
815.006	562.2
815.402	548
815.82	553.3
816.237	555.1
816.633	558.3
817.051	548.9
817.448	558.6
817.866	543.4
818.262	569.9
818.68	550.6
819.077	553.2
819.495	555.8
819.892	596.9
820.311	550.3
820.708	557.6
821.127	551.6
821.524	564.3
821.943	560.6
822.34	573.7
822.759	559.1
823.157	555.3
823.576	569.7
823.974	559.8
824.393	565.3
824.791	557.6
825.189	548.9
825.609	548.4
826.007	556.7
826.427	547.8
826.826	557.8
827.246	558.1
827.644	541.8
828.043	565.3
828.463	553.8
828.862	571.3
829.261	563.3
829.682	544.4
830.081	563.5
830.502	543.7
830.901	557.4
831.301	554.7
831.722	547.8
832.121	557.1
832.521	556.1
832.943	556.3
833.342	556.8
833.742	548
834.164	553.1
834.564	540.8
834.965	554.8
835.386	552.1
835.787	551.1
836.188	551.2
836.588	557
837.01	559.3
837.411	548
837.812	562
838.213	564.5
838.636	556
839.037	621.5
839.438	554.9
839.84	558.6
840.263	557.9
840.664	563.5
841.066	556.1
841.468	557.2
841.891	549.3
842.293	569.4
842.695	559.7
843.098	571
843.5	549.8
843.902	563.1
844.326	565.7
844.729	557.1
845.131	568.4
845.534	559.1
845.937	565.9
846.34	573.6
846.764	548.1
847.167	560.5
847.571	552.5
