#lambda/nm	C1
208.295	483.3
208.67	446.5
209.045	408.2
209.419	414.4
209.794	599.5
210.169	574.7
210.544	698.2
210.919	592.3
211.295	582.2
211.67	596.2
212.045	587.1
212.421	582.7
212.796	623.7
213.172	584.8
213.547	584.1
213.923	581.7
214.299	582.4
214.675	595.1
215.051	595.6
215.427	590.3
215.803	606.2
216.179	598.2
216.555	580.3
216.932	596
217.308	588
217.684	587.1
218.061	597.3
218.438	591.1
218.814	584.2
219.191	598.2
219.568	579.9
219.945	579
220.322	597
220.699	592.5
221.076	595.3
221.453	589.4
221.83	579.7
222.208	585.4
222.585	585.1
222.962	588.5
223.34	591.6
223.717	588
224.095	582.5
224.473	592.4
224.851	586.3
225.229	579.2
225.607	600.8
225.985	575.6
226.363	591.5
226.741	589.3
227.119	596.2
227.497	603
227.876	579
228.254	596.6
228.633	593.2
229.011	590.6
229.39	593.5
229.769	589.5
230.148	596.9
230.527	613
230.905	590.9
231.284	591
231.664	583.1
232.043	604.6
232.422	601.7
232.801	587.8
233.181	595.4
233.56	591
233.94	587.6
234.319	577.1
234.699	588.4
235.079	622.4
235.458	627.9
235.838	599.9
236.218	581.9
236.598	580.4
236.978	584.6
237.358	581.6
237.738	583
238.119	590.4
238.499	581.8
238.88	590.5
239.26	600.8
239.641	580.7
240.021	588.5
240.402	592.8
240.783	583.2
241.163	590.6
241.544	590.8
241.925	589.7
242.306	606.1
242.687	583.7
243.069	592.4
243.45	599.2
243.831	582.2
244.212	584.7
244.594	628.1
244.975	595.5
245.357	594.9
245.739	580.9
246.12	597
246.502	597.9
246.884	583.7
247.266	592
247.648	593
248.03	611.8
248.412	597.8
248.794	596.1
249.176	588.5
249.559	602.7
249.941	584.8
250.323	587.3
250.706	582
251.089	591.7
251.471	589.2
251.854	587.1
252.237	592.2
252.62	608.2
253.002	585.6
253.385	596.3
253.769	602.9
254.152	591.1
254.535	600.4
254.918	583.3
255.301	582.2
255.685	584.4
256.068	581.6
256.452	615.9
256.835	597.7
257.219	592.6
257.603	607.2
257.986	581.4
258.37	598.9
258.754	580.6
259.138	591.4
259.522	599.5
259.906	587.1
260.29	594.6
260.675	591.3
261.059	591.4
261.443	583
261.828	592.5
262.212	596
262.597	584.5
262.981	588
263.366	597
263.751	589.7
264.136	581.4
264.521	582
264.906	581.5
265.291	596.7
265.676	580.6
266.061	590.7
266.446	607.6
266.831	587.1
267.217	602
267.602	591.9
267.987	591.1
268.373	587.3
268.759	601.8
269.144	591.6
269.53	589.7
269.916	587.6
270.302	583.5
270.688	593.8
271.074	596.4
271.46	600.9
271.846	616.9
272.232	595
272.618	585.6
273.004	590
273.391	599.1
273.777	599.2
274.164	599.4
274.55	607.4
274.937	595
275.324	593
275.71	598.3
276.097	595.3
276.484	584.7
276.871	592.4
277.258	598
277.645	583.1
278.032	590.3
278.419	591.5
278.807	590.4
279.194	582.7
279.581	582.9
279.969	598.1
280.356	588.7
280.744	592.1
281.131	616.8
281.519	605.3
281.907	588.9
282.295	584.2
282.682	600.3
283.07	597.4
283.458	601.9
283.846	604.3
284.235	598.9
284.623	599.6
285.011	580
285.399	593.5
285.788	590.3
286.176	583.7
286.565	605.6
286.953	584.4
287.342	585.4
287.731	579
288.119	587.8
288.508	584.7
288.897	585.1
289.286	584.1
289.675	599.3
290.064	598.5
290.453	585.8
290.821	586.4
291.21	606.6
291.599	584.5
291.989	592
292.378	600.4
292.768	610.2
293.157	594.5
293.547	599.6
293.936	588.3
294.326	583.4
294.716	599.1
295.106	585.9
295.496	596.5
295.886	594.2
296.276	588.2
296.666	583.1
297.056	587.9
297.446	582.1
297.836	606.6
298.227	592.4
298.617	595.7
299.008	603.4
299.398	591.1
299.789	590.9
300.179	596.6
300.57	599.4
300.961	586.7
301.352	582
301.742	596
302.133	591.4
302.524	590.2
302.915	593.9
303.307	580.4
303.698	601
304.089	593.7
304.48	590.9
304.872	601
305.263	592.3
305.655	586
306.046	592.7
306.438	599.6
306.829	595
307.221	604.9
307.613	597.8
308.005	602.2
308.397	600.9
308.789	608.5
309.181	615.8
309.573	613.7
309.965	608.9
310.357	594.1
310.749	590.3
311.142	588.3
311.534	592.1
311.926	598.6
312.319	593.5
312.711	583.6
313.104	600.5
313.497	588.4
313.889	623.7
314.282	602.9
314.675	614.5
315.068	591.1
315.461	601.3
315.854	621.3
316.247	596.4
316.64	591.2
317.033	593.9
317.405	601.5
317.798	585.9
318.192	595.9
318.585	586.4
318.979	596
319.372	586.7
319.766	587.3
320.16	601.5
320.553	612.8
320.947	611.9
321.341	583.1
321.735	592.3
322.129	581.2
322.523	616.3
322.917	585.2
323.311	597.5
323.705	594.8
324.099	597.3
324.494	609.7
324.888	600.9
325.282	598.3
325.677	599.2
326.071	601.9
326.466	601
326.861	597.9
327.255	607.5
327.65	604.1
328.045	609
328.44	600.1
328.835	592.6
329.23	585.4
329.625	614.6
330.02	590.3
330.415	619.2
330.81	599.9
331.206	597.8
331.601	591.2
331.996	600.1
332.37	607.4
332.766	582.4
333.161	614
333.557	589.2
333.953	587.7
334.348	1021.2
334.744	593
335.14	589.8
335.536	587.7
335.932	601.9
336.328	587.3
336.724	602.9
337.12	584.1
337.516	594.1
337.913	587.9
338.309	604.7
338.705	590.6
339.102	602.6
339.498	588.2
339.895	608.9
340.291	592.2
340.688	596.8
341.085	581.2
341.481	591
341.878	589.8
342.275	612.3
342.672	586.3
343.069	586.7
343.466	585.2
343.842	600.4
344.239	583.6
344.636	592.8
345.033	581
345.431	580.8
345.828	591.6
346.225	585.3
346.623	593.9
347.02	588.6
347.418	601
347.816	607.9
348.213	585.9
348.611	601.8
349.009	584.7
349.407	603.4
349.805	578.8
350.203	580.4
350.601	598.9
350.999	591.7
351.397	582.6
351.795	585.5
352.193	593.7
352.57	596.9
352.969	598.3
353.367	582.9
353.766	586.3
354.164	581.9
354.563	601.1
354.961	591.3
355.36	586.7
355.759	586.2
356.158	579.8
356.557	584.4
356.956	583.3
357.355	576.8
357.754	584.5
358.153	593.9
358.552	607.4
358.951	588.8
359.35	598.4
359.75	581.1
360.149	581.4
360.527	570.1
360.926	577.6
361.326	583.3
361.726	583.7
362.125	572.2
362.525	591.8
362.925	584.3
363.325	586.9
363.724	582.1
364.124	577.9
364.524	582.1
364.924	588.9
365.324	593.1
365.725	572.6
366.125	593.5
366.525	586.8
366.904	578.5
367.304	567.1
367.705	601.9
368.105	598.8
368.506	584.7
368.906	586.4
369.307	580.8
369.708	588.2
370.108	573.3
370.509	595.7
370.91	578.1
371.311	584.4
371.712	589.2
372.113	583.7
372.514	571
372.894	582.7
373.295	575.1
373.696	593.9
374.097	596.9
374.499	613.7
374.9	589.6
375.301	579.6
375.703	587.9
376.105	580.8
376.506	591.4
376.908	591.2
377.309	583.3
377.711	588.4
378.113	581.1
378.493	592.6
378.895	584
379.297	597.6
379.699	570.1
380.102	590.6
380.504	584.2
380.906	583.3
381.308	612.9
381.71	587.6
382.113	594.3
382.515	582.3
382.918	590
383.299	582
383.701	594
384.104	584.8
384.507	566.9
384.909	581.3
385.312	576.5
385.715	575.5
386.118	581.1
386.521	572.7
386.924	591.5
387.327	580.1
387.709	567.1
388.112	566.9
388.515	576.6
388.918	576.7
389.322	583.1
389.725	582.1
390.129	607.3
390.532	584.6
390.936	585.6
391.339	581.8
391.743	587.4
392.125	578.4
392.529	593.3
392.933	603.6
393.337	588.5
393.74	582.3
394.144	581
394.548	581.9
394.953	577.9
395.357	592.1
395.761	582.2
396.144	582.7
396.548	582.4
396.952	580.2
397.357	590.2
397.761	576.8
398.166	580.3
398.57	574.7
398.975	567.1
399.379	584.2
399.763	632.6
400.168	580.6
400.572	585.8
400.977	585.3
401.382	599.4
401.787	597.9
402.192	602
402.597	598.5
403.002	568.6
403.386	590.1
403.791	599.7
404.197	578.4
404.602	582.7
405.007	585.9
405.413	577.9
405.818	567.6
406.224	574.9
406.608	578.4
407.014	569.8
407.42	597.5
407.825	577.2
408.231	587.6
408.637	583.4
409.043	594.9
409.449	575.8
409.834	576
410.24	581.1
410.646	588.5
411.052	593.8
411.458	581.8
411.865	589.2
412.271	592.7
412.677	587.5
413.062	588.9
413.469	571.9
413.875	608.1
414.282	599
414.689	589.4
415.095	588
415.502	574.4
415.888	582.1
416.294	562.7
416.701	622.8
417.108	584.3
417.515	588.9
417.923	581.4
418.33	600.9
418.715	593.6
419.123	588.1
419.53	582.4
419.937	584.5
420.345	596.7
420.752	578.4
421.16	596.5
421.546	591.6
421.953	593.2
422.361	579.9
422.769	586
423.177	581.4
423.585	604.6
423.992	602.6
424.379	600
424.787	597.2
425.195	604.1
425.603	586.2
426.011	593
426.419	593.5
426.806	591.7
427.214	590.4
427.623	598.4
428.031	595.1
428.44	589.5
428.848	596.8
429.235	603.1
429.644	590.6
430.053	582
430.461	592.2
430.87	610.4
431.279	592
431.666	580.7
432.075	591.9
432.484	593.4
432.893	582.5
433.302	605.5
433.711	627.1
434.099	594.8
434.508	582.5
434.918	574.6
435.327	591.1
435.737	586.6
436.125	584.6
436.534	582.2
436.944	594.9
437.353	589.5
437.763	608.6
438.173	575.4
438.561	595.4
438.971	567.7
439.381	585.2
439.791	589.9
440.201	564.4
440.589	584.2
440.999	584.4
441.409	587.1
441.819	575.8
442.23	592.6
442.619	590.6
443.029	586
443.439	582.7
443.85	596.2
444.26	599.6
444.649	585.3
445.06	578.4
445.471	578
445.881	584.3
446.292	602.4
446.682	605.4
447.092	570.7
447.503	634.4
447.914	585.4
448.325	581.3
448.715	580.7
449.126	584.7
449.537	580.7
449.948	585.5
450.338	585.5
450.75	588.8
451.161	585.7
451.572	596.2
451.984	577
452.374	572.7
452.786	577.9
453.197	587.8
453.609	593.5
453.999	568.3
454.411	574.2
454.823	592
455.235	588.1
455.647	572.8
456.037	587.9
456.449	564.9
456.862	578.9
457.274	580.7
457.665	573.2
458.077	586.4
458.489	586.8
458.902	578.3
459.293	581.5
459.705	581.5
460.118	574.1
460.53	587
460.921	584.4
461.334	582.8
461.747	577.8
462.16	592.4
462.551	591.4
462.964	586.3
463.377	566.1
463.79	582.5
464.182	591.9
464.595	577.6
465.008	584.7
465.421	579.6
465.813	575.3
466.226	587.9
466.64	579.7
467.053	625
467.445	588.2
467.859	580.8
468.272	579
468.686	591.7
469.078	577.4
469.492	571.9
469.906	582.6
470.298	583.7
470.712	577.3
471.126	613.1
471.54	567.6
471.933	579.3
472.347	574.1
472.761	573.5
473.175	565.7
473.568	571.9
473.982	570.8
474.397	575.6
474.79	578.5
475.204	583.6
475.619	574.7
476.033	581.5
476.426	578.4
476.841	568.8
477.256	599.1
477.649	574.2
478.064	572.6
478.479	570.9
478.872	566
479.287	560.7
479.702	569.4
480.118	574.7
480.511	573.6
480.927	567.1
481.342	566.8
481.736	575.8
482.151	567.3
482.566	586.9
482.96	580.5
483.376	590.5
483.792	571.5
484.186	579.7
484.602	577.5
485.017	577.2
485.412	577.3
485.827	587.8
486.243	578.6
486.638	598.5
487.054	585.1
487.47	588.2
487.865	572.8
488.281	570.6
488.697	567
489.092	566.7
489.508	565
489.925	576.7
490.32	564.2
490.736	577.2
491.153	576.8
491.548	576.2
491.964	580.8
492.381	566.9
492.776	577.8
493.193	571
493.61	582.2
494.006	576.1
494.422	581.7
494.84	566.7
495.235	583.8
495.652	572.3
496.069	570.6
496.465	567
496.883	576.4
497.3	597.2
497.696	570
498.113	581.4
498.509	565.8
498.927	563.7
499.344	563
499.741	567
500.158	578.3
500.576	584.5
500.973	573.3
501.39	563.7
501.787	565
502.205	582
502.623	566.5
503.02	564.3
503.438	571.5
503.856	572.1
504.253	574.7
504.671	573.8
505.068	567.3
505.486	565.3
505.905	589.2
506.302	567.6
506.72	579.9
507.118	558.3
507.536	575.2
507.955	573.4
508.352	573.4
508.771	581.3
509.169	576.5
509.587	561
510.006	575.3
510.404	559.8
510.823	568.4
511.221	573.2
511.64	571.2
512.038	583
512.457	573.2
512.877	573.2
513.275	566.6
513.694	569.4
514.092	567.6
514.512	573.8
514.91	568.5
515.33	573.8
515.749	575.8
516.148	577.6
516.568	572.3
516.966	574.6
517.386	569.8
517.785	572.6
518.205	570
518.603	570.5
519.024	571
519.444	576
519.843	585.8
520.263	575.3
520.662	576.6
521.082	573
521.481	573.4
521.902	573.1
522.301	576.1
522.722	577.7
523.121	567.5
523.542	568
523.963	573.8
524.362	567.4
524.783	572.5
525.183	566.1
525.604	572.9
526.003	561.6
526.425	563.9
526.824	574.1
527.246	578.6
527.646	579.1
528.067	574.1
528.467	576.5
528.888	577.7
529.289	577.2
529.71	569.8
530.11	571.1
530.532	567
530.932	564.1
531.354	566.9
531.755	605.3
532.176	574.7
532.577	572
532.999	573.9
533.4	571.2
533.822	577.8
534.223	574.8
534.645	575.6
535.046	571
535.468	569.6
535.869	587.8
536.292	566
536.693	571.2
537.115	577
537.516	571.2
537.939	569.1
538.34	596.5
538.742	584.5
539.165	570.9
539.566	572.3
539.989	562
540.391	565.6
540.814	574.7
541.216	572.3
541.639	572.1
542.041	582
542.464	565.1
542.866	563
543.268	563.2
543.691	572.3
544.093	578.5
544.517	594.3
544.919	563.1
545.343	594.7
545.745	565.4
546.147	571.7
546.571	565.6
546.974	566.9
547.398	576.3
547.8	586
548.224	571.6
548.627	565.5
549.03	580
549.454	567
549.857	559.7
550.281	558.5
550.684	563.9
551.087	580.9
551.512	576.1
551.915	577.5
552.34	565.5
552.743	564.9
553.146	567.3
553.571	567.9
553.975	590
554.399	560.2
554.803	617.8
555.207	568.9
555.632	556.8
556.036	574.5
556.461	560
556.865	573.7
557.268	559.3
557.694	568.7
558.098	573.7
558.502	573.6
558.927	564.8
559.332	574.7
559.736	568.6
560.162	580
560.566	573.4
560.992	574
561.396	574.9
561.801	565
562.227	571.2
562.631	574.7
563.036	569.8
563.462	572.1
563.867	574.8
564.272	563.7
564.698	568.4
565.103	558.1
565.508	586.5
565.935	572.9
566.34	566.2
566.745	583.3
567.172	565.4
567.577	591.5
567.982	585
568.409	578.3
568.815	563.6
569.22	577.1
569.626	580.3
570.053	557.9
570.459	573.4
570.865	574.4
571.292	575.9
571.698	572.8
572.104	555.9
572.531	566.6
572.937	577
573.343	570.1
573.75	566.3
574.177	572.2
574.583	578
574.99	562.5
575.396	572
575.824	569.2
576.231	573.2
576.637	563.1
577.065	592.1
577.472	569
577.879	574.2
578.286	584.4
578.714	568
579.121	566.4
579.528	568.7
579.935	578.9
580.364	571.9
580.771	552.6
581.178	560.2
581.585	572.8
582.014	575.8
582.421	561
582.829	565.5
583.236	579.6
583.644	563.4
584.073	570.3
584.481	571.8
584.889	562.4
585.296	574.4
585.726	569.2
586.134	559.4
586.542	564.9
586.95	581.8
587.358	559.4
587.787	570.2
588.196	559.2
588.604	560.4
589.012	569.4
589.421	556.3
589.851	561.4
590.259	572.9
590.668	556.6
591.076	603.1
591.485	557.6
591.894	564.2
592.324	578.6
592.733	580.4
593.142	551.7
593.551	565.1
593.96	603.9
594.369	553.1
594.8	559.1
595.209	561.8
595.618	546.2
596.028	559.7
596.437	557.6
596.847	562.9
597.256	567.6
597.687	566
598.097	562.1
598.507	560.3
598.917	571.2
599.327	569.2
599.736	566.6
600.146	576.8
600.556	571.6
600.988	579.2
601.398	564.9
601.808	575.1
602.219	554.7
602.629	565.1
603.039	569
603.45	590.1
603.86	563.9
604.271	576.1
604.703	566
605.114	565.5
605.525	571.1
605.935	571.1
606.346	589.3
606.757	574.1
607.168	567.1
607.579	559.3
607.99	580.7
608.402	566.7
608.813	574.7
609.224	564.1
609.636	559.2
610.047	563.9
610.48	569.1
610.892	570.5
611.303	568.9
611.715	563.9
612.127	556
612.539	561.4
612.95	567.2
613.362	556.3
613.774	554.5
614.186	563
614.599	559.4
615.011	576.4
615.423	558.7
615.835	564.3
616.248	559
616.66	569.7
617.073	560.6
617.485	569.7
617.898	572.4
618.311	568.8
618.723	566
619.136	590.6
619.549	579.2
619.962	591.1
620.375	555.9
620.788	565.4
621.201	566.1
621.614	565.7
622.028	563.4
622.441	567.7
622.854	580.6
623.268	554.7
623.681	568.1
624.095	569.2
624.509	573.8
624.922	574.9
625.336	552
625.728	567.5
626.142	574.4
626.556	580.8
626.97	566.3
627.384	559.3
627.799	565.4
628.213	578.5
628.627	562.9
629.041	565.8
629.456	560.9
629.87	567.6
630.285	575.9
630.699	576.5
631.093	567.1
631.507	576.9
631.922	569.3
632.337	574.4
632.752	562.1
633.167	573.9
633.582	566.8
633.997	564.8
634.412	564.1
634.806	569.4
635.221	556.3
635.637	571.9
636.052	553.5
636.468	565.8
636.883	581.3
637.299	562
637.715	553.2
638.109	561.3
638.525	550.5
638.941	573.3
639.357	568.8
639.773	576.1
640.189	558.3
640.584	568.6
641	563.1
641.416	554
641.832	563.9
642.249	557.5
642.665	562
643.06	573.1
643.477	573.3
643.894	550.3
644.31	566
644.727	566.1
645.123	564.7
645.54	557.1
645.957	564.4
646.374	567.1
646.77	566.4
647.187	590.3
647.604	565.7
648.021	546.7
648.439	559.3
648.835	566
649.252	566.6
649.67	561.7
650.088	563.8
650.484	570.2
650.902	569.8
651.32	571.8
651.738	561
652.134	575.9
652.552	579.5
652.971	574.4
653.389	566.5
653.786	576
654.204	568.6
654.622	556.4
655.019	567.7
655.438	567.4
655.857	569.7
656.275	569
656.673	564.7
657.091	635.3
657.51	561.7
657.908	573.7
658.327	580.9
658.746	554
659.144	561.8
659.563	575.5
659.982	565.9
660.38	559.5
660.8	564
661.219	579.8
661.617	569.6
662.037	563.4
662.457	569.8
662.855	554.2
663.275	592.6
663.695	572.1
664.094	565.3
664.514	568.7
664.934	555
665.333	572
665.753	562.3
666.152	554.2
666.572	561.8
666.993	573.7
667.392	561.6
667.812	562.3
668.212	560.4
668.632	578.2
669.053	561.3
669.453	575.2
669.874	562.3
670.273	566.2
670.694	553.8
671.116	573.6
671.515	570.8
671.937	568.1
672.337	557.7
672.758	560.5
673.158	568.9
673.58	554.5
673.98	567.1
674.402	576.9
674.824	561.5
675.224	565.6
675.646	557.5
676.047	563.3
676.469	560.9
676.869	564.9
677.292	566.2
677.693	560.3
678.115	560.2
678.516	564.8
678.939	572.8
679.34	565.8
679.762	572.2
680.164	566.2
680.586	557.6
680.988	567.5
681.411	583.8
681.812	562.6
682.236	554.2
682.637	555.1
683.061	556.3
683.462	569.3
683.864	563.7
684.288	567.8
684.69	558.7
685.114	566
685.516	566.4
685.94	552.1
686.342	567.8
686.766	559.6
687.168	556.8
687.571	577.4
687.995	561.2
688.398	551.7
688.822	561.4
689.225	578.2
689.628	581.3
690.052	559.4
690.456	565.1
690.88	563.2
691.284	553
691.687	566.8
692.112	551.1
692.515	556.2
692.919	561.1
693.344	562.1
693.747	560.6
694.173	558.5
694.577	566.4
694.98	562
695.406	556.3
695.81	564.8
696.214	564.4
696.64	560.1
697.044	562.5
697.448	569.4
697.874	560.5
698.279	562.5
698.684	549.8
699.11	553.6
699.514	562.1
699.919	556.8
700.324	555
700.75	564.3
701.156	564
701.561	568.4
701.987	566
702.393	576.5
702.798	573.5
703.203	562.9
703.63	556.3
704.036	563.4
704.442	564.3
704.847	553.4
705.274	564.4
705.68	567.7
706.086	572.9
706.492	558.9
706.92	559.1
707.326	570.3
707.732	560.7
708.139	559
708.545	552.3
708.973	562.7
709.38	559.1
709.786	552.4
710.193	580.5
710.6	569.7
711.028	553
711.435	563.5
711.842	562.1
712.249	562
712.656	563.8
713.064	571.8
713.492	557.4
713.9	555.1
714.307	565.5
714.715	559.8
715.123	566.1
715.53	561.1
715.938	572.1
716.367	564.3
716.775	556.9
717.184	555.5
717.592	560
718	567.5
718.408	591.4
718.816	600.4
719.225	562.6
719.633	561.9
720.042	551.8
720.472	561.6
720.881	582.2
721.29	570.2
721.699	555
722.108	568.1
722.517	561.3
722.926	555.8
723.335	571.3
723.744	561.5
724.154	561.4
724.563	560.8
724.973	565.3
725.382	560.3
725.792	558.7
726.202	552.3
726.612	577.9
727.022	563.7
727.432	555.3
779.813	559.7
780.223	608.3
780.634	562.1
781.044	556.3
781.454	566.3
781.865	575.9
782.276	548.6
782.686	571.4
783.097	563.3
783.508	561.8
783.919	564
784.33	573.2
784.741	564.1
785.152	554.8
785.563	554.7
785.974	552.1
786.386	566.3
786.776	554.6
787.188	551.8
787.599	557.5
788.011	568.7
788.423	559.4
788.835	558.4
789.247	551.6
789.659	557.3
790.071	557.5
790.483	599.8
790.874	555.4
791.286	567.6
791.699	558.9
792.111	557.3
792.524	560.7
792.937	560
793.349	555.4
793.741	551.3
794.154	560.6
794.567	577.6
794.98	557.4
795.393	548.5
795.785	573.2
796.198	555.5
796.612	561
797.026	553.5
797.439	545.4
797.831	558.1
798.245	548.2
798.659	557.8
799.073	555.3
799.487	553.1
799.88	557.6
800.294	560.1
800.708	562.3
801.123	558.5
801.516	581
801.93	547.9
802.345	550.9
802.76	556
803.153	570.2
803.568	575.6
803.983	567.2
804.377	563.7
804.792	551.8
805.207	552.6
805.601	561.7
806.016	591
806.432	553.9
806.826	590.8
807.242	576.7
807.658	557.5
808.052	556.8
808.468	558.9
808.884	553.9
809.279	562.9
809.695	566.3
810.111	579.7
810.506	568.5
810.922	578.5
811.339	555.1
811.734	565
812.151	555.4
812.546	556.2
812.963	552.5
813.38	563.8
813.776	566.4
814.193	580.3
814.589	552.4
815.006	554.7
815.402	555.6
815.82	556.2
816.237	557.9
816.633	561.6
817.051	550.6
817.448	565.7
817.866	547.6
818.262	577.5
818.68	558.7
819.077	552.1
819.495	570
819.892	600.8
820.311	555.7
820.708	559
821.127	551.9
821.524	573.7
821.943	556.4
822.34	576.9
822.759	556.9
823.157	561.5
823.576	570.2
823.974	563.6
824.393	571.2
824.791	555.7
825.189	549.9
825.609	557
826.007	564.8
826.427	550.7
826.826	553.2
827.246	565.5
827.644	539.5
828.043	563.2
828.463	550.2
828.862	567.4
829.261	564.6
829.682	549
830.081	561.1
830.502	555.1
830.901	562.6
831.301	551.2
831.722	543.4
832.121	561.6
832.521	549.6
832.943	558.6
833.342	561
833.742	550
834.164	551.9
834.564	546.6
834.965	558.2
835.386	561
835.787	557.1
836.188	558.6
836.588	558.1
837.01	558.4
837.411	545.4
837.812	560.3
838.213	559.9
838.636	548.7
839.037	620.3
839.438	561.1
839.84	560.9
840.263	559.7
840.664	559.7
841.066	554.9
841.468	556
841.891	546.7
842.293	564.3
842.695	564.1
843.098	566.1
843.5	552.8
843.902	563.4
844.326	561.3
844.729	555.9
845.131	563
845.534	559.4
845.937	570.6
846.34	576.7
846.764	551.4
847.167	566.6
847.571	547.4
847.974	554.8
848.377	551.5
