#lambda/nm	C1
208.295	480
208.67	447.6
209.045	405.1
209.419	415.9
209.794	594.1
210.169	571.2
210.544	689
210.919	590.7
211.295	576.6
211.67	589.7
212.045	580.1
212.421	582.4
212.796	622.7
213.172	576.5
213.547	580.9
213.923	582
214.299	578.4
214.675	588.9
215.051	585.4
215.427	585.4
215.803	605.8
216.179	588.6
216.555	576.8
216.932	591.5
217.308	586.8
217.684	586.3
218.061	587.5
218.438	586.4
218.814	576.8
219.191	589.6
219.568	579.8
219.945	580.8
220.322	599.9
220.699	587.6
221.076	594.7
221.453	588
221.83	579.5
222.208	582.7
222.585	583.6
222.962	581.5
223.34	588.4
223.717	586.3
224.095	584.5
224.473	585.4
224.851	579.7
225.229	577.2
225.607	603.4
225.985	579.2
226.363	592.7
226.741	588.8
227.119	580.7
227.497	604.5
227.876	574.6
228.254	592.1
228.633	583.1
229.011	583.9
229.39	591.5
229.769	595
230.148	593.8
230.527	601.7
230.905	582.7
231.284	584.7
231.664	576.6
232.043	592.5
232.422	592.9
232.801	575.5
233.181	591
233.56	582.4
233.94	588.9
234.319	578.5
234.699	579.3
235.079	624.1
235.458	622.5
235.838	597.5
236.218	578
236.598	571.4
236.978	575.6
237.358	575.6
237.738	580.4
238.119	594.4
238.499	571
238.88	586.4
239.26	599.9
239.641	578.1
240.021	590.8
240.402	584.1
240.783	578.7
241.163	586.7
241.544	588.1
241.925	585.9
242.306	596.5
242.687	582.4
243.069	586.4
243.45	590.9
243.831	581.9
244.212	576.6
244.594	624.5
244.975	595
245.357	588.4
245.739	579
246.12	583.1
246.502	597.7
246.884	587.6
247.266	582.3
247.648	589.9
248.03	609.9
248.412	589
248.794	592.6
249.176	581.8
249.559	594.5
249.941	580.9
250.323	579.5
250.706	579.3
251.089	585.1
251.471	586
251.854	591.9
252.237	584.9
252.62	594.1
253.002	584
253.385	584
253.769	601
254.152	582.8
254.535	588.5
254.918	576.3
255.301	583
255.685	586.9
256.068	581.8
256.452	605.4
256.835	589.9
257.219	591.9
257.603	600.3
257.986	580.5
258.37	585.6
258.754	584.5
259.138	589.2
259.522	598.5
259.906	583.9
260.29	592.4
260.675	582.4
261.059	587.5
261.443	580.7
261.828	590.5
262.212	591.2
262.597	574.6
262.981	584.3
263.366	591.5
263.751	585.9
264.136	581.4
264.521	584.1
264.906	581.3
265.291	597.7
265.676	586.1
266.061	590.3
266.446	610.8
266.831	584.4
267.217	597.8
267.602	593.4
267.987	590.4
268.373	582.6
268.759	588.4
269.144	585.5
269.53	584.5
269.916	589
270.302	581.5
270.688	593.2
271.074	588.4
271.46	596.5
271.846	627.1
272.232	588.3
272.618	577.4
273.004	584.9
273.391	594.3
273.777	598
274.164	591.7
274.55	598.3
274.937	590.4
275.324	586.9
275.71	594.1
276.097	593.4
276.484	578.9
276.871	589.1
277.258	596.3
277.645	581.6
278.032	589.4
278.419	579.3
278.807	589
279.194	578.4
279.581	581.7
279.969	592.3
280.356	585
280.744	587.8
281.131	607
281.519	595.2
281.907	583
282.295	582.2
282.682	599.1
283.07	588.1
283.458	593
283.846	599.6
284.235	598.1
284.623	593
285.011	576
285.399	587.4
285.788	584
286.176	582.4
286.565	599
286.953	584.9
287.342	583.5
287.731	579.7
288.119	578.1
288.508	582.6
288.897	583.8
289.286	575.2
289.675	585.8
290.064	600.6
290.453	582.4
290.821	586.8
291.21	601.9
291.599	581.5
291.989	586.3
292.378	594.5
292.768	607.2
293.157	595.2
293.547	598.2
293.936	582.3
294.326	583.9
294.716	592.9
295.106	587.3
295.496	588.8
295.886	600.9
296.276	591.1
296.666	583.5
297.056	579
297.446	575.5
297.836	609.2
298.227	593
298.617	589.6
299.008	596
299.398	582.9
299.789	578.3
300.179	593.7
300.57	599.6
300.961	583.4
301.352	578.5
301.742	594.8
302.133	591.3
302.524	586.5
302.915	587.5
303.307	578.1
303.698	592.7
304.089	590.7
304.48	585.2
304.872	591.1
305.263	586.4
305.655	579
306.046	592.4
306.438	588.3
306.829	586.1
307.221	599.7
307.613	588.9
308.005	594.6
308.397	594.4
308.789	604.9
309.181	616.6
309.573	604.9
309.965	598
310.357	584.5
310.749	589.5
311.142	577.6
311.534	582.8
311.926	594.7
312.319	588.1
312.711	582.3
313.104	598.4
313.497	587.1
313.889	624.4
314.282	606.8
314.675	613.3
315.068	590.1
315.461	593.3
315.854	622.6
316.247	593.1
316.64	585.7
317.033	588.2
317.405	598.6
317.798	590.3
318.192	590.8
318.585	581.7
318.979	595.1
319.372	576.6
319.766	588.1
320.16	591.9
320.553	601.8
320.947	607.2
321.341	583.4
321.735	585.7
322.129	574.7
322.523	608.6
322.917	581.4
323.311	593
323.705	586.3
324.099	592
324.494	603.5
324.888	595.3
325.282	586.3
325.677	591.8
326.071	595.4
326.466	602.9
326.861	589.6
327.255	602.2
327.65	594.9
328.045	601.6
328.44	591.4
328.835	591.8
329.23	584
329.625	611.5
330.02	585.5
330.415	609.6
330.81	593.2
331.206	594.6
331.601	584.9
331.996	598.4
332.37	601.5
332.766	571.7
333.161	611.6
333.557	581.4
333.953	588.9
334.348	967.6
334.744	586.3
335.14	585.1
335.536	581.2
335.932	600.4
336.328	589.5
336.724	597
337.12	584
337.516	586.3
337.913	586.8
338.309	598.8
338.705	585.8
339.102	603.9
339.498	588.1
339.895	601.7
340.291	589.4
340.688	595.5
341.085	584.3
341.481	588.6
341.878	586
342.275	607.5
342.672	582.4
343.069	580.6
343.466	580.7
343.842	595.3
344.239	576.1
344.636	584.1
345.033	583.3
345.431	586.2
345.828	591.2
346.225	580.6
346.623	595.5
347.02	593.1
347.418	596.6
347.816	599.1
348.213	579.4
348.611	586.6
349.009	579.9
349.407	600.9
349.805	580
350.203	574.2
350.601	600.7
350.999	581.5
351.397	581.9
351.795	588.2
352.193	593.4
352.57	588.7
352.969	592.6
353.367	579.8
353.766	580.2
354.164	584
354.563	592.7
354.961	587.5
355.36	582.8
355.759	583.4
356.158	576.2
356.557	580.8
356.956	576.6
357.355	576.3
357.754	587.1
358.153	584.1
358.552	604.3
358.951	587.9
359.35	595.3
359.75	577.9
360.149	578.1
360.527	569.1
360.926	571.8
361.326	586.3
361.726	581.8
362.125	578.9
362.525	585.7
362.925	580.7
363.325	583.3
363.724	581.3
364.124	578.9
364.524	579.7
364.924	574.2
365.324	592
365.725	570.8
366.125	585.4
366.525	578.8
366.904	573.8
367.304	565
367.705	603.5
368.105	593.6
368.506	578.1
368.906	582.2
369.307	584.3
369.708	580.5
370.108	567.3
370.509	594.2
370.91	575.4
371.311	584.2
371.712	585.3
372.113	578.9
372.514	571.1
372.894	585
373.295	573.2
373.696	592.7
374.097	592
374.499	604.4
374.9	586.5
375.301	574.9
375.703	579.1
376.105	572.6
376.506	579.5
376.908	581.5
377.309	578
377.711	580.6
378.113	569.4
378.493	584.2
378.895	573.9
379.297	582.4
379.699	569.6
380.102	589.5
380.504	579.8
380.906	574.9
381.308	605.3
381.71	581.1
382.113	583.3
382.515	579.2
382.918	575.9
383.299	579.9
383.701	585.8
384.104	576.7
384.507	565.9
384.909	578.5
385.312	567
385.715	570.8
386.118	577.8
386.521	570.3
386.924	587.8
387.327	570.4
387.709	568.1
388.112	565.2
388.515	578.4
388.918	578.5
389.322	585.8
389.725	571.3
390.129	602.4
390.532	582.8
390.936	573.3
391.339	575
391.743	581.1
392.125	571.6
392.529	584.4
392.933	594.4
393.337	576.7
393.74	585.6
394.144	579.1
394.548	575.4
394.953	576.8
395.357	582.3
395.761	573.9
396.144	578.3
396.548	580
396.952	577.2
397.357	576.9
397.761	577.6
398.166	574.7
398.57	574.3
398.975	567.6
399.379	576.8
399.763	619.2
400.168	579.8
400.572	580.5
400.977	576.6
401.382	597.9
401.787	593.6
402.192	597.1
402.597	589.6
403.002	565.6
403.386	582.1
403.791	592.2
404.197	573.3
404.602	579
405.007	580.3
405.413	574.9
405.818	571
406.224	568.6
406.608	571.6
407.014	567.4
407.42	594.6
407.825	574.7
408.231	592.5
408.637	585.1
409.043	590.8
409.449	574.2
409.834	573.3
410.24	576.3
410.646	589.7
411.052	589.6
411.458	585.7
411.865	587.4
412.271	592.3
412.677	585.7
413.062	584.6
413.469	573
413.875	603.2
414.282	586.4
414.689	586.9
415.095	586.3
415.502	576.6
415.888	583.3
416.294	573
416.701	618.8
417.108	574.4
417.515	586.8
417.923	571.5
418.33	593
418.715	585.9
419.123	579.2
419.53	575.5
419.937	579.6
420.345	590.2
420.752	573.5
421.16	595.3
421.546	579.5
421.953	588.3
422.361	573.2
422.769	585.2
423.177	573.5
423.585	602.6
423.992	603.2
424.379	592.4
424.787	593.7
425.195	601.7
425.603	585.6
426.011	591.5
426.419	592.9
426.806	582.8
427.214	583.9
427.623	595.3
428.031	599.6
428.44	588.8
428.848	595.1
429.235	594.5
429.644	586.8
430.053	582.1
430.461	598.4
430.87	614.2
431.279	591.7
431.666	574.1
432.075	584.8
432.484	589.6
432.893	582.8
433.302	598.9
433.711	626.7
434.099	585.1
434.508	580.3
434.918	576.1
435.327	588.5
435.737	586.8
436.125	577.5
436.534	578.9
436.944	582.5
437.353	588.7
437.763	602.2
438.173	573.6
438.561	597.5
438.971	566.6
439.381	571.2
439.791	579.2
440.201	558.8
440.589	578.3
440.999	591
441.409	587.8
441.819	566.4
442.23	588.9
442.619	587.1
443.029	578.8
443.439	582.3
443.85	588.2
444.26	603.5
444.649	587.6
445.06	581
445.471	572.9
445.881	582.1
446.292	598
446.682	601.2
447.092	565.3
447.503	624
447.914	580.9
448.325	582.4
448.715	578
449.126	573.2
449.537	579.3
449.948	578.6
450.338	580.1
450.75	588
451.161	583.1
451.572	580.4
451.984	570.8
452.374	561.5
452.786	573.6
453.197	581.5
453.609	587.8
453.999	556.9
454.411	571
454.823	584.2
455.235	577.2
455.647	573.1
456.037	579.9
456.449	566.3
456.862	577.5
457.274	576.2
457.665	567.6
458.077	579.6
458.489	584.7
458.902	569
459.293	578.1
459.705	577.9
460.118	572.4
460.53	576.8
460.921	576.4
461.334	575.5
461.747	575.8
462.16	587.9
462.551	588.7
462.964	584.1
463.377	568.1
463.79	571.1
464.182	585.5
464.595	568.4
465.008	579.5
465.421	580.3
465.813	572.6
466.226	584.9
466.64	571.8
467.053	618.3
467.445	585.1
467.859	581.4
468.272	576.6
468.686	586.1
469.078	575.1
469.492	563.3
469.906	575.7
470.298	577.5
470.712	568.1
471.126	601.4
471.54	564.3
471.933	566.7
472.347	570.5
472.761	569.6
473.175	559.1
473.568	568.7
473.982	555.1
474.397	577.5
474.79	573.7
475.204	576.1
475.619	572.9
476.033	572.5
476.426	571
476.841	564
477.256	592
477.649	566
478.064	562.5
478.479	565.7
478.872	563.2
479.287	557.8
479.702	565.8
480.118	571.7
480.511	569.4
480.927	558.9
481.342	563.1
481.736	577
482.151	570.1
482.566	575.9
482.96	571.1
483.376	589.6
483.792	572
484.186	579.6
484.602	569.9
485.017	568.1
485.412	576.5
485.827	576
486.243	574.9
486.638	594.4
487.054	579
487.47	586.2
487.865	569.6
488.281	571.8
488.697	565.5
489.092	568.9
489.508	563.3
489.925	584.4
490.32	559.3
490.736	578.5
491.153	570.6
491.548	574
491.964	578.5
492.381	556.5
492.776	579.2
493.193	569.2
493.61	571.4
494.006	575.4
494.422	581.9
494.84	559.2
495.235	579.1
495.652	572.3
496.069	570.9
496.465	561.3
496.883	565.2
497.3	594.2
497.696	558.5
498.113	576.4
498.509	558.7
498.927	554.7
499.344	560.1
499.741	566.9
500.158	575
500.576	579.7
500.973	573.3
501.39	564.1
501.787	564.6
502.205	574.2
502.623	561.7
503.02	556.9
503.438	562.8
503.856	565.5
504.253	571.8
504.671	575.4
505.068	566.6
505.486	567
505.905	587.5
506.302	574.1
506.72	584.8
507.118	560.5
507.536	564.5
507.955	569.3
508.352	573.6
508.771	576.6
509.169	576.1
509.587	564.8
510.006	570.6
510.404	557
510.823	564.8
511.221	561.6
511.64	564.6
512.038	579.8
512.457	569.9
512.877	567
513.275	562.7
513.694	567.9
514.092	569.4
514.512	572.5
514.91	566.8
515.33	570.1
515.749	566.4
516.148	568.1
516.568	573.2
516.966	564.7
517.386	566.2
517.785	563.2
518.205	566.6
518.603	567.6
519.024	556
519.444	568.9
519.843	578
520.263	571.9
520.662	568.2
521.082	566
521.481	569.4
521.902	572.2
522.301	568.9
522.722	570.8
523.121	568.1
523.542	562.9
523.963	571
524.362	571.2
524.783	573.6
525.183	565.4
525.604	569.8
526.003	564.2
526.425	565.9
526.824	573.8
527.246	572.3
527.646	579.3
528.067	569.4
528.467	572.5
528.888	572.3
529.289	567.9
529.71	568.1
530.11	568.1
530.532	570.8
530.932	568.2
531.354	560.5
531.755	600
532.176	576
532.577	568.8
532.999	570.5
533.4	564.9
533.822	584.3
534.223	568.2
534.645	568.1
535.046	561.9
535.468	575.8
535.869	587.8
536.292	558
536.693	562.8
537.115	574.9
537.516	559.2
537.939	560.2
538.34	579.5
538.742	582.1
539.165	570.9
539.566	565.2
539.989	564.8
540.391	562.4
540.814	565.1
541.216	569.9
541.639	570.4
542.041	575.8
542.464	563.5
542.866	565.6
543.268	560.8
543.691	572.1
544.093	570.3
544.517	586.8
544.919	555.9
545.343	592.5
545.745	557
546.147	567.9
546.571	556.9
546.974	562.3
547.398	570.5
547.8	579.7
548.224	571.5
548.627	561.4
549.03	573.7
549.454	560.6
549.857	555.8
550.281	567.5
550.684	560
551.087	573.8
551.512	565.2
551.915	569.2
552.34	566.9
552.743	567.2
553.146	572.3
553.571	561.8
553.975	581.4
554.399	557.2
554.803	606.6
555.207	559.3
555.632	559.2
556.036	566.5
556.461	556.1
556.865	563.1
557.268	556.1
557.694	558.3
558.098	567.2
558.502	564.3
558.927	550.4
559.332	562.8
559.736	564
560.162	574
560.566	562.9
560.992	570.7
561.396	562.4
561.801	561.3
562.227	567.2
562.631	562.1
563.036	562.3
563.462	570.9
563.867	563.9
564.272	550.9
564.698	568.8
565.103	554.1
565.508	575.4
565.935	561.8
566.34	565.5
566.745	578.9
567.172	562.8
567.577	581.9
567.982	578.5
568.409	565.7
568.815	556.7
569.22	559.5
569.626	572.3
570.053	552.9
570.459	564.4
570.865	569
571.292	569.9
571.698	568.8
572.104	553.7
572.531	559
572.937	574.1
573.343	569.7
573.75	566.1
574.177	566.3
574.583	571.3
574.99	564.2
575.396	568.4
575.824	560.7
576.231	563.5
576.637	563.6
577.065	594.5
577.472	566.5
577.879	560.9
578.286	577.3
578.714	559.6
579.121	561.3
579.528	565
579.935	568.2
580.364	567.7
580.771	551.8
581.178	559
581.585	566
582.014	571.9
582.421	556.6
582.829	559.3
583.236	568
583.644	562.4
584.073	560.9
584.481	563.5
584.889	561.3
585.296	573.4
585.726	566.2
586.134	556.4
586.542	554.2
586.95	582.1
587.358	552.6
587.787	561.4
588.196	554.2
588.604	559.3
589.012	560.1
589.421	561.1
589.851	554.5
590.259	567.6
590.668	561.7
591.076	600.3
591.485	550.9
591.894	559.3
592.324	577.3
592.733	578.9
593.142	553.2
593.551	557.9
593.96	592.8
594.369	555.1
594.8	554.5
595.209	556.2
595.618	547.9
596.028	558.9
596.437	559.7
596.847	566.9
597.256	562.3
597.687	567.1
598.097	557.3
598.507	551.7
598.917	561.1
599.327	568.7
599.736	570.1
600.146	568.4
600.556	565.7
600.988	574.3
601.398	565.7
601.808	574.5
602.219	552.3
602.629	563
603.039	569.5
603.45	594.3
603.86	562.8
604.271	577.6
604.703	563.3
605.114	565.1
605.525	560.1
605.935	571.6
606.346	585.9
606.757	567.6
607.168	564.5
607.579	559.3
607.99	571.9
608.402	565.2
608.813	563.7
609.224	558.1
609.636	553.8
610.047	557.7
610.48	562.8
610.892	570.1
611.303	568.7
611.715	557.5
612.127	555.6
612.539	557.4
612.95	559.2
613.362	548.4
613.774	555.9
614.186	554.5
614.599	558.5
615.011	575.1
615.423	553.7
615.835	556.7
616.248	553.8
616.66	568.6
617.073	557.2
617.485	560.2
617.898	567.1
618.311	562
618.723	561.4
619.136	595.1
619.549	575.7
619.962	585.4
620.375	564.1
620.788	564.1
621.201	557.7
621.614	565.8
622.028	560.4
622.441	560.3
622.854	572.1
623.268	555
623.681	564.1
624.095	561.1
624.509	568.3
624.922	569.2
625.336	548.6
625.728	567.1
626.142	571.4
626.556	580.2
626.97	570.2
627.384	559.8
627.799	562.5
628.213	572.9
628.627	562
629.041	563
629.456	556
629.87	561.2
630.285	569
630.699	575.6
631.093	558.4
631.507	564.8
631.922	572.8
632.337	574.1
632.752	555.6
633.167	558.9
633.582	558.7
633.997	560.8
634.412	558.8
634.806	560.9
635.221	556.6
635.637	570
636.052	555.7
636.468	564.7
636.883	577.3
637.299	563.2
637.715	548
638.109	560.9
638.525	553
638.941	575.7
639.357	567.2
639.773	576.7
640.189	557.3
640.584	560.8
641	563.8
641.416	549.2
641.832	557.4
642.249	553
642.665	559.6
643.06	567.7
643.477	570.1
643.894	544.7
644.31	561.8
644.727	561.6
645.123	556.7
645.54	557.7
645.957	564.5
646.374	563.1
646.77	558
647.187	587.6
647.604	566.1
648.021	545.2
648.439	557.1
648.835	561.1
649.252	557.2
649.67	554.1
650.088	558.5
650.484	562.8
650.902	564.7
651.32	565.6
651.738	557.4
652.134	559.7
652.552	578.6
652.971	567.5
653.389	560.3
653.786	571.5
654.204	568.7
654.622	554.7
655.019	557.8
655.438	563.4
655.857	559.5
656.275	568.4
656.673	554.5
657.091	627.5
657.51	557.9
657.908	570.4
658.327	578.9
658.746	543.8
659.144	560
659.563	568.5
659.982	560.8
660.38	549.6
660.8	562.4
661.219	572.3
661.617	562.8
662.037	564.6
662.457	569.8
662.855	547.5
663.275	592.1
663.695	557.7
664.094	556.1
664.514	563.9
664.934	553.8
665.333	564.6
665.753	550.8
666.152	548.2
666.572	548.9
666.993	571
667.392	555.6
667.812	553.9
668.212	558.2
668.632	565.9
669.053	558.9
669.453	564.8
669.874	560.2
670.273	556.9
670.694	556
671.116	571.8
671.515	567.1
671.937	562.3
672.337	552.2
672.758	554.4
673.158	568.7
673.58	552.7
673.98	567.2
674.402	570.8
674.824	559.7
675.224	559.4
675.646	552.2
676.047	557.3
676.469	562.4
676.869	561.9
677.292	560.6
677.693	555.2
678.115	556.6
678.516	568.7
678.939	567.2
679.34	560.9
679.762	570.2
680.164	565.8
680.586	554.5
680.988	562.6
681.411	581.6
681.812	555.9
682.236	554.7
682.637	551.9
683.061	546.2
683.462	560.9
683.864	557.4
684.288	564.9
684.69	547.8
685.114	564.4
685.516	565.4
685.94	550.4
686.342	559.9
686.766	552.5
687.168	557.1
687.571	571.9
687.995	555.3
688.398	551.9
688.822	556.6
689.225	573.4
689.628	573.3
690.052	555.9
690.456	564
690.88	559.2
691.284	545.6
691.687	568.4
692.112	550.2
692.515	554.3
692.919	560.4
693.344	564
693.747	555.7
694.173	555.7
694.577	567.1
694.98	558.6
695.406	554.2
695.81	564
696.214	559.4
696.64	560.7
697.044	564.2
697.448	571.6
697.874	561
698.279	558
698.684	551.3
699.11	549.8
699.514	554.2
699.919	552.1
700.324	547
700.75	557.4
701.156	556.3
701.561	569.6
701.987	564.2
702.393	568
702.798	566.7
703.203	559
703.63	549.2
704.036	552.1
704.442	557.4
704.847	551.4
705.274	555.5
705.68	561.8
706.086	563
706.492	545.7
706.92	557.6
707.326	559.4
707.732	555.2
708.139	549.6
708.545	551.1
708.973	559.1
709.38	555.4
709.786	546.3
710.193	566.1
710.6	557.6
711.028	550.6
711.435	561.3
711.842	556.4
712.249	561.5
712.656	561.7
713.064	560.7
713.492	549.4
713.9	553.5
714.307	568.3
714.715	559.6
715.123	560.1
715.53	564.1
715.938	566.6
716.367	558
716.775	552.8
717.184	552.2
717.592	556.6
718	565.6
718.408	592.8
718.816	601.1
719.225	562.6
719.633	559.2
720.042	554.8
720.472	549.8
720.881	581.2
721.29	560.8
721.699	547.9
722.108	557.9
722.517	556.6
722.926	554.1
723.335	562.7
723.744	556.5
724.154	555.6
724.563	559.1
724.973	563.5
725.382	556.4
725.792	553.4
726.202	550.5
726.612	568.6
727.022	553
727.432	554.5
779.813	553.2
780.223	596.7
780.634	545.9
781.044	552.5
781.454	556
781.865	570
782.276	551
782.686	566.4
783.097	557.7
783.508	554
783.919	562.3
784.33	565.6
784.741	569.7
785.152	547.4
785.563	544.8
785.974	548.4
786.386	564.9
786.776	556.8
787.188	559.1
787.599	549.4
788.011	566.5
788.423	564.9
788.835	553.6
789.247	547.8
789.659	547.2
790.071	551.2
790.483	593.5
790.874	551
791.286	560.4
791.699	549.3
792.111	560.2
792.524	560
792.937	556.4
793.349	544.4
793.741	545.2
794.154	555.8
794.567	570.5
794.98	553.6
795.393	543.1
795.785	569
796.198	552.5
796.612	547.2
797.026	549.9
797.439	540.7
797.831	552.2
798.245	548.7
798.659	553.2
799.073	552.7
799.487	547.3
799.88	557.3
800.294	561
800.708	562.1
801.123	552.9
801.516	572.7
801.93	541.6
802.345	539.2
802.76	558.1
803.153	563.3
803.568	569.2
803.983	567.8
804.377	561.4
804.792	548.1
805.207	544.2
805.601	554.8
806.016	583.8
806.432	549.6
806.826	581.8
807.242	566.4
807.658	562.2
808.052	549.5
808.468	548.7
808.884	549.7
809.279	552
809.695	563
810.111	573.8
810.506	558.5
810.922	566.2
811.339	549.4
811.734	562.8
812.151	550.2
812.546	550.7
812.963	549.4
813.38	556.4
813.776	552.4
814.193	574.1
814.589	547.9
815.006	551.3
815.402	554
815.82	551.7
816.237	554.4
816.633	552.3
817.051	547.1
817.448	549.2
817.866	550.4
818.262	573.7
818.68	546.6
819.077	547.8
819.495	553.6
819.892	599.6
820.311	549.7
820.708	546.9
821.127	549.4
821.524	560
821.943	560.6
822.34	574.1
822.759	558.2
823.157	555.2
823.576	572.2
823.974	561.7
824.393	563.8
824.791	554.4
825.189	545.3
825.609	550
826.007	556.2
826.427	544.6
826.826	548.8
827.246	559.8
827.644	545.1
828.043	561.8
828.463	548.1
828.862	562.4
829.261	559.2
829.682	540.9
830.081	556.3
830.502	544.7
830.901	556.9
831.301	552.7
831.722	542.9
832.121	557.8
832.521	550.9
832.943	548.6
833.342	555.5
833.742	542.7
834.164	544.4
834.564	544.9
834.965	554
835.386	555.1
835.787	550.2
836.188	557.1
836.588	552
837.01	550.9
837.411	549.9
837.812	559.6
838.213	556.8
838.636	554.8
839.037	618.4
839.438	553.1
839.84	551.9
840.263	559.5
840.664	554
841.066	551.2
841.468	554.5
841.891	549.7
842.293	560.3
842.695	560.5
843.098	564.2
843.5	557.6
843.902	563.2
844.326	560.5
844.729	553.5
845.131	567.3
845.534	550.9
845.937	563.8
846.34	568.3
846.764	556.2
847.167	551.7
