#lambda/nm	C1
208.295	487.9
208.67	450.2
209.045	411.5
209.419	414.3
209.794	595.4
210.169	574.4
210.544	699.9
210.919	592.7
211.295	586.2
211.67	596.1
212.045	586.6
212.421	590
212.796	629.5
213.172	584.9
213.547	586.4
213.923	591
214.299	589
214.675	596.9
215.051	590.3
215.427	598.8
215.803	611.5
216.179	602.1
216.555	583.6
216.932	601.6
217.308	589.7
217.684	594
218.061	596
218.438	595.1
218.814	588.8
219.191	602.5
219.568	586.2
219.945	588.9
220.322	597
220.699	591.7
221.076	606.5
221.453	597.7
221.83	585.6
222.208	582.1
222.585	591.7
222.962	595.9
223.34	595.1
223.717	593.5
224.095	586.6
224.473	594.8
224.851	589.8
225.229	589.4
225.607	606.7
225.985	582.7
226.363	598.9
226.741	587.6
227.119	590.9
227.497	603.4
227.876	583.4
228.254	601.3
228.633	602.2
229.011	596.7
229.39	593.7
229.769	594.1
230.148	602.1
230.527	610.1
230.905	598.8
231.284	599.6
231.664	587.7
232.043	605.6
232.422	600.6
232.801	593.7
233.181	596.1
233.56	592
233.94	592.3
234.319	581
234.699	588.5
235.079	625.7
235.458	628.8
235.838	609.8
236.218	586.8
236.598	585.6
236.978	590.3
237.358	588.4
237.738	591
238.119	598
238.499	587.2
238.88	596.6
239.26	602.3
239.641	582.5
240.021	594.3
240.402	596.6
240.783	590.3
241.163	590.9
241.544	595.5
241.925	587.2
242.306	609.4
242.687	588.7
243.069	594.4
243.45	604.1
243.831	591.9
244.212	589.6
244.594	626.3
244.975	605.7
245.357	598.6
245.739	586.7
246.12	592.2
246.502	607.1
246.884	590
247.266	595.5
247.648	603.8
248.03	613.8
248.412	594.3
248.794	602.5
249.176	584.4
249.559	602.1
249.941	579.4
250.323	585.8
250.706	589.1
251.089	593.6
251.471	599.6
251.854	588.1
252.237	599.3
252.62	596.4
253.002	592.2
253.385	591.8
253.769	605.3
254.152	591.4
254.535	595.5
254.918	586.2
255.301	590.5
255.685	589.4
256.068	582.6
256.452	612.7
256.835	599.9
257.219	598.5
257.603	603.6
257.986	588.1
258.37	600.2
258.754	582.6
259.138	604.3
259.522	600.6
259.906	590.8
260.29	596.5
260.675	591.5
261.059	591
261.443	583.5
261.828	596.5
262.212	594.3
262.597	579.3
262.981	590.8
263.366	600.8
263.751	592.2
264.136	586
264.521	590.1
264.906	584.7
265.291	607.6
265.676	588.2
266.061	599.7
266.446	609.5
266.831	592.5
267.217	615.9
267.602	600.4
267.987	600.3
268.373	585.2
268.759	599.8
269.144	600.5
269.53	594.4
269.916	588
270.302	585.8
270.688	600.3
271.074	594.8
271.46	607.7
271.846	628.9
272.232	596.5
272.618	592.2
273.004	596.8
273.391	598.6
273.777	606.1
274.164	598.4
274.55	612.4
274.937	592.6
275.324	590.9
275.71	597.1
276.097	600.4
276.484	586
276.871	599.1
277.258	595.1
277.645	580.4
278.032	590.2
278.419	591.4
278.807	597.2
279.194	587
279.581	592.5
279.969	604.5
280.356	598.9
280.744	593.2
281.131	619.3
281.519	608.8
281.907	589.3
282.295	595.4
282.682	609.4
283.07	589.9
283.458	607.8
283.846	608.3
284.235	609.3
284.623	607.3
285.011	587.3
285.399	597.5
285.788	591.7
286.176	581.9
286.565	607
286.953	592.2
287.342	589.5
287.731	588.2
288.119	583.1
288.508	593.1
288.897	597.9
289.286	582.5
289.675	598.3
290.064	601.6
290.453	590.5
290.821	589.9
291.21	606.4
291.599	586
291.989	592.7
292.378	597.8
292.768	611.5
293.157	600.5
293.547	601.8
293.936	593.4
294.326	590
294.716	597.9
295.106	593.4
295.496	597.5
295.886	603.9
296.276	596.9
296.666	589
297.056	584.8
297.446	583.4
297.836	612.1
298.227	592.5
298.617	600.2
299.008	605.5
299.398	590.9
299.789	592.5
300.179	599.9
300.57	608.2
300.961	589.5
301.352	592.3
301.742	603.8
302.133	600.8
302.524	597.3
302.915	595.8
303.307	590.3
303.698	604.7
304.089	602.1
304.48	596.6
304.872	603.4
305.263	599.5
305.655	589.4
306.046	596
306.438	600.9
306.829	590.1
307.221	606.9
307.613	597.6
308.005	607
308.397	614.9
308.789	609.4
309.181	619
309.573	602.9
309.965	609.6
310.357	595.2
310.749	597.7
311.142	589.6
311.534	587.7
311.926	602.8
312.319	592.3
312.711	590.7
313.104	609.6
313.497	591.6
313.889	630.7
314.282	611.3
314.675	619.1
315.068	599.9
315.461	604.5
315.854	622.1
316.247	602.2
316.64	598.3
317.033	596.8
317.405	605.7
317.798	597.8
318.192	599.4
318.585	594.5
318.979	604.8
319.372	583.5
319.766	593.6
320.16	606.1
320.553	607.5
320.947	616.5
321.341	597.5
321.735	595.5
322.129	580.9
322.523	618.6
322.917	588.6
323.311	608.3
323.705	597.8
324.099	599.7
324.494	609.5
324.888	604.1
325.282	592.9
325.677	604.5
326.071	595.7
326.466	606.3
326.861	598.2
327.255	607
327.65	611.7
328.045	612.8
328.44	602.1
328.835	595.1
329.23	594.6
329.625	621.5
330.02	586.5
330.415	612.3
330.81	597.9
331.206	598.7
331.601	591.5
331.996	608.2
332.37	603.5
332.766	586.4
333.161	619.6
333.557	594.7
333.953	600.1
334.348	929.2
334.744	597.1
335.14	591.7
335.536	588.6
335.932	606.8
336.328	593.4
336.724	602.1
337.12	591.8
337.516	602
337.913	599.1
338.309	607.2
338.705	601.4
339.102	608.6
339.498	592
339.895	612
340.291	592.5
340.688	609.3
341.085	594
341.481	593.8
341.878	597.1
342.275	618.7
342.672	587.4
343.069	590.3
343.466	587.4
343.842	610.2
344.239	589.3
344.636	593.8
345.033	588.6
345.431	585.3
345.828	596.3
346.225	586.9
346.623	605.5
347.02	594.4
347.418	599.5
347.816	604.3
348.213	583.6
348.611	605.9
349.009	597.2
349.407	609.9
349.805	585.5
350.203	584.3
350.601	607.9
350.999	589.7
351.397	589.9
351.795	592.2
352.193	608.2
352.57	597.1
352.969	612.8
353.367	586
353.766	582.9
354.164	591.5
354.563	600.2
354.961	596.4
355.36	589.2
355.759	594.8
356.158	586.8
356.557	584.1
356.956	581.2
357.355	579.5
357.754	595.7
358.153	600.2
358.552	616.9
358.951	584.5
359.35	597.2
359.75	584.8
360.149	578.8
360.527	579.2
360.926	580.9
361.326	586.6
361.726	591
362.125	584.6
362.525	594.3
362.925	584.1
363.325	585.4
363.724	589.2
364.124	582.7
364.524	580.8
364.924	590.5
365.324	599.2
365.725	576.6
366.125	589.5
366.525	586.3
366.904	581.6
367.304	567.6
367.705	607.5
368.105	597.6
368.506	586
368.906	588.1
369.307	579.5
369.708	595.3
370.108	578
370.509	601
370.91	583
371.311	591.3
371.712	589.3
372.113	585.8
372.514	575.6
372.894	585.7
373.295	584.7
373.696	595.8
374.097	595.7
374.499	616.6
374.9	587.8
375.301	584.6
375.703	589.2
376.105	582.1
376.506	594.6
376.908	596.4
377.309	589.6
377.711	588.7
378.113	583.1
378.493	590.7
378.895	583.4
379.297	592.1
379.699	575.9
380.102	597.2
380.504	589.5
380.906	585.4
381.308	614.7
381.71	588.7
382.113	599.7
382.515	587.5
382.918	592.4
383.299	587.2
383.701	594.1
384.104	592
384.507	570
384.909	590.3
385.312	580.1
385.715	580.2
386.118	579.3
386.521	571.6
386.924	595.5
387.327	577.3
387.709	573.2
388.112	569.7
388.515	585.7
388.918	585.4
389.322	592.1
389.725	585
390.129	606.8
390.532	591.4
390.936	584.5
391.339	577.1
391.743	587.2
392.125	577.8
392.529	591.5
392.933	605.3
393.337	585.1
393.74	586.3
394.144	586.2
394.548	581.1
394.953	585
395.357	588.8
395.761	580.4
396.144	590
396.548	589.9
396.952	583.4
397.357	585.9
397.761	580.9
398.166	588.6
398.57	584.8
398.975	580
399.379	592.4
399.763	637
400.168	589.2
400.572	587.8
400.977	578.3
401.382	602.1
401.787	594.3
402.192	602
402.597	597
403.002	573.8
403.386	599.8
403.791	608
404.197	578.2
404.602	589.6
405.007	588.7
405.413	580.9
405.818	580.4
406.224	580.6
406.608	586.8
407.014	579.2
407.42	603.9
407.825	582.9
408.231	594.5
408.637	591
409.043	597.1
409.449	583.6
409.834	578.6
410.24	580.8
410.646	595
411.052	593.7
411.458	592
411.865	598.8
412.271	598.2
412.677	589.4
413.062	594.5
413.469	580.8
413.875	612.8
414.282	590.3
414.689	598.5
415.095	599.4
415.502	588.3
415.888	588.8
416.294	577.8
416.701	630.8
417.108	580.7
417.515	598.5
417.923	585
418.33	611.7
418.715	596.5
419.123	579.8
419.53	582.9
419.937	589.4
420.345	599.3
420.752	580.5
421.16	601.4
421.546	587.6
421.953	590.3
422.361	584.4
422.769	586
423.177	581.1
423.585	616.3
423.992	608.6
424.379	602
424.787	599.7
425.195	604.1
425.603	589.5
426.011	601.1
426.419	603.5
426.806	593.9
427.214	593.4
427.623	601.5
428.031	611.6
428.44	594.8
428.848	607.7
429.235	605.8
429.644	596.7
430.053	591.4
430.461	597.6
430.87	615.5
431.279	597.5
431.666	590.5
432.075	592.9
432.484	600.2
432.893	595.7
433.302	613
433.711	631.6
434.099	597
434.508	585.7
434.918	578.1
435.327	594.6
435.737	591.8
436.125	595.5
436.534	589.9
436.944	593
437.353	593
437.763	609.7
438.173	583.8
438.561	605.3
438.971	572.3
439.381	589.3
439.791	598.1
440.201	568.6
440.589	586.9
440.999	596.3
441.409	587
441.819	574.5
442.23	594.2
442.619	596.2
443.029	586.9
443.439	594.3
443.85	593.7
444.26	598.6
444.649	589.3
445.06	582.6
445.471	581.4
445.881	585.1
446.292	601.4
446.682	612.2
447.092	575.8
447.503	632.3
447.914	590.5
448.325	586.8
448.715	589.7
449.126	578.5
449.537	583.6
449.948	582.9
450.338	589.8
450.75	594.7
451.161	587.4
451.572	591.2
451.984	583
452.374	568.2
452.786	586.4
453.197	588.9
453.609	584.1
453.999	572.5
454.411	572.9
454.823	592.1
455.235	587
455.647	579.8
456.037	589.7
456.449	572.6
456.862	582.5
457.274	584.7
457.665	573.1
458.077	585
458.489	588.5
458.902	577.9
459.293	587.2
459.705	587.4
460.118	576.4
460.53	586.5
460.921	584.3
461.334	584.4
461.747	586.7
462.16	595.8
462.551	594
462.964	584.6
463.377	572.3
463.79	581.4
464.182	591.1
464.595	574.8
465.008	588.2
465.421	591.6
465.813	572.7
466.226	588.2
466.64	577.5
467.053	629
467.445	591.2
467.859	589.6
468.272	582.7
468.686	595.5
469.078	578.5
469.492	571.8
469.906	586.8
470.298	590
470.712	580.7
471.126	608.2
471.54	572.6
471.933	568.6
472.347	574.8
472.761	579.1
473.175	576.4
473.568	579.3
473.982	568.8
474.397	580.8
474.79	577.6
475.204	592.2
475.619	582.6
476.033	583.9
476.426	583.1
476.841	571.9
477.256	602.8
477.649	574.4
478.064	571.7
478.479	574.4
478.872	574.8
479.287	570.9
479.702	574.9
480.118	582.3
480.511	574.5
480.927	571.4
481.342	573.4
481.736	585.2
482.151	579.6
482.566	595.9
482.96	582
483.376	585.1
483.792	573.6
484.186	583.9
484.602	576.2
485.017	579.3
485.412	573.4
485.827	586.7
486.243	575.5
486.638	602.6
487.054	588.5
487.47	598.5
487.865	571.1
488.281	583.2
488.697	570
489.092	579.2
489.508	565.8
489.925	589.8
490.32	574
490.736	583.8
491.153	582.8
491.548	581.1
491.964	590.9
492.381	565.2
492.776	585.5
493.193	579.1
493.61	582.3
494.006	583.2
494.422	586.6
494.84	572.7
495.235	593.5
495.652	582.3
496.069	581.9
496.465	571.4
496.883	577.8
497.3	599.4
497.696	574.3
498.113	590.3
498.509	571.4
498.927	564.4
499.344	576.4
499.741	572.2
500.158	585.8
500.576	588.7
500.973	574.8
501.39	577
501.787	570.2
502.205	578.9
502.623	567
503.02	562.5
503.438	577.1
503.856	574.7
504.253	577.6
504.671	577.8
505.068	575.1
505.486	574.7
505.905	601.1
506.302	577
506.72	587.7
507.118	573.6
507.536	582.1
507.955	573.8
508.352	577.6
508.771	585.7
509.169	582.7
509.587	572.1
510.006	578.9
510.404	570.2
510.823	570.8
511.221	574
511.64	574.1
512.038	587
512.457	579.3
512.877	575
513.275	577
513.694	576
514.092	574.4
514.512	583.1
514.91	575.1
515.33	575.9
515.749	575.2
516.148	578.2
516.568	579
516.966	573.3
517.386	574.9
517.785	574.5
518.205	572.3
518.603	571.2
519.024	568.4
519.444	580.3
519.843	581.4
520.263	582.7
520.662	580.1
521.082	574.4
521.481	577.1
521.902	579.1
522.301	579.1
522.722	577.1
523.121	577.8
523.542	575.2
523.963	575
524.362	579
524.783	579.3
525.183	574.5
525.604	579
526.003	571.3
526.425	573.2
526.824	579.7
527.246	582.6
527.646	585.6
528.067	579.2
528.467	583.4
528.888	579.4
529.289	582.1
529.71	578.8
530.11	570.8
530.532	573.1
530.932	567.4
531.354	568.3
531.755	610.3
532.176	585.1
532.577	574.9
532.999	575.6
533.4	567.8
533.822	585.2
534.223	575.1
534.645	570
535.046	569.6
535.468	575.2
535.869	590.1
536.292	568.8
536.693	571.4
537.115	574.4
537.516	576.4
537.939	570.6
538.34	589.4
538.742	589
539.165	580.5
539.566	578.4
539.989	569.4
540.391	579.9
540.814	576.3
541.216	575.9
541.639	573.2
542.041	580.5
542.464	570.5
542.866	568.7
543.268	564.2
543.691	579.9
544.093	575.9
544.517	596.5
544.919	571.2
545.343	598.5
545.745	573.5
546.147	580.3
546.571	573.5
546.974	563.8
547.398	575.6
547.8	590.2
548.224	574.7
548.627	567.2
549.03	581.9
549.454	565.5
549.857	562.4
550.281	570
550.684	566.2
551.087	588.5
551.512	574.3
551.915	580.3
552.34	573
552.743	575.7
553.146	571.9
553.571	574.5
553.975	598
554.399	565.9
554.803	620.7
555.207	573
555.632	563.6
556.036	579.9
556.461	565.2
556.865	573
557.268	558.1
557.694	571.6
558.098	572
558.502	575.1
558.927	568.4
559.332	569.6
559.736	573.1
560.162	574.8
560.566	573.9
560.992	570.4
561.396	570
561.801	572.7
562.227	575
562.631	572.6
563.036	571.6
563.462	579.5
563.867	571.3
564.272	561.6
564.698	574.7
565.103	559.8
565.508	589.5
565.935	577.3
566.34	573.4
566.745	580.7
567.172	573.7
567.577	590.1
567.982	582.7
568.409	573.7
568.815	567.5
569.22	580.1
569.626	580.3
570.053	560.1
570.459	573.9
570.865	577
571.292	574.8
571.698	575.3
572.104	562.4
572.531	566.2
572.937	581.4
573.343	573.6
573.75	566.8
574.177	571.6
574.583	578.9
574.99	578.2
575.396	579.4
575.824	570.2
576.231	577.7
576.637	567.4
577.065	593.9
577.472	570.9
577.879	575.3
578.286	592
578.714	563.5
579.121	574.9
579.528	572.2
579.935	580.4
580.364	574.2
580.771	555.1
581.178	564.5
581.585	572.8
582.014	578.3
582.421	563.5
582.829	569.3
583.236	580.6
583.644	565.4
584.073	561.3
584.481	570.8
584.889	562.8
585.296	574.3
585.726	577.4
586.134	563.9
586.542	569
586.95	595
587.358	561
587.787	567.5
588.196	562.9
588.604	572.4
589.012	574.5
589.421	565
589.851	566.3
590.259	568.5
590.668	570
591.076	609
591.485	569.8
591.894	570
592.324	583
592.733	589.8
593.142	564.6
593.551	566.1
593.96	574.7
594.369	557.8
594.8	559.6
595.209	562.1
595.618	555.4
596.028	567.1
596.437	560.7
596.847	570.1
597.256	576
597.687	574.1
598.097	571
598.507	561.4
598.917	568.2
599.327	574
599.736	573.1
600.146	580.2
600.556	569.4
600.988	581.6
601.398	568.3
601.808	578.3
602.219	560
602.629	567.4
603.039	577
603.45	598.2
603.86	569.4
604.271	588.2
604.703	574.1
605.114	570.3
605.525	573.6
605.935	576.7
606.346	593.3
606.757	583.5
607.168	575.1
607.579	566.8
607.99	581.1
608.402	575.3
608.813	580.8
609.224	564.2
609.636	566.7
610.047	564.6
610.48	573.3
610.892	575.4
611.303	576.3
611.715	569.2
612.127	559.1
612.539	557.9
612.95	570.7
613.362	564.3
613.774	561.9
614.186	562.6
614.599	566.4
615.011	584.8
615.423	556.3
615.835	563.2
616.248	558.4
616.66	574.2
617.073	562.9
617.485	566.5
617.898	575.8
618.311	569.3
618.723	566.8
619.136	598
619.549	584.5
619.962	598.1
620.375	568.9
620.788	576.3
621.201	557
621.614	578.5
622.028	570.1
622.441	576.5
622.854	586.6
623.268	564.3
623.681	574.9
624.095	576.8
624.509	579.5
624.922	572.7
625.336	561.3
625.728	573.1
626.142	576.4
626.556	587
626.97	575.4
627.384	570.3
627.799	567.3
628.213	580.4
628.627	567.3
629.041	567.7
629.456	564.6
629.87	569.1
630.285	582
630.699	578.3
631.093	570.5
631.507	573.7
631.922	576.7
632.337	582.5
632.752	560
633.167	569.5
633.582	567.3
633.997	564.2
634.412	559.9
634.806	571.5
635.221	559.7
635.637	581
636.052	557.6
636.468	569.9
636.883	583.4
637.299	563.9
637.715	559.9
638.109	569.8
638.525	558.9
638.941	580
639.357	572.6
639.773	579.4
640.189	565.4
640.584	565.1
641	568.7
641.416	555.7
641.832	568
642.249	567.9
642.665	564.1
643.06	575.4
643.477	575.3
643.894	553.4
644.31	564.6
644.727	569.6
645.123	570.2
645.54	563.6
645.957	572.9
646.374	569.8
646.77	566.8
647.187	601.5
647.604	567.2
648.021	549.9
648.439	559.8
648.835	570.3
649.252	568.7
649.67	567.8
650.088	571
650.484	575.1
650.902	574.6
651.32	575.6
651.738	564.9
652.134	569.1
652.552	581
652.971	579.1
653.389	565
653.786	579.5
654.204	565.6
654.622	562.5
655.019	573.1
655.438	575.9
655.857	567.4
656.275	570
656.673	562.5
657.091	637.4
657.51	560.7
657.908	581
658.327	588.6
658.746	553.2
659.144	567.2
659.563	578.3
659.982	572.4
660.38	559
660.8	570.6
661.219	572.5
661.617	570.4
662.037	567.3
662.457	580.5
662.855	555.8
663.275	600.7
663.695	568
664.094	565.3
664.514	572.8
664.934	558.7
665.333	576.6
665.753	561.1
666.152	563
666.572	561
666.993	578.1
667.392	564.2
667.812	567
668.212	557.6
668.632	579.5
669.053	568.9
669.453	570.4
669.874	571.5
670.273	573.9
670.694	564.4
671.116	576.7
671.515	578.1
671.937	564.5
672.337	565.7
672.758	563.7
673.158	576.5
673.58	557.7
673.98	568.6
674.402	577.4
674.824	566.8
675.224	563.9
675.646	552.8
676.047	565.9
676.469	570.5
676.869	573.3
677.292	565.1
677.693	559
678.115	565
678.516	568.4
678.939	573.9
679.34	564.9
679.762	573.7
680.164	571
680.586	562.5
680.988	572.6
681.411	599.6
681.812	562.4
682.236	565.1
682.637	565.1
683.061	556
683.462	574.6
683.864	563.5
684.288	571.1
684.69	557.1
685.114	578.7
685.516	576.5
685.94	564.2
686.342	573.1
686.766	562.8
687.168	565.3
687.571	585.5
687.995	567.3
688.398	559.9
688.822	568.7
689.225	581.4
689.628	579.5
690.052	567.5
690.456	571.6
690.88	562.9
691.284	561.4
691.687	578.4
692.112	556.4
692.515	560.9
692.919	565.9
693.344	568.2
693.747	565.4
694.173	560.5
694.577	576.7
694.98	569.5
695.406	560.5
695.81	574.3
696.214	570.8
696.64	580.5
697.044	570.4
697.448	577.8
697.874	570.3
698.279	565.1
698.684	554.9
699.11	562.8
699.514	570.6
699.919	563.8
700.324	558.8
700.75	565.4
701.156	573.7
701.561	578.6
701.987	572
702.393	582.3
702.798	578.9
703.203	562.6
703.63	563.5
704.036	566.4
704.442	571.6
704.847	562.4
705.274	566.2
705.68	570.4
706.086	566.8
706.492	559.9
706.92	564.6
707.326	577.6
707.732	565
708.139	562
708.545	557.2
708.973	559
709.38	567.4
709.786	562.2
710.193	582.9
710.6	570
711.028	561.3
711.435	565.2
711.842	567.7
712.249	562.1
712.656	565
713.064	574.5
713.492	557.3
713.9	563.7
714.307	567.9
714.715	566.2
715.123	569.9
715.53	568.4
715.938	571.2
716.367	569.6
716.775	563.6
717.184	559.3
717.592	572.1
718	573.1
718.408	602.7
718.816	607.9
719.225	566
719.633	567.1
720.042	554.9
720.472	562.7
720.881	587.1
721.29	571.8
721.699	559
722.108	570.5
722.517	570.3
722.926	561.5
723.335	574
723.744	561.9
724.154	563.1
724.563	570.1
724.973	567.4
725.382	571.8
725.792	560.7
726.202	557.3
726.612	577.2
727.022	566.9
727.432	558.2
779.813	565.8
780.223	611.4
780.634	556.6
781.044	563.7
781.454	563.2
781.865	575.7
782.276	560.1
782.686	573.5
783.097	570.5
783.508	565.5
783.919	562.8
784.33	576.1
784.741	579.2
785.152	561.2
785.563	552.7
785.974	564.4
786.386	579.4
786.776	565.6
787.188	559.8
787.599	553.7
788.011	569.8
788.423	571
788.835	562.6
789.247	559.1
789.659	558.8
790.071	556
790.483	600.8
790.874	558.6
791.286	572.4
791.699	560.4
792.111	563.1
792.524	564.2
792.937	561.6
793.349	551.2
793.741	559
794.154	559.9
794.567	573.7
794.98	560.2
795.393	547.5
795.785	572.5
796.198	557
796.612	564.5
797.026	562.4
797.439	549.7
797.831	561
798.245	550.5
798.659	559.4
799.073	555.7
799.487	552.6
799.88	561.5
800.294	561.6
800.708	564.7
801.123	558
801.516	575.7
801.93	548.5
802.345	550.9
802.76	562
803.153	574.5
803.568	576.6
803.983	568
804.377	564.2
804.792	550.2
805.207	553.5
805.601	562.5
806.016	592.2
806.432	560.5
806.826	591.7
807.242	576.1
807.658	563.8
808.052	553.6
808.468	558.2
808.884	556.7
809.279	563.4
809.695	572.7
810.111	583.4
810.506	570
810.922	575.7
811.339	558.8
811.734	569.6
812.151	565.7
812.546	560.1
812.963	555.6
813.38	570
813.776	562.3
814.193	582.6
814.589	553.9
815.006	558.4
815.402	554.2
815.82	555
816.237	563.8
816.633	563.1
817.051	556.4
817.448	558.8
817.866	552
818.262	580.1
818.68	560.2
819.077	556.5
819.495	565.7
819.892	605.2
820.311	555.5
820.708	559.6
821.127	559.8
821.524	576.7
821.943	564.8
822.34	577.7
822.759	567.1
823.157	562.2
823.576	578.6
823.974	560.4
824.393	574.2
824.791	562.4
825.189	554.7
825.609	560.8
826.007	563.5
826.427	556.5
826.826	556.8
827.246	569.2
827.644	548.2
828.043	570.2
828.463	559.1
828.862	573.2
829.261	571.2
829.682	555
830.081	566.2
830.502	560.3
830.901	568.6
831.301	557.5
831.722	555.3
832.121	563.9
832.521	560.3
832.943	561.7
833.342	565.7
833.742	560.2
834.164	558.2
834.564	549.9
834.965	556.9
835.386	558.5
835.787	556.3
836.188	559
836.588	558.7
837.01	563.8
837.411	555.1
837.812	567.2
838.213	566.6
838.636	551.5
839.037	633
839.438	563.3
839.84	569.4
840.263	568.9
840.664	567.8
841.066	560.5
841.468	567.6
841.891	554.8
842.293	567.9
842.695	563.5
843.098	573.4
843.5	560.2
843.902	568.6
844.326	567.8
844.729	562.9
845.131	574.9
845.534	563.2
845.937	572.1
846.34	577
846.764	558.8
847.167	564.1
847.571	555.4
847.974	560.8
