#lambda/nm	C1
208.295	482.9
208.67	449.6
209.045	410.1
209.419	415.8
209.794	589.6
210.169	574.7
210.544	692.3
210.919	594.4
211.295	587.1
211.67	591.2
212.045	590
212.421	591.9
212.796	628.5
213.172	587.3
213.547	583.6
213.923	590.5
214.299	586.6
214.675	591.5
215.051	594.2
215.427	594.9
215.803	608.6
216.179	597.6
216.555	585.3
216.932	603.3
217.308	592.8
217.684	588.6
218.061	595
218.438	592.8
218.814	582.6
219.191	596.6
219.568	585
219.945	589.1
220.322	595.8
220.699	594.6
221.076	601.5
221.453	592.9
221.83	577.9
222.208	584.7
222.585	584.5
222.962	593.3
223.34	594.5
223.717	589.6
224.095	585.2
224.473	597.3
224.851	584.3
225.229	581.9
225.607	603.7
225.985	576.9
226.363	587.3
226.741	591.5
227.119	588.2
227.497	607.8
227.876	574.4
228.254	595.6
228.633	595
229.011	587.7
229.39	590.6
229.769	591.3
230.148	601.7
230.527	609.9
230.905	595.5
231.284	590.8
231.664	586.4
232.043	601
232.422	597.2
232.801	588.5
233.181	599.7
233.56	590.9
233.94	591.1
234.319	576.9
234.699	587.6
235.079	626.2
235.458	623.4
235.838	605.3
236.218	580.9
236.598	579.3
236.978	576.2
237.358	584.9
237.738	590.7
238.119	594.6
238.499	581.7
238.88	592.7
239.26	608.7
239.641	581.3
240.021	590.1
240.402	593.7
240.783	584.8
241.163	590.5
241.544	590.2
241.925	589.4
242.306	606.5
242.687	580.7
243.069	590.7
243.45	595
243.831	586.9
244.212	587.2
244.594	627.4
244.975	599.4
245.357	592.5
245.739	585.5
246.12	587.1
246.502	604.2
246.884	585.2
247.266	587.7
247.648	588.5
248.03	608.1
248.412	599.1
248.794	597.3
249.176	583.1
249.559	599.1
249.941	582
250.323	578.9
250.706	585.9
251.089	594.4
251.471	593.8
251.854	590.4
252.237	590.3
252.62	594.7
253.002	589.6
253.385	593
253.769	604.1
254.152	593
254.535	597.5
254.918	587
255.301	586.3
255.685	590.5
256.068	585.4
256.452	619
256.835	603.3
257.219	599.5
257.603	606.7
257.986	584
258.37	599.4
258.754	583
259.138	604.2
259.522	597.7
259.906	592.3
260.29	594.1
260.675	590.6
261.059	589.6
261.443	579.5
261.828	594.8
262.212	597.7
262.597	584.7
262.981	582.9
263.366	595.6
263.751	597.5
264.136	587.8
264.521	596.7
264.906	577
265.291	595.9
265.676	589.5
266.061	594.6
266.446	603.1
266.831	584.4
267.217	613.6
267.602	594.3
267.987	589.4
268.373	586.5
268.759	598.4
269.144	603
269.53	587.3
269.916	585.4
270.302	587.1
270.688	592.3
271.074	593.6
271.46	599.5
271.846	617.9
272.232	588
272.618	581.5
273.004	592.9
273.391	604
273.777	608.1
274.164	596.2
274.55	601.5
274.937	587.2
275.324	585.9
275.71	598.9
276.097	595.8
276.484	580.9
276.871	596.5
277.258	591.1
277.645	577.3
278.032	590.5
278.419	586
278.807	591.1
279.194	585.4
279.581	579.2
279.969	592.1
280.356	588.5
280.744	588
281.131	613.5
281.519	596.6
281.907	591.6
282.295	588
282.682	597.3
283.07	590.8
283.458	599
283.846	599.4
284.235	602.4
284.623	597.4
285.011	574.3
285.399	590.1
285.788	590.3
286.176	581.9
286.565	600
286.953	588.7
287.342	586.5
287.731	580.7
288.119	582.9
288.508	587.6
288.897	592.6
289.286	574.7
289.675	590.7
290.064	600.2
290.453	584.6
290.821	589.5
291.21	608.5
291.599	585.8
291.989	591.5
292.378	597.4
292.768	609.8
293.157	593.3
293.547	600.8
293.936	589.9
294.326	584.9
294.716	594.9
295.106	592.5
295.496	594.1
295.886	599.6
296.276	584.3
296.666	582.7
297.056	578.8
297.446	578.6
297.836	605.8
298.227	590.8
298.617	591
299.008	601.9
299.398	584.3
299.789	582.9
300.179	591.7
300.57	603.2
300.961	581
301.352	590
301.742	598.1
302.133	586.7
302.524	591.2
302.915	592.6
303.307	582.6
303.698	592.3
304.089	595.3
304.48	588.4
304.872	591.5
305.263	593.9
305.655	588.2
306.046	594
306.438	594.2
306.829	581.6
307.221	604.3
307.613	596.8
308.005	597.5
308.397	605
308.789	610.8
309.181	613.8
309.573	609.2
309.965	606.3
310.357	589.9
310.749	598
311.142	580.1
311.534	585.6
311.926	597.1
312.319	591.1
312.711	583.9
313.104	604.7
313.497	589.9
313.889	635
314.282	606.3
314.675	618.5
315.068	591.1
315.461	598.8
315.854	619.8
316.247	604.2
316.64	588.7
317.033	592.3
317.405	602.2
317.798	593
318.192	597.7
318.585	586.4
318.979	596.9
319.372	589.8
319.766	589.1
320.16	601.4
320.553	603.4
320.947	615.1
321.341	591.2
321.735	584.1
322.129	580.3
322.523	619.8
322.917	579.6
323.311	599.3
323.705	592.1
324.099	594.8
324.494	610.4
324.888	606.9
325.282	589.3
325.677	594.9
326.071	599.9
326.466	603.4
326.861	595.8
327.255	599.7
327.65	606.5
328.045	609.5
328.44	599.6
328.835	595
329.23	588.5
329.625	620.2
330.02	590.2
330.415	615.6
330.81	597.6
331.206	595.5
331.601	581.8
331.996	598.6
332.37	600.7
332.766	582.4
333.161	618
333.557	590.3
333.953	594.6
334.348	970.9
334.744	594.7
335.14	588.7
335.536	586
335.932	602
336.328	590.9
336.724	602.8
337.12	592.6
337.516	594.7
337.913	596.9
338.309	609
338.705	591.1
339.102	597.6
339.498	591.9
339.895	607.1
340.291	588.2
340.688	600.6
341.085	582.8
341.481	586.9
341.878	590.7
342.275	610.8
342.672	579.9
343.069	588.4
343.466	577.6
343.842	597.7
344.239	577.5
344.636	593
345.033	578.5
345.431	589.1
345.828	589.1
346.225	582.3
346.623	604.4
347.02	591.1
347.418	601.2
347.816	600.7
348.213	579.1
348.611	593.9
349.009	581.6
349.407	608
349.805	581.4
350.203	579.9
350.601	597.5
350.999	591.1
351.397	587.2
351.795	592.5
352.193	598.3
352.57	599.6
352.969	604.9
353.367	580.8
353.766	586
354.164	588.4
354.563	601.4
354.961	588.7
355.36	586.6
355.759	587.2
356.158	574
356.557	587.6
356.956	582.1
357.355	575.9
357.754	593.1
358.153	595.3
358.552	613.1
358.951	592
359.35	594.8
359.75	578.7
360.149	577
360.527	575.1
360.926	583.4
361.326	586.5
361.726	584.3
362.125	578.9
362.525	588.1
362.925	582.7
363.325	586.4
363.724	587.7
364.124	579.4
364.524	582.1
364.924	583.8
365.324	602.8
365.725	570.8
366.125	592.7
366.525	587.7
366.904	579.4
367.304	572
367.705	599.7
368.105	599
368.506	584.8
368.906	581.8
369.307	583.9
369.708	592.8
370.108	568.7
370.509	597.1
370.91	576.1
371.311	585.1
371.712	586.5
372.113	584.8
372.514	572.9
372.894	580
373.295	570.5
373.696	591.9
374.097	594.3
374.499	610.2
374.9	583
375.301	579.1
375.703	584.3
376.105	572.4
376.506	582.3
376.908	590
377.309	582.2
377.711	579.6
378.113	573.2
378.493	585.9
378.895	576.4
379.297	592.9
379.699	574.4
380.102	586.7
380.504	583.9
380.906	575.7
381.308	608.2
381.71	580.2
382.113	596.1
382.515	581.9
382.918	583
383.299	581.4
383.701	589.9
384.104	589.3
384.507	568.8
384.909	580.3
385.312	571.6
385.715	582.2
386.118	577.1
386.521	570.3
386.924	590.1
387.327	580
387.709	572
388.112	568.5
388.515	574.8
388.918	584.4
389.322	584.8
389.725	578.3
390.129	607.5
390.532	587.7
390.936	587.5
391.339	577.8
391.743	586
392.125	572.6
392.529	589.6
392.933	590
393.337	586.1
393.74	584.3
394.144	585.3
394.548	579.6
394.953	577.8
395.357	592.3
395.761	582
396.144	578.8
396.548	587.5
396.952	579.9
397.357	581.7
397.761	581.5
398.166	577.9
398.57	580.8
398.975	576.9
399.379	583.4
399.763	627
400.168	584.7
400.572	585.3
400.977	578.6
401.382	600.9
401.787	590.2
402.192	598.2
402.597	602.3
403.002	569.3
403.386	594.1
403.791	606.3
404.197	582.4
404.602	584.6
405.007	586.7
405.413	578.8
405.818	582
406.224	571.5
406.608	575.8
407.014	573.9
407.42	600.5
407.825	574.1
408.231	592.1
408.637	582.1
409.043	600.2
409.449	577.7
409.834	578.5
410.24	583.7
410.646	592.9
411.052	588.6
411.458	584.3
411.865	594.5
412.271	590.5
412.677	585.7
413.062	588.3
413.469	572.1
413.875	610.3
414.282	591
414.689	587
415.095	591.9
415.502	581
415.888	592.2
416.294	574.3
416.701	630
417.108	581.8
417.515	592.1
417.923	585.3
418.33	603
418.715	594.4
419.123	581.5
419.53	580.7
419.937	588.2
420.345	599
420.752	582.7
421.16	597.1
421.546	580.4
421.953	596.3
422.361	576.2
422.769	589.8
423.177	571.6
423.585	603.1
423.992	600.2
424.379	600.9
424.787	590.4
425.195	604.3
425.603	585.7
426.011	600.6
426.419	598.3
426.806	589.3
427.214	593.3
427.623	594.7
428.031	604.3
428.44	587.3
428.848	596.3
429.235	601.2
429.644	588.9
430.053	583.1
430.461	606.8
430.87	615.7
431.279	598
431.666	589.2
432.075	586.5
432.484	596.4
432.893	587.5
433.302	602.7
433.711	630.5
434.099	588.7
434.508	584.9
434.918	577.7
435.327	592
435.737	585.8
436.125	584.6
436.534	587.7
436.944	588.4
437.353	588.5
437.763	609.3
438.173	571.3
438.561	592.6
438.971	567.4
439.381	578
439.791	586.8
440.201	563.5
440.589	585.6
440.999	588
441.409	585.6
441.819	579.6
442.23	593.3
442.619	587.4
443.029	585.4
443.439	581.3
443.85	596.6
444.26	596.1
444.649	593.8
445.06	582.5
445.471	580.5
445.881	585.6
446.292	598.3
446.682	605.7
447.092	566.4
447.503	624.6
447.914	584.6
448.325	586.8
448.715	581.6
449.126	575.2
449.537	585
449.948	585.7
450.338	578.4
450.75	592
451.161	591.1
451.572	587.7
451.984	580.5
452.374	570.8
452.786	580
453.197	582.2
453.609	587.5
453.999	569.3
454.411	568.8
454.823	590.8
455.235	584
455.647	579
456.037	586.8
456.449	565.8
456.862	582.8
457.274	583.2
457.665	569.4
458.077	584.2
458.489	590.5
458.902	580.3
459.293	576.2
459.705	579.2
460.118	570.5
460.53	583.1
460.921	584.1
461.334	584.9
461.747	578.9
462.16	590.6
462.551	595.4
462.964	584.9
463.377	565.4
463.79	582.4
464.182	587.4
464.595	573.6
465.008	582.2
465.421	580.3
465.813	572.2
466.226	583.5
466.64	575.5
467.053	624.6
467.445	586.4
467.859	580.5
468.272	582.7
468.686	583.4
469.078	571.1
469.492	563
469.906	577.8
470.298	581.7
470.712	571.4
471.126	610.5
471.54	566.5
471.933	573.9
472.347	574.4
472.761	569.7
473.175	565.8
473.568	572.7
473.982	570.9
474.397	577.5
474.79	573.8
475.204	582.7
475.619	571
476.033	581.4
476.426	571.5
476.841	566.3
477.256	600.6
477.649	576.5
478.064	571.7
478.479	568
478.872	570.1
479.287	560.5
479.702	570.1
480.118	578.1
480.511	575.8
480.927	561.8
481.342	571.9
481.736	581.8
482.151	568.3
482.566	583.7
482.96	581.9
483.376	588.6
483.792	573.6
484.186	580.7
484.602	575.2
485.017	572.4
485.412	569.5
485.827	580
486.243	576.7
486.638	599.4
487.054	582.4
487.47	584.1
487.865	574.4
488.281	564.1
488.697	566.8
489.092	571.8
489.508	567.5
489.925	583
490.32	568.4
490.736	583.9
491.153	578.3
491.548	577.7
491.964	586.3
492.381	561.3
492.776	578.2
493.193	574
493.61	578.8
494.006	576.5
494.422	576
494.84	567.3
495.235	580.1
495.652	573.6
496.069	575.7
496.465	561.1
496.883	573.7
497.3	597
497.696	568.5
498.113	575.3
498.509	565.8
498.927	569.4
499.344	565.6
499.741	570.3
500.158	581.1
500.576	586.7
500.973	572.5
501.39	563.3
501.787	564.1
502.205	576
502.623	569.8
503.02	567
503.438	569.4
503.856	571.4
504.253	580.3
504.671	574.6
505.068	570.3
505.486	570.2
505.905	590.9
506.302	578
506.72	583.8
507.118	567.7
507.536	574
507.955	575.7
508.352	578.1
508.771	580.2
509.169	581.1
509.587	572.3
510.006	576.7
510.404	566.7
510.823	571.6
511.221	574
511.64	570.6
512.038	584.9
512.457	574.2
512.877	571.7
513.275	569.1
513.694	568.7
514.092	570
514.512	577.3
514.91	568.3
515.33	578
515.749	580.6
516.148	572.2
516.568	575.2
516.966	577.2
517.386	573.3
517.785	564.5
518.205	572
518.603	571.4
519.024	563.6
519.444	569.7
519.843	585.6
520.263	578.4
520.662	577.5
521.082	570.7
521.481	574.9
521.902	574.4
522.301	573.8
522.722	577.5
523.121	575.5
523.542	575.4
523.963	574.3
524.362	570.6
524.783	577.3
525.183	571.4
525.604	579.7
526.003	567.6
526.425	565.9
526.824	583.3
527.246	580.1
527.646	580.9
528.067	569.6
528.467	570.9
528.888	573.1
529.289	570.3
529.71	570.9
530.11	568.2
530.532	565.2
530.932	562.2
531.354	560.6
531.755	602
532.176	576.2
532.577	565.8
532.999	570
533.4	562.5
533.822	580.9
534.223	573.4
534.645	564.9
535.046	569.3
535.468	575.1
535.869	580.8
536.292	562.7
536.693	569.2
537.115	579.5
537.516	567
537.939	567.4
538.34	586
538.742	586.9
539.165	577.6
539.566	571.2
539.989	563.1
540.391	569.5
540.814	568.6
541.216	571.4
541.639	567
542.041	578.4
542.464	572.1
542.866	562.6
543.268	561.5
543.691	573.5
544.093	582.9
544.517	594.6
544.919	562.9
545.343	597.7
545.745	566.1
546.147	574.1
546.571	564.3
546.974	567.3
547.398	576.7
547.8	584.7
548.224	575.6
548.627	565.8
549.03	578.7
549.454	566.7
549.857	553.9
550.281	564.2
550.684	565.3
551.087	578.5
551.512	571.7
551.915	575.7
552.34	574.4
552.743	564.6
553.146	570.3
553.571	571.1
553.975	579.4
554.399	558.6
554.803	618.2
555.207	566.1
555.632	569
556.036	572.6
556.461	561.2
556.865	572.8
557.268	561.2
557.694	570.3
558.098	576
558.502	576.1
558.927	562.8
559.332	568.7
559.736	568.1
560.162	577.6
560.566	565.1
560.992	572.2
561.396	570.9
561.801	566.8
562.227	565.6
562.631	565.5
563.036	572.4
563.462	578.2
563.867	568.8
564.272	555.3
564.698	571.1
565.103	560
565.508	586.6
565.935	568.8
566.34	572.3
566.745	574.9
567.172	563.2
567.577	590
567.982	583.7
568.409	569.2
568.815	562.3
569.22	569.8
569.626	571.5
570.053	555.6
570.459	575.2
570.865	573.9
571.292	574
571.698	570.2
572.104	555.7
572.531	566.5
572.937	575.2
573.343	570.8
573.75	566.9
574.177	568.5
574.583	577.2
574.99	565.5
575.396	574.6
575.824	567.1
576.231	573.6
576.637	559.3
577.065	596.1
577.472	565.8
577.879	567.4
578.286	583.6
578.714	565.8
579.121	571
579.528	573.1
579.935	576.9
580.364	565.8
580.771	549.2
581.178	558.4
581.585	572.9
582.014	566.6
582.421	561.4
582.829	560.4
583.236	571.3
583.644	564.2
584.073	568.1
584.481	567.6
584.889	563.9
585.296	571.2
585.726	569.8
586.134	564.7
586.542	564.5
586.95	579.9
587.358	561.4
587.787	570.1
588.196	551.7
588.604	566.8
589.012	567.5
589.421	558.9
589.851	563.5
590.259	568.5
590.668	564.3
591.076	602.8
591.485	564.3
591.894	565
592.324	577.7
592.733	580
593.142	557.2
593.551	558.4
593.96	571.4
594.369	554.5
594.8	559.8
595.209	563.5
595.618	560.1
596.028	565
596.437	554.4
596.847	569.2
597.256	569
597.687	569.1
598.097	566.9
598.507	556.8
598.917	562.7
599.327	573.3
599.736	567.7
600.146	579.1
600.556	569.1
600.988	574.6
601.398	561.1
601.808	576.9
602.219	556.2
602.629	567.7
603.039	569.7
603.45	592.1
603.86	574.7
604.271	583.8
604.703	565
605.114	568.5
605.525	567.7
605.935	570.2
606.346	585.6
606.757	572.2
607.168	567.6
607.579	556.9
607.99	577.1
608.402	565.7
608.813	570.3
609.224	561.3
609.636	557
610.047	564.3
610.48	566.6
610.892	577.5
611.303	573.6
611.715	565.9
612.127	558.4
612.539	563.3
612.95	569.7
613.362	557.1
613.774	561.7
614.186	565.6
614.599	558.9
615.011	567
615.423	563
615.835	561.4
616.248	553.7
616.66	570
617.073	563.2
617.485	568.3
617.898	571.9
618.311	562.4
618.723	563.4
619.136	594.6
619.549	584.7
619.962	585.2
620.375	562.6
620.788	565.1
621.201	562.9
621.614	578.2
622.028	565.1
622.441	569.4
622.854	578.5
623.268	560.8
623.681	569.4
624.095	570.5
624.509	581
624.922	575.9
625.336	549.2
625.728	569.1
626.142	567.7
626.556	581.8
626.97	569.4
627.384	562.9
627.799	559
628.213	571
628.627	561.3
629.041	562
629.456	561.9
629.87	562.4
630.285	573.3
630.699	564.8
631.093	563.7
631.507	571.6
631.922	574
632.337	576.6
632.752	560
633.167	569.6
633.582	564.4
633.997	559.7
634.412	553.9
634.806	570.1
635.221	561.8
635.637	579.6
636.052	554.2
636.468	563.8
636.883	583.8
637.299	563.8
637.715	552.8
638.109	559
638.525	558.4
638.941	573.1
639.357	569.9
639.773	577.1
640.189	563.4
640.584	566.7
641	571.5
641.416	557
641.832	559.2
642.249	562.1
642.665	561.8
643.06	573.3
643.477	568.6
643.894	553
644.31	560.6
644.727	564.5
645.123	559.3
645.54	557.2
645.957	561.7
646.374	571.7
646.77	565.5
647.187	590.6
647.604	564.5
648.021	545.7
648.439	564.7
648.835	568.4
649.252	565.6
649.67	560.9
650.088	562.2
650.484	569.1
650.902	571.5
651.32	572.3
651.738	559.6
652.134	569.1
652.552	586.1
652.971	575.9
653.389	566.9
653.786	574.5
654.204	560.5
654.622	562.1
655.019	568.8
655.438	569.8
655.857	566.4
656.275	569.1
656.673	556.1
657.091	633.1
657.51	563.3
657.908	570.5
658.327	583.8
658.746	556.3
659.144	560.3
659.563	575.9
659.982	569.3
660.38	554.4
660.8	567.7
661.219	577.5
661.617	565.2
662.037	566.7
662.457	571.9
662.855	552.7
663.275	594.1
663.695	568.4
664.094	561
664.514	561.5
664.934	557.2
665.333	571.9
665.753	562.8
666.152	559.4
666.572	561.9
666.993	573.5
667.392	564
667.812	560.4
668.212	562.2
668.632	571.6
669.053	559.9
669.453	566.9
669.874	567
670.273	566.3
670.694	554.9
671.116	578.4
671.515	569.8
671.937	565.3
672.337	560.5
672.758	564.3
673.158	567.9
673.58	562.5
673.98	569
674.402	574.5
674.824	564.9
675.224	563.7
675.646	554.2
676.047	560.9
676.469	561.7
676.869	569.8
677.292	565
677.693	552.8
678.115	561
678.516	566
678.939	567
679.34	560.8
679.762	577.6
680.164	570.8
680.586	556.6
680.988	564.3
681.411	583
681.812	557.4
682.236	555.1
682.637	557
683.061	553
683.462	565.8
683.864	558.9
684.288	565.5
684.69	553.6
685.114	568.4
685.516	570.9
685.94	555.6
686.342	563.8
686.766	553.1
687.168	559.9
687.571	578.8
687.995	557.1
688.398	558.7
688.822	559.9
689.225	585.8
689.628	584.9
690.052	558.3
690.456	565.7
690.88	564.4
691.284	558.3
691.687	573.5
692.112	553.8
692.515	549.6
692.919	565.4
693.344	562.2
693.747	563.4
694.173	560.7
694.577	572.9
694.98	567.9
695.406	558.2
695.81	567
696.214	566.4
696.64	566
697.044	570.3
697.448	570.8
697.874	563.9
698.279	560.7
698.684	555.2
699.11	559.5
699.514	565
699.919	559.1
700.324	553.6
700.75	562
701.156	564
701.561	575.9
701.987	568.1
702.393	576.8
702.798	576.8
703.203	565.7
703.63	555.8
704.036	562.6
704.442	563.8
704.847	553.9
705.274	560.7
705.68	568.4
706.086	571.4
706.492	553.2
706.92	560.9
707.326	575.9
707.732	564.9
708.139	558.2
708.545	555.4
708.973	562.3
709.38	556.8
709.786	555.9
710.193	573.6
710.6	562.9
711.028	560.7
711.435	561.2
711.842	564.1
712.249	558.5
712.656	564.4
713.064	573.8
713.492	553.6
713.9	560.4
714.307	565.7
714.715	559.9
715.123	566.2
715.53	567.2
715.938	571.5
716.367	560.3
716.775	562.4
717.184	557.9
717.592	561.4
718	565.9
718.408	594.1
718.816	601.8
719.225	564.3
719.633	564.3
720.042	558.5
720.472	559.1
720.881	582.2
721.29	560.2
721.699	554.9
722.108	565.1
722.517	560.3
722.926	555.3
723.335	570.4
723.744	558.7
724.154	556.3
724.563	565.8
724.973	565.9
725.382	558.8
725.792	557.4
726.202	557.5
726.612	568.7
727.022	563.7
727.432	556.4
779.813	556.4
780.223	601.3
780.634	556
781.044	553.1
781.454	562.3
781.865	573.2
782.276	558.5
782.686	577.3
783.097	565.4
783.508	554.5
783.919	568.3
784.33	572.2
784.741	575.1
785.152	561.1
785.563	547.5
785.974	557.8
786.386	572.8
786.776	559.5
787.188	554.1
787.599	552.7
788.011	565.6
788.423	565.9
788.835	554.6
789.247	552.6
789.659	555.7
790.071	559
790.483	603.9
790.874	558.6
791.286	572.4
791.699	558.7
792.111	559.6
792.524	566.1
792.937	563.6
793.349	550.3
793.741	546
794.154	560.8
794.567	579.6
794.98	556.6
795.393	553.5
795.785	576.1
796.198	552.9
796.612	559.9
797.026	559.8
797.439	540.2
797.831	559
798.245	552.2
798.659	556.1
799.073	559.7
799.487	555.3
799.88	563.5
800.294	563.7
800.708	559.4
801.123	560.9
801.516	578.2
801.93	547.9
802.345	547.7
802.76	562.2
803.153	575
803.568	572
803.983	564.7
804.377	563.1
804.792	549.4
805.207	547.5
805.601	562.5
806.016	593
806.432	550.5
806.826	577.9
807.242	572.1
807.658	564.7
808.052	554.9
808.468	555.1
808.884	551.3
809.279	559.6
809.695	570.2
810.111	579.7
810.506	560.2
810.922	573
811.339	553.2
811.734	562.9
812.151	550.8
812.546	550.3
812.963	553
813.38	561.7
813.776	559.6
814.193	579.4
814.589	551.5
815.006	555.6
815.402	552
815.82	552.9
816.237	556.5
816.633	558.5
817.051	553.5
817.448	563.4
817.866	555
818.262	576
818.68	553.1
819.077	551.6
819.495	553.8
819.892	597.7
820.311	554.5
820.708	558.2
821.127	554
821.524	564.4
821.943	559.9
822.34	568.3
822.759	559.8
823.157	560.2
823.576	572.2
823.974	564.3
824.393	570.1
824.791	554.1
825.189	555.6
825.609	553.4
826.007	553.3
826.427	547.6
826.826	556.9
827.246	556.6
827.644	545.7
828.043	568.3
828.463	555.4
828.862	566.9
829.261	565.2
829.682	550.1
830.081	563.6
830.502	550.1
830.901	563.2
831.301	557.3
831.722	547
832.121	555.9
832.521	550.7
832.943	554.2
833.342	559.3
833.742	550
834.164	552.1
834.564	545.1
834.965	559
835.386	558.5
835.787	551.9
836.188	553.2
836.588	558.9
837.01	557.4
837.411	552.6
837.812	563.7
838.213	565.9
838.636	555.4
839.037	622.8
839.438	561
839.84	567.7
840.263	563.3
840.664	566.1
841.066	555.6
841.468	561.7
841.891	552.2
842.293	567.6
842.695	563.5
843.098	573.3
843.5	559.1
843.902	562.8
844.326	559.2
844.729	560.8
845.131	570.9
845.534	557.7
845.937	563.1
846.34	576.7
846.764	552.1
847.167	561.9
847.571	551.7
847.974	560.3
