#lambda/nm	C1
208.295	480.7
208.67	447.9
209.045	409.1
209.419	414.3
209.794	599.6
210.169	581.3
210.544	690.6
210.919	598.4
211.295	580.4
211.67	595.9
212.045	589.7
212.421	592.2
212.796	626.7
213.172	586
213.547	588.2
213.923	583.6
214.299	585.2
214.675	596
215.051	590.9
215.427	601.1
215.803	604.9
216.179	600
216.555	582.2
216.932	597.1
217.308	585.3
217.684	588.4
218.061	595.2
218.438	590.9
218.814	585.4
219.191	593.6
219.568	583.9
219.945	587.2
220.322	604.9
220.699	594
221.076	596.3
221.453	596.8
221.83	588.4
222.208	590.1
222.585	589.4
222.962	593.8
223.34	593.2
223.717	586.1
224.095	589.5
224.473	592.2
224.851	588.5
225.229	586.6
225.607	604.3
225.985	578.5
226.363	590.2
226.741	592.3
227.119	586.2
227.497	602.6
227.876	578.9
228.254	602.5
228.633	598.1
229.011	591.1
229.39	596.7
229.769	595.1
230.148	591.5
230.527	603.5
230.905	591
231.284	594.3
231.664	585.4
232.043	605.4
232.422	597.4
232.801	591.1
233.181	595.6
233.56	586.4
233.94	591
234.319	579.4
234.699	591.9
235.079	628.7
235.458	627.7
235.838	609.4
236.218	585
236.598	579.7
236.978	588.3
237.358	587.4
237.738	584.2
238.119	594.6
238.499	583.5
238.88	594
239.26	609.4
239.641	581.8
240.021	591.8
240.402	587.2
240.783	585.1
241.163	592.6
241.544	591.4
241.925	591.4
242.306	605.2
242.687	586
243.069	594.6
243.45	594.9
243.831	585.2
244.212	592.6
244.594	617.1
244.975	601.9
245.357	594.5
245.739	580.6
246.12	596.1
246.502	606.8
246.884	588.1
247.266	590.1
247.648	593.5
248.03	612.9
248.412	587.9
248.794	595.2
249.176	588.6
249.559	599.2
249.941	582.4
250.323	583.1
250.706	588.4
251.089	592.5
251.471	598
251.854	593.2
252.237	593.9
252.62	595.9
253.002	593.5
253.385	592
253.769	609.8
254.152	595.1
254.535	600
254.918	588.2
255.301	590.2
255.685	581.7
256.068	582.1
256.452	612.6
256.835	603.7
257.219	596.2
257.603	598.6
257.986	584.3
258.37	599.2
258.754	586.1
259.138	597.7
259.522	608.3
259.906	588.1
260.29	595.2
260.675	584.3
261.059	593.7
261.443	587.9
261.828	598.2
262.212	593.8
262.597	581.8
262.981	587.5
263.366	602.9
263.751	592.3
264.136	592.2
264.521	590
264.906	582.4
265.291	605.2
265.676	588.4
266.061	598.8
266.446	609.2
266.831	594.4
267.217	615.8
267.602	597.3
267.987	594
268.373	593.8
268.759	603.3
269.144	596.3
269.53	588.9
269.916	590.7
270.302	587.3
270.688	598.8
271.074	595
271.46	603.1
271.846	622.3
272.232	593.2
272.618	587.7
273.004	592.7
273.391	601.8
273.777	606.2
274.164	600
274.55	608.4
274.937	598.2
275.324	589.5
275.71	596.8
276.097	597.3
276.484	589.6
276.871	597.3
277.258	602
277.645	578.7
278.032	588.7
278.419	593
278.807	598.4
279.194	593.3
279.581	588.2
279.969	600.9
280.356	592.1
280.744	599.8
281.131	618.4
281.519	606.8
281.907	588.7
282.295	592.3
282.682	602
283.07	589.9
283.458	602.2
283.846	603.2
284.235	600.8
284.623	605.9
285.011	585.4
285.399	596.7
285.788	588.9
286.176	583.7
286.565	603.9
286.953	583.4
287.342	589.7
287.731	588.2
288.119	587.9
288.508	587.3
288.897	592.7
289.286	585.3
289.675	592.3
290.064	605
290.453	587.2
290.821	594.6
291.21	607.5
291.599	592.3
291.989	591.1
292.378	598.7
292.768	615.1
293.157	600.4
293.547	602.1
293.936	586.4
294.326	591
294.716	593.6
295.106	585.1
295.496	595.2
295.886	600.3
296.276	596.4
296.666	583
297.056	586.4
297.446	582.6
297.836	610.5
298.227	589.6
298.617	594.6
299.008	603.2
299.398	591.2
299.789	591.9
300.179	596.2
300.57	605.6
300.961	585.3
301.352	589.5
301.742	602.9
302.133	595.6
302.524	596.3
302.915	587.7
303.307	587.9
303.698	601.1
304.089	596.9
304.48	593.3
304.872	599.8
305.263	596
305.655	590.6
306.046	602.2
306.438	599.9
306.829	587.7
307.221	605.1
307.613	598.2
308.005	601.6
308.397	606.8
308.789	611.7
309.181	616.6
309.573	611.1
309.965	610.6
310.357	593
310.749	598.3
311.142	589.9
311.534	589.2
311.926	597
312.319	596.8
312.711	585.3
313.104	604.4
313.497	599.5
313.889	630
314.282	610.3
314.675	619.8
315.068	593.4
315.461	595.8
315.854	622.2
316.247	602.6
316.64	600.4
317.033	590.4
317.405	603.2
317.798	595.2
318.192	601.7
318.585	588.9
318.979	602.7
319.372	591.8
319.766	597.9
320.16	603.1
320.553	607.6
320.947	615.1
321.341	586.9
321.735	592.3
322.129	582
322.523	622.2
322.917	587.8
323.311	602.4
323.705	594.7
324.099	596.1
324.494	607.8
324.888	602.2
325.282	591
325.677	597.9
326.071	595.7
326.466	606.3
326.861	602.4
327.255	606.3
327.65	609.7
328.045	616.4
328.44	595.5
328.835	594.6
329.23	585.8
329.625	619.1
330.02	581.4
330.415	616.8
330.81	593.4
331.206	596.2
331.601	591.6
331.996	605
332.37	605.5
332.766	582.7
333.161	620.9
333.557	591
333.953	596.9
334.348	924.2
334.744	593.9
335.14	592.4
335.536	593
335.932	613
336.328	594.2
336.724	604.5
337.12	597.2
337.516	598.2
337.913	593.6
338.309	608.4
338.705	600.1
339.102	607.6
339.498	590.8
339.895	609
340.291	594.3
340.688	605
341.085	588.5
341.481	597.3
341.878	589.8
342.275	615.5
342.672	584.8
343.069	588.8
343.466	583.9
343.842	601.3
344.239	588.5
344.636	586.5
345.033	589.2
345.431	583.3
345.828	588.6
346.225	587.7
346.623	592.6
347.02	590.5
347.418	600.5
347.816	606.9
348.213	580.1
348.611	597
349.009	584.6
349.407	604.7
349.805	579.7
350.203	577.3
350.601	601.3
350.999	586.6
351.397	587.2
351.795	588.8
352.193	601.8
352.57	605.1
352.969	602.9
353.367	581.8
353.766	582.5
354.164	588.2
354.563	602.4
354.961	596.5
355.36	591.6
355.759	591.8
356.158	577.7
356.557	581.3
356.956	581.1
357.355	578.7
357.754	595.2
358.153	594.8
358.552	612.4
358.951	587.3
359.35	604
359.75	589
360.149	578.2
360.527	576.5
360.926	579.6
361.326	587.8
361.726	593.1
362.125	586.9
362.525	594.6
362.925	592
363.325	590.7
363.724	594.2
364.124	585.9
364.524	582.9
364.924	591.1
365.324	597.6
365.725	577
366.125	588.6
366.525	588.8
366.904	585.3
367.304	573.9
367.705	602.1
368.105	601.1
368.506	585.8
368.906	585.3
369.307	588.5
369.708	591
370.108	579.3
370.509	598.7
370.91	583.2
371.311	592.5
371.712	592
372.113	588
372.514	577.4
372.894	588.3
373.295	579.5
373.696	597.7
374.097	596.7
374.499	615.2
374.9	586.6
375.301	582.9
375.703	597.7
376.105	578.8
376.506	589.3
376.908	591.1
377.309	586.4
377.711	585.2
378.113	586.2
378.493	588.9
378.895	580.6
379.297	591.8
379.699	570.7
380.102	592.3
380.504	591.1
380.906	579.3
381.308	610.7
381.71	588.5
382.113	595.7
382.515	582.8
382.918	587.6
383.299	583.2
383.701	595.2
384.104	594.1
384.507	571.3
384.909	591.5
385.312	575
385.715	575
386.118	589
386.521	576.3
386.924	594.5
387.327	577.7
387.709	573
388.112	571.2
388.515	580.1
388.918	580.7
389.322	588.2
389.725	578.2
390.129	606.6
390.532	593.8
390.936	584.1
391.339	579.7
391.743	587.4
392.125	580.9
392.529	592.3
392.933	595.5
393.337	585.4
393.74	581.9
394.144	584.1
394.548	580.7
394.953	582.1
395.357	590.2
395.761	580.2
396.144	581.8
396.548	581.6
396.952	581
397.357	584
397.761	582.6
398.166	583.8
398.57	580.1
398.975	571.7
399.379	589.8
399.763	631.2
400.168	583.1
400.572	585.2
400.977	579.9
401.382	602.5
401.787	594.3
402.192	604.5
402.597	604.6
403.002	573.5
403.386	600.4
403.791	606.4
404.197	578
404.602	586.6
405.007	588.4
405.413	579.8
405.818	576.1
406.224	578.1
406.608	581.8
407.014	577.8
407.42	599.4
407.825	578.8
408.231	596.3
408.637	590.6
409.043	600.6
409.449	580
409.834	579.4
410.24	581.2
410.646	602.4
411.052	595.5
411.458	591.7
411.865	597.7
412.271	595.7
412.677	588.6
413.062	592.1
413.469	578.8
413.875	606.7
414.282	599.9
414.689	584.5
415.095	591.4
415.502	583.6
415.888	586.1
416.294	574.3
416.701	618.1
417.108	576.2
417.515	595
417.923	584.4
418.33	608.7
418.715	593.8
419.123	582.8
419.53	589.2
419.937	588
420.345	598.4
420.752	581.2
421.16	599.7
421.546	591
421.953	597.8
422.361	580.9
422.769	587.3
423.177	582.3
423.585	612.7
423.992	607.6
424.379	596.8
424.787	600
425.195	608.6
425.603	586.2
426.011	604.7
426.419	604.5
426.806	586.4
427.214	588.9
427.623	603.6
428.031	608.4
428.44	591.4
428.848	596.9
429.235	602.2
429.644	592.6
430.053	592.9
430.461	602
430.87	613.2
431.279	599.8
431.666	585
432.075	593.5
432.484	597.7
432.893	590
433.302	609.6
433.711	633.7
434.099	592.8
434.508	588
434.918	580.9
435.327	598.2
435.737	590.1
436.125	590.4
436.534	592
436.944	593.2
437.353	591.2
437.763	605.9
438.173	582.4
438.561	597.2
438.971	571.2
439.381	583.4
439.791	588.3
440.201	566.2
440.589	585.6
440.999	589.9
441.409	591
441.819	575.2
442.23	595.4
442.619	587
443.029	583.8
443.439	586.7
443.85	594.9
444.26	606.4
444.649	594
445.06	587.8
445.471	575.9
445.881	590.6
446.292	602.7
446.682	603.6
447.092	573.4
447.503	632.5
447.914	589.2
448.325	580.9
448.715	580.7
449.126	579.3
449.537	583.9
449.948	580.7
450.338	583.8
450.75	591.6
451.161	578
451.572	593.3
451.984	579
452.374	572.3
452.786	579.9
453.197	583.5
453.609	592.2
453.999	568
454.411	580.7
454.823	596.5
455.235	588.2
455.647	582
456.037	591.1
456.449	569.1
456.862	587.5
457.274	588.7
457.665	573.1
458.077	588.9
458.489	592
458.902	579.5
459.293	584.3
459.705	582.3
460.118	577.5
460.53	589
460.921	581.1
461.334	583.5
461.747	584.2
462.16	592.8
462.551	593
462.964	591
463.377	568.5
463.79	582
464.182	593.3
464.595	578.8
465.008	587.4
465.421	590.4
465.813	582
466.226	587.6
466.64	577.4
467.053	627.3
467.445	593
467.859	584
468.272	580.7
468.686	594.7
469.078	575.5
469.492	571.9
469.906	579.5
470.298	590.8
470.712	579.2
471.126	608.7
471.54	569.1
471.933	577.9
472.347	577.6
472.761	576.8
473.175	574.3
473.568	579.5
473.982	573.6
474.397	578.7
474.79	579.7
475.204	590.7
475.619	578.5
476.033	581.4
476.426	583.9
476.841	572.3
477.256	599.6
477.649	577.8
478.064	571.8
478.479	570.3
478.872	570.6
479.287	564
479.702	567.2
480.118	574.4
480.511	576.7
480.927	564.4
481.342	575
481.736	584.9
482.151	576.3
482.566	591.8
482.96	575.1
483.376	590.4
483.792	570.7
484.186	582.8
484.602	575.8
485.017	575.6
485.412	576.5
485.827	583.4
486.243	578.4
486.638	600.4
487.054	585.3
487.47	587.8
487.865	573.3
488.281	570.8
488.697	569.8
489.092	573.8
489.508	569.6
489.925	586.9
490.32	567.7
490.736	576.8
491.153	578
491.548	577.3
491.964	587.7
492.381	567.5
492.776	585.1
493.193	580.9
493.61	589.3
494.006	576
494.422	586.3
494.84	569.7
495.235	581.4
495.652	576.8
496.069	581.5
496.465	566.9
496.883	579.7
497.3	604.4
497.696	569.7
498.113	581.3
498.509	566.1
498.927	561.3
499.344	567.9
499.741	576.2
500.158	583.5
500.576	586
500.973	573
501.39	568.9
501.787	564.2
502.205	577.8
502.623	573.6
503.02	561.6
503.438	568.5
503.856	575.3
504.253	575.5
504.671	577.6
505.068	572.8
505.486	576.8
505.905	594.3
506.302	580.3
506.72	588.5
507.118	573.4
507.536	575.7
507.955	575.9
508.352	581.2
508.771	583.2
509.169	582.9
509.587	571.1
510.006	579.8
510.404	559.5
510.823	575
511.221	569.5
511.64	571.5
512.038	585.6
512.457	575.9
512.877	572.4
513.275	570.8
513.694	569.2
514.092	574.9
514.512	575.1
514.91	573.5
515.33	575.1
515.749	574.2
516.148	582.2
516.568	573.8
516.966	574.6
517.386	570.6
517.785	575.3
518.205	573.4
518.603	571.9
519.024	572.6
519.444	579.2
519.843	582.1
520.263	574.4
520.662	583.1
521.082	573
521.481	575.1
521.902	572.3
522.301	573.5
522.722	580.5
523.121	571.2
523.542	571.9
523.963	577.6
524.362	573.1
524.783	577.7
525.183	578.8
525.604	577.2
526.003	570
526.425	574.8
526.824	578.7
527.246	581.6
527.646	584
528.067	578.3
528.467	578.1
528.888	581.2
529.289	570.7
529.71	576.3
530.11	578.6
530.532	567.9
530.932	567.2
531.354	569.9
531.755	605.6
532.176	582.1
532.577	577.7
532.999	575.7
533.4	577.7
533.822	584.6
534.223	575.3
534.645	570.4
535.046	570.2
535.468	576.5
535.869	588.1
536.292	562.5
536.693	570.2
537.115	573
537.516	569.3
537.939	571.7
538.34	591.5
538.742	587.4
539.165	576
539.566	570.8
539.989	569.1
540.391	573.4
540.814	577.4
541.216	571.6
541.639	582.6
542.041	582.9
542.464	571.4
542.866	569
543.268	562.5
543.691	583.8
544.093	579.2
544.517	590.8
544.919	566.2
545.343	593.4
545.745	565.7
546.147	573.6
546.571	574.9
546.974	563.4
547.398	572.9
547.8	584.6
548.224	568.7
548.627	570.7
549.03	576
549.454	562.9
549.857	563
550.281	568.9
550.684	570.1
551.087	582.1
551.512	577.1
551.915	583.8
552.34	569.4
552.743	570.6
553.146	575.2
553.571	572.5
553.975	589.2
554.399	570
554.803	623.6
555.207	571.5
555.632	565.7
556.036	580.3
556.461	566.4
556.865	567.9
557.268	560.6
557.694	569.5
558.098	578.4
558.502	577.3
558.927	570.5
559.332	574.7
559.736	572.3
560.162	578.2
560.566	570.7
560.992	575.1
561.396	573.1
561.801	572.6
562.227	573.2
562.631	572.7
563.036	571.1
563.462	574.5
563.867	572.9
564.272	560.9
564.698	578.1
565.103	563.2
565.508	592.6
565.935	574.6
566.34	566.8
566.745	587.2
567.172	571
567.577	589.8
567.982	583.7
568.409	579
568.815	561.3
569.22	572.9
569.626	585.4
570.053	553.9
570.459	570
570.865	580.5
571.292	577.7
571.698	570.4
572.104	559.9
572.531	563.2
572.937	578.4
573.343	574.3
573.75	564.1
574.177	572.2
574.583	572.5
574.99	566.5
575.396	575
575.824	568
576.231	573.5
576.637	564.8
577.065	591.8
577.472	563.1
577.879	570.5
578.286	582.9
578.714	566.4
579.121	567.5
579.528	575.1
579.935	581.3
580.364	562.6
580.771	561.6
581.178	560.8
581.585	576.3
582.014	576.2
582.421	562
582.829	562.5
583.236	581.9
583.644	566.1
584.073	569.6
584.481	566.6
584.889	559.6
585.296	571.3
585.726	569.6
586.134	563.6
586.542	565.3
586.95	583.9
587.358	562.3
587.787	564.9
588.196	559.7
588.604	567
589.012	572.9
589.421	558.4
589.851	566
590.259	571.5
590.668	567.4
591.076	604.9
591.485	563.9
591.894	570.2
592.324	579.5
592.733	580.6
593.142	563.2
593.551	567.3
593.96	595.2
594.369	562.9
594.8	564.9
595.209	573.6
595.618	555.7
596.028	569.4
596.437	559.1
596.847	564.8
597.256	567.4
597.687	577.1
598.097	565.6
598.507	558
598.917	572.5
599.327	570.3
599.736	571.7
600.146	578.7
600.556	567.1
600.988	576.2
601.398	562.3
601.808	577
602.219	558.5
602.629	573.2
603.039	576.6
603.45	597.9
603.86	570.5
604.271	587.4
604.703	571.2
605.114	568.9
605.525	571.6
605.935	580.9
606.346	584.1
606.757	573
607.168	565.7
607.579	558.5
607.99	572.8
608.402	569.4
608.813	575.9
609.224	567.3
609.636	563.8
610.047	562.6
610.48	567.6
610.892	578.8
611.303	577.6
611.715	571.4
612.127	562
612.539	566.1
612.95	564
613.362	558
613.774	557.7
614.186	563.1
614.599	565.6
615.011	580.1
615.423	558
615.835	568.5
616.248	557.4
616.66	573.2
617.073	560.6
617.485	570.6
617.898	572.2
618.311	569.8
618.723	566.3
619.136	595.7
619.549	576.3
619.962	586.8
620.375	569.4
620.788	575.2
621.201	566.6
621.614	575.6
622.028	563.5
622.441	574.5
622.854	580.2
623.268	562.2
623.681	573.9
624.095	566.8
624.509	581.1
624.922	576.8
625.336	558.9
625.728	571.7
626.142	575.4
626.556	584.4
626.97	576
627.384	564.4
627.799	569
628.213	583.2
628.627	569.9
629.041	567.4
629.456	563.3
629.87	566.2
630.285	574.5
630.699	578.1
631.093	571.8
631.507	566.9
631.922	574.5
632.337	581.6
632.752	564.5
633.167	564.9
633.582	562
633.997	561.9
634.412	566.6
634.806	569
635.221	560.1
635.637	582.6
636.052	553.5
636.468	569.3
636.883	585.4
637.299	566.9
637.715	554.8
638.109	569.2
638.525	558.9
638.941	586
639.357	574.1
639.773	585.4
640.189	562.6
640.584	565.3
641	568.4
641.416	557.4
641.832	562.2
642.249	561.3
642.665	564.8
643.06	572.8
643.477	571.6
643.894	553.6
644.31	567.4
644.727	571.2
645.123	561.2
645.54	559.5
645.957	570.5
646.374	568.9
646.77	568.4
647.187	596.3
647.604	567
648.021	554.5
648.439	561.5
648.835	571.7
649.252	574.1
649.67	567.4
650.088	575.1
650.484	570
650.902	571
651.32	570.1
651.738	566.4
652.134	572.5
652.552	591.4
652.971	578.9
653.389	568.2
653.786	584.6
654.204	567.9
654.622	557.6
655.019	567.3
655.438	571.9
655.857	574.3
656.275	582.9
656.673	559.6
657.091	637.2
657.51	559.3
657.908	579.7
658.327	591.3
658.746	553
659.144	570
659.563	580
659.982	569.6
660.38	559.6
660.8	565.5
661.219	577.5
661.617	572.5
662.037	566.3
662.457	576.7
662.855	558.9
663.275	596.1
663.695	567.6
664.094	563.4
664.514	572.9
664.934	562.2
665.333	574.5
665.753	563.3
666.152	567.5
666.572	559.5
666.993	578.6
667.392	560.2
667.812	561
668.212	561.6
668.632	574.3
669.053	560.7
669.453	566.5
669.874	561.5
670.273	570.6
670.694	557.2
671.116	579.3
671.515	571.3
671.937	563.7
672.337	559.3
672.758	559.2
673.158	569.5
673.58	559
673.98	565.9
674.402	579.4
674.824	561.1
675.224	561.2
675.646	555.5
676.047	559.5
676.469	565.5
676.869	564.8
677.292	567.1
677.693	556.3
678.115	566.4
678.516	572.1
678.939	567.9
679.34	564.8
679.762	583
680.164	571.5
680.586	557.6
680.988	563
681.411	590.9
681.812	559.3
682.236	559.2
682.637	556.7
683.061	552.8
683.462	564.7
683.864	560.5
684.288	569.8
684.69	554.1
685.114	571.6
685.516	576.8
685.94	553.5
686.342	571.4
686.766	560.8
687.168	562.3
687.571	580.8
687.995	561.9
688.398	554.2
688.822	562.8
689.225	575.4
689.628	585.8
690.052	561.8
690.456	568.9
690.88	565.1
691.284	553
691.687	570.2
692.112	560.5
692.515	558.1
692.919	568.8
693.344	563.4
693.747	560.6
694.173	561.4
694.577	575.1
694.98	561.4
695.406	560.9
695.81	567.2
696.214	571.5
696.64	564.9
697.044	571.2
697.448	579.3
697.874	560.7
698.279	561.4
698.684	552.7
699.11	559.4
699.514	562.7
699.919	564.7
700.324	558.4
700.75	566.8
701.156	568.8
701.561	573.1
701.987	570.6
702.393	575.5
702.798	576.7
703.203	560.4
703.63	564.5
704.036	562.3
704.442	569.8
704.847	557.7
705.274	561.9
705.68	570.7
706.086	573.2
706.492	551.4
706.92	566.1
707.326	574.3
707.732	564.1
708.139	560
708.545	558.9
708.973	560.3
709.38	561.4
709.786	549.2
710.193	578.3
710.6	566.3
711.028	553.5
711.435	567.3
711.842	564.9
712.249	563.2
712.656	565.1
713.064	574
713.492	558.3
713.9	565.7
714.307	575
714.715	568
715.123	569.9
715.53	566.9
715.938	571.9
716.367	567
716.775	560.5
717.184	558.9
717.592	560.6
718	577.1
718.408	597.6
718.816	612.1
719.225	570.6
719.633	568.2
720.042	556.4
720.472	562.7
720.881	581.6
721.29	570.8
721.699	554.6
722.108	567.1
722.517	566.7
722.926	564.1
723.335	570.1
723.744	563.1
724.154	562.1
724.563	566.2
724.973	568.2
725.382	563.7
725.792	565.1
726.202	558.9
726.612	571.3
727.022	567.7
727.432	556.6
779.813	563.5
780.223	602.2
780.634	557.7
781.044	562.6
781.454	559.3
781.865	574
782.276	560.6
782.686	570.4
783.097	567.9
783.508	562.7
783.919	566.2
784.33	572.8
784.741	572
785.152	560.5
785.563	555.1
785.974	557.8
786.386	574.6
786.776	559.4
787.188	562.7
787.599	556.3
788.011	567.9
788.423	569.1
788.835	556.6
789.247	555.1
789.659	557.2
790.071	555.6
790.483	602.2
790.874	560.7
791.286	568.8
791.699	552.8
792.111	564.7
792.524	561.5
792.937	562.8
793.349	551.8
793.741	556.1
794.154	555
794.567	579.1
794.98	566.9
795.393	551.7
795.785	571.4
796.198	556.9
796.612	566.5
797.026	563.2
797.439	553.2
797.831	562.2
798.245	554.1
798.659	558.8
799.073	558.3
799.487	558.7
799.88	564.6
800.294	564
800.708	565.4
801.123	561.4
801.516	578.6
801.93	558.4
802.345	553
802.76	557.6
803.153	575.3
803.568	576
803.983	578
804.377	568.7
804.792	550.3
805.207	548.1
805.601	563.3
806.016	592.2
806.432	557.5
806.826	593.6
807.242	575.8
807.658	568
808.052	556.6
808.468	559.5
808.884	556.4
809.279	565.8
809.695	576.1
810.111	581.4
810.506	567.1
810.922	581.4
811.339	562.7
811.734	567.1
812.151	556.7
812.546	556.2
812.963	563.3
813.38	564.8
813.776	565
814.193	587.8
814.589	559.5
815.006	560.1
815.402	557.6
815.82	550.5
816.237	557.9
816.633	565.8
817.051	552
817.448	565.5
817.866	546.5
818.262	584.4
818.68	555.8
819.077	551.2
819.495	555.6
819.892	599.8
820.311	549.9
820.708	554
821.127	557.4
821.524	569.9
821.943	562.1
822.34	576.4
822.759	566.9
823.157	565.2
823.576	570.1
823.974	570.4
824.393	573.2
824.791	556.8
825.189	549.4
825.609	558.2
826.007	559.6
826.427	545.1
826.826	559.3
827.246	565.4
827.644	544.5
828.043	561
828.463	560.2
828.862	567.8
829.261	564.6
829.682	548.4
830.081	567.4
830.502	553.1
830.901	566
831.301	557.1
831.722	554.4
832.121	563.9
832.521	554
832.943	561.9
833.342	558.3
833.742	558.5
834.164	558.6
834.564	550.9
834.965	559.4
835.386	564
835.787	554.5
836.188	551.5
836.588	558.7
837.01	561.1
837.411	555.1
837.812	566.3
838.213	562.4
838.636	556
839.037	625
839.438	561.2
839.84	564.4
840.263	564.1
840.664	567.3
841.066	562.6
841.468	562.1
841.891	556.1
842.293	571.3
842.695	571.1
843.098	568.4
843.5	555
843.902	562.6
844.326	562.6
844.729	561.2
845.131	571
845.534	559.7
845.937	572.9
846.34	576.5
846.764	556.2
847.167	561.5
847.571	556.6
847.974	567.7
