#lambda/nm	C1
208.295	488.5
208.67	448.7
209.045	413.9
209.419	416.6
209.794	600.7
210.169	580.3
210.544	699
210.919	598.1
211.295	590.7
211.67	595.2
212.045	589.6
212.421	589.7
212.796	627.5
213.172	583.9
213.547	590
213.923	592.3
214.299	582.5
214.675	596.8
215.051	592.3
215.427	592.7
215.803	616.6
216.179	595
216.555	580.8
216.932	600.8
217.308	594.6
217.684	592
218.061	600.1
218.438	595.5
218.814	586.9
219.191	604.7
219.568	583
219.945	589.3
220.322	597.2
220.699	597.9
221.076	595.9
221.453	592.8
221.83	583.9
222.208	587.2
222.585	589.8
222.962	595.1
223.34	597.5
223.717	597.5
224.095	586.9
224.473	592
224.851	591.8
225.229	587
225.607	605.5
225.985	586.7
226.363	595.5
226.741	593.1
227.119	589.1
227.497	597.3
227.876	584.9
228.254	596.7
228.633	596.4
229.011	594.2
229.39	599.4
229.769	593.7
230.148	596.3
230.527	609.4
230.905	586.8
231.284	595.2
231.664	588.7
232.043	603
232.422	593.1
232.801	588.2
233.181	595.9
233.56	584.5
233.94	592
234.319	579.8
234.699	587.8
235.079	625.3
235.458	627.2
235.838	605.5
236.218	587.5
236.598	579.9
236.978	589.3
237.358	584.8
237.738	587.5
238.119	596.8
238.499	586
238.88	594.8
239.26	607.4
239.641	584.3
240.021	590.5
240.402	592.1
240.783	590.3
241.163	596.1
241.544	596.7
241.925	590.1
242.306	610.9
242.687	589.6
243.069	597.2
243.45	596.3
243.831	585.5
244.212	589.1
244.594	629.5
244.975	601.4
245.357	597.3
245.739	587.3
246.12	599
246.502	603.9
246.884	590.4
247.266	592.4
247.648	598.3
248.03	616
248.412	596.1
248.794	595.8
249.176	589.2
249.559	596.1
249.941	589.8
250.323	581.8
250.706	586.4
251.089	592.1
251.471	591.2
251.854	591.7
252.237	594.6
252.62	598.7
253.002	589.3
253.385	592.1
253.769	607.2
254.152	594.4
254.535	605.7
254.918	588.5
255.301	595.2
255.685	592.2
256.068	583.4
256.452	615.6
256.835	600.5
257.219	604.1
257.603	601.9
257.986	583.6
258.37	602.2
258.754	580.3
259.138	602.2
259.522	600.2
259.906	589.5
260.29	596.3
260.675	589.2
261.059	594.7
261.443	584.2
261.828	598.5
262.212	592
262.597	578.3
262.981	586.7
263.366	595.7
263.751	594.2
264.136	588.2
264.521	594.3
264.906	580.1
265.291	605.5
265.676	594.1
266.061	600.3
266.446	611.9
266.831	592.5
267.217	610.1
267.602	601.7
267.987	595.3
268.373	587.2
268.759	604.1
269.144	600.1
269.53	591.6
269.916	587.3
270.302	584.5
270.688	598.5
271.074	594.8
271.46	604.3
271.846	622
272.232	591.9
272.618	594.5
273.004	590.6
273.391	601
273.777	612.4
274.164	596.6
274.55	605.3
274.937	594.4
275.324	591.1
275.71	594.7
276.097	602.3
276.484	589.7
276.871	597.6
277.258	598.8
277.645	582.9
278.032	597.6
278.419	589
278.807	597.6
279.194	581.7
279.581	587.5
279.969	603.4
280.356	593.6
280.744	594.4
281.131	615.6
281.519	602.5
281.907	593.2
282.295	589.6
282.682	606.7
283.07	595.9
283.458	601.5
283.846	606.2
284.235	606.1
284.623	602.1
285.011	591.5
285.399	593.9
285.788	594.1
286.176	585.2
286.565	602.2
286.953	590.8
287.342	594
287.731	591.9
288.119	588.5
288.508	590.1
288.897	589.1
289.286	578.7
289.675	592.4
290.064	603.9
290.453	589.6
290.821	590.9
291.21	603.5
291.599	589.9
291.989	587.4
292.378	600.4
292.768	613.5
293.157	598.3
293.547	605.2
293.936	591
294.326	595.8
294.716	596.3
295.106	593.8
295.496	596.6
295.886	601.4
296.276	592.3
296.666	584.7
297.056	586.5
297.446	587
297.836	611.4
298.227	590.1
298.617	596.2
299.008	611.7
299.398	597.1
299.789	589.5
300.179	600.5
300.57	612.6
300.961	591.5
301.352	595.8
301.742	602.7
302.133	596.3
302.524	602.2
302.915	598.2
303.307	587.4
303.698	603.7
304.089	601.2
304.48	591.1
304.872	604.8
305.263	596.8
305.655	590.6
306.046	596.1
306.438	599.7
306.829	595.7
307.221	609.6
307.613	603.8
308.005	605.9
308.397	604.8
308.789	623.2
309.181	620.3
309.573	610.6
309.965	604.2
310.357	597.9
310.749	599.9
311.142	594.3
311.534	595.7
311.926	600.7
312.319	599.5
312.711	586.8
313.104	604.4
313.497	588.9
313.889	634.3
314.282	614.4
314.675	621.1
315.068	594.7
315.461	599.5
315.854	625.5
316.247	606.1
316.64	595.8
317.033	599.1
317.405	605.7
317.798	596.4
318.192	601.8
318.585	591.9
318.979	603.8
319.372	585.4
319.766	594.7
320.16	606.2
320.553	612.8
320.947	614.8
321.341	588.8
321.735	595.6
322.129	585.4
322.523	619.4
322.917	590.5
323.311	605.8
323.705	601.5
324.099	598.4
324.494	612.6
324.888	609
325.282	596.5
325.677	596.9
326.071	601.8
326.466	607.5
326.861	595
327.255	607
327.65	606.8
328.045	612
328.44	599.9
328.835	603
329.23	590.7
329.625	611.3
330.02	595.8
330.415	614.7
330.81	595.7
331.206	598
331.601	591.3
331.996	600.6
332.37	603.9
332.766	585.6
333.161	612.4
333.557	590.1
333.953	591.6
334.348	936
334.744	595.6
335.14	589.6
335.536	586.5
335.932	604.6
336.328	597.5
336.724	597.7
337.12	594.4
337.516	594.6
337.913	593.8
338.309	608.9
338.705	596.6
339.102	603.7
339.498	593.6
339.895	610.6
340.291	592.3
340.688	603.5
341.085	592
341.481	593.1
341.878	596
342.275	618.7
342.672	585.4
343.069	591.3
343.466	583
343.842	605.5
344.239	592.5
344.636	592.6
345.033	587.8
345.431	592.5
345.828	595.8
346.225	589.8
346.623	598
347.02	596.6
347.418	601.9
347.816	606.8
348.213	582.6
348.611	601
349.009	589
349.407	602.1
349.805	583.7
350.203	584.3
350.601	599.2
350.999	590.2
351.397	585.4
351.795	595.5
352.193	598.2
352.57	598.2
352.969	606.9
353.367	589.4
353.766	586.7
354.164	587.3
354.563	601.2
354.961	593.9
355.36	591.2
355.759	587.6
356.158	576.1
356.557	584.4
356.956	578.6
357.355	576.6
357.754	593.6
358.153	597.2
358.552	610.4
358.951	589.1
359.35	597.9
359.75	581.8
360.149	572.7
360.527	573.2
360.926	580.6
361.326	591.2
361.726	585.9
362.125	585.1
362.525	593.4
362.925	586.5
363.325	594.4
363.724	599.2
364.124	581
364.524	582.6
364.924	586.4
365.324	606.1
365.725	578.3
366.125	592.7
366.525	592.9
366.904	585.3
367.304	571.8
367.705	608.3
368.105	602.8
368.506	580.1
368.906	594.4
369.307	589.7
369.708	595.7
370.108	571.5
370.509	597.9
370.91	579.7
371.311	589
371.712	588
372.113	585.3
372.514	575.5
372.894	585.9
373.295	578.2
373.696	603.5
374.097	597
374.499	623.1
374.9	589.7
375.301	582.8
375.703	592.3
376.105	581.1
376.506	590.9
376.908	600.3
377.309	594.2
377.711	585.7
378.113	585.2
378.493	588
378.895	586.2
379.297	593.3
379.699	574.6
380.102	589.4
380.504	586.4
380.906	587.2
381.308	614.3
381.71	583.9
382.113	596.5
382.515	584.3
382.918	591.6
383.299	585.6
383.701	597.6
384.104	589.3
384.507	572.7
384.909	588.3
385.312	575
385.715	577.9
386.118	589.7
386.521	575.4
386.924	594
387.327	580.1
387.709	575.4
388.112	570.7
388.515	581
388.918	588.6
389.322	588.2
389.725	577.6
390.129	608
390.532	591.9
390.936	585
391.339	583.2
391.743	587.7
392.125	583.1
392.529	593.2
392.933	600.6
393.337	585.4
393.74	585.6
394.144	588.3
394.548	583.1
394.953	581.4
395.357	597.9
395.761	579.4
396.144	584.5
396.548	585.6
396.952	586.6
397.357	586.7
397.761	583.9
398.166	589.8
398.57	585.2
398.975	583.7
399.379	586.9
399.763	634.6
400.168	585.4
400.572	590.9
400.977	584.9
401.382	607.9
401.787	595
402.192	605.9
402.597	600.6
403.002	573.1
403.386	601.2
403.791	605
404.197	583.7
404.602	588.4
405.007	587.4
405.413	583.3
405.818	585
406.224	579
406.608	583.4
407.014	578.4
407.42	599.2
407.825	580.6
408.231	595.4
408.637	592.6
409.043	602.8
409.449	578.4
409.834	586
410.24	583
410.646	596.1
411.052	593.1
411.458	592.3
411.865	593.9
412.271	602.6
412.677	585.4
413.062	589.7
413.469	580
413.875	613.8
414.282	604.2
414.689	591
415.095	593.9
415.502	579.1
415.888	592
416.294	577.5
416.701	628.5
417.108	581.7
417.515	592.2
417.923	584.6
418.33	609.9
418.715	587.9
419.123	586
419.53	587.5
419.937	595.6
420.345	597.3
420.752	581.5
421.16	601.6
421.546	586.2
421.953	591.4
422.361	574.2
422.769	590.2
423.177	576.2
423.585	611.1
423.992	606.3
424.379	594.5
424.787	602.2
425.195	603.2
425.603	583.4
426.011	601.6
426.419	596.9
426.806	593.1
427.214	593.7
427.623	603.6
428.031	600.4
428.44	589
428.848	600.9
429.235	601.9
429.644	593.3
430.053	587.7
430.461	603.1
430.87	620.2
431.279	600.4
431.666	582.2
432.075	588.2
432.484	595.3
432.893	585.8
433.302	608.2
433.711	628.7
434.099	594.1
434.508	586.2
434.918	581
435.327	596.5
435.737	587.6
436.125	589.8
436.534	592.8
436.944	595.5
437.353	594.6
437.763	609
438.173	575.4
438.561	602
438.971	571
439.381	587.7
439.791	589.6
440.201	567.1
440.589	593.9
440.999	589
441.409	590.3
441.819	576.6
442.23	593.6
442.619	588
443.029	590.3
443.439	589.3
443.85	599.2
444.26	596.8
444.649	590.8
445.06	586.6
445.471	584.9
445.881	588
446.292	603.8
446.682	601.6
447.092	572.1
447.503	636.9
447.914	587.2
448.325	583.4
448.715	590
449.126	576.1
449.537	584
449.948	582.8
450.338	583.4
450.75	593.9
451.161	588.1
451.572	589.1
451.984	577.4
452.374	564.8
452.786	582.1
453.197	586.7
453.609	590.6
453.999	569.5
454.411	577.6
454.823	594.1
455.235	586.2
455.647	581.5
456.037	583.6
456.449	568.3
456.862	584.4
457.274	585.5
457.665	581
458.077	583
458.489	593.5
458.902	580.2
459.293	583.8
459.705	582.9
460.118	576.6
460.53	586.8
460.921	582.8
461.334	587.3
461.747	581.7
462.16	595.5
462.551	600.6
462.964	592.7
463.377	573.2
463.79	583.6
464.182	592.9
464.595	578.9
465.008	583
465.421	586.3
465.813	583
466.226	595.7
466.64	579.5
467.053	626.2
467.445	592
467.859	584.9
468.272	586.4
468.686	595.1
469.078	581
469.492	578.2
469.906	588.8
470.298	588
470.712	577.1
471.126	608.4
471.54	566.3
471.933	577.3
472.347	581.1
472.761	574.3
473.175	568.2
473.568	581.2
473.982	573.4
474.397	579.9
474.79	581.8
475.204	590.8
475.619	571.4
476.033	581.9
476.426	579.1
476.841	580.2
477.256	606.6
477.649	579
478.064	573.9
478.479	576.9
478.872	577.8
479.287	565.1
479.702	576.4
480.118	578.3
480.511	585.2
480.927	563
481.342	578.5
481.736	584
482.151	573.1
482.566	586
482.96	576.4
483.376	592.5
483.792	575.5
484.186	580.8
484.602	576.9
485.017	583.7
485.412	577.8
485.827	581.7
486.243	578.5
486.638	605.9
487.054	589.7
487.47	597.9
487.865	573
488.281	578.1
488.697	579.4
489.092	578
489.508	572.6
489.925	588.1
490.32	573.7
490.736	580.7
491.153	574.5
491.548	584.4
491.964	593.2
492.381	570.2
492.776	582.5
493.193	581.2
493.61	589.1
494.006	582
494.422	586.2
494.84	568.2
495.235	582.3
495.652	581.7
496.069	584.7
496.465	569.7
496.883	576.9
497.3	603.7
497.696	571.4
498.113	585.2
498.509	573.3
498.927	569.8
499.344	568.4
499.741	573.3
500.158	587.2
500.576	590.1
500.973	578.1
501.39	571.5
501.787	571.6
502.205	578.8
502.623	573.3
503.02	565.6
503.438	570
503.856	577.2
504.253	576.3
504.671	581.3
505.068	569.6
505.486	575.6
505.905	596.9
506.302	577.8
506.72	587.8
507.118	565.5
507.536	573.2
507.955	574.8
508.352	584.5
508.771	578.6
509.169	576.8
509.587	573.1
510.006	573.8
510.404	568.6
510.823	570.1
511.221	574.4
511.64	571.9
512.038	590.8
512.457	579.1
512.877	574.4
513.275	574.7
513.694	574.2
514.092	576.4
514.512	579.3
514.91	581.4
515.33	577.3
515.749	582.6
516.148	576.5
516.568	581.4
516.966	577.3
517.386	570.8
517.785	569.9
518.205	571.7
518.603	569.8
519.024	569.6
519.444	573.4
519.843	585.7
520.263	575.7
520.662	577.2
521.082	568.1
521.481	574.3
521.902	574.4
522.301	572
522.722	577.4
523.121	576.6
523.542	568.5
523.963	575
524.362	574.8
524.783	579.1
525.183	577.1
525.604	578.8
526.003	569.7
526.425	562.2
526.824	580.4
527.246	582.9
527.646	582.4
528.067	581.4
528.467	569.5
528.888	585.5
529.289	572.6
529.71	574.9
530.11	570
530.532	571.7
530.932	563.1
531.354	565.5
531.755	616.7
532.176	584.7
532.577	568
532.999	575.9
533.4	570
533.822	582.5
534.223	566.6
534.645	579.5
535.046	569.5
535.468	570.3
535.869	581.7
536.292	570.1
536.693	571.5
537.115	580.4
537.516	567.6
537.939	577.6
538.34	592.7
538.742	586.9
539.165	578
539.566	576.2
539.989	569.2
540.391	570.1
540.814	566.8
541.216	576.1
541.639	580.1
542.041	585.2
542.464	572.8
542.866	572.8
543.268	564.1
543.691	578.4
544.093	584.1
544.517	597.1
544.919	566.4
545.343	591.3
545.745	565.8
546.147	571
546.571	571
546.974	559.6
547.398	572.3
547.8	580.8
548.224	569.1
548.627	560.8
549.03	576.4
549.454	564.6
549.857	561.6
550.281	565.7
550.684	567.6
551.087	584.8
551.512	577.7
551.915	579.4
552.34	576.9
552.743	564
553.146	573.8
553.571	568.1
553.975	585.1
554.399	566.1
554.803	622.7
555.207	570.1
555.632	570.5
556.036	574.5
556.461	560.5
556.865	574.3
557.268	562.8
557.694	574.6
558.098	575.5
558.502	576.9
558.927	572
559.332	570.6
559.736	569.9
560.162	580.4
560.566	570.9
560.992	577
561.396	572
561.801	572.4
562.227	575.6
562.631	568.7
563.036	573.8
563.462	583.1
563.867	574
564.272	567.5
564.698	578
565.103	561.4
565.508	586.3
565.935	575
566.34	575.1
566.745	582.6
567.172	567.1
567.577	593.5
567.982	588.3
568.409	574.8
568.815	564.8
569.22	567.4
569.626	580.9
570.053	561.7
570.459	578.7
570.865	583
571.292	580
571.698	569.6
572.104	559.2
572.531	568.6
572.937	578.8
573.343	575.2
573.75	573.6
574.177	576
574.583	577.4
574.99	575.6
575.396	577.9
575.824	572.6
576.231	572.2
576.637	567.1
577.065	597.4
577.472	571.9
577.879	571.8
578.286	586.7
578.714	566.8
579.121	569.4
579.528	578
579.935	577.3
580.364	573.5
580.771	557.4
581.178	568.3
581.585	573.3
582.014	577
582.421	570.1
582.829	572.6
583.236	578.8
583.644	563.1
584.073	571.2
584.481	576.5
584.889	568.7
585.296	580.9
585.726	573.8
586.134	563.1
586.542	567
586.95	585.6
587.358	558.9
587.787	577.3
588.196	560.6
588.604	565.8
589.012	564.2
589.421	564.1
589.851	564.7
590.259	573.5
590.668	569.7
591.076	609.9
591.485	563.8
591.894	568.8
592.324	582.5
592.733	580.4
593.142	562.9
593.551	565.6
593.96	604.8
594.369	560.8
594.8	562
595.209	571
595.618	557.4
596.028	566.1
596.437	560
596.847	573
597.256	571.5
597.687	573.5
598.097	571.4
598.507	555.8
598.917	577.2
599.327	578.6
599.736	579.9
600.146	577.7
600.556	566.6
600.988	581.5
601.398	573.7
601.808	579.3
602.219	559.8
602.629	574.3
603.039	576.4
603.45	595.9
603.86	571.8
604.271	581.7
604.703	572.2
605.114	571.4
605.525	570.2
605.935	575.8
606.346	589.5
606.757	575.5
607.168	574.2
607.579	565.4
607.99	587.2
608.402	573.8
608.813	577.3
609.224	568.2
609.636	562.3
610.047	560.9
610.48	569.4
610.892	577.5
611.303	576.7
611.715	569.5
612.127	555.1
612.539	569.5
612.95	566.1
613.362	562.8
613.774	556.9
614.186	560.3
614.599	562.4
615.011	576.5
615.423	555.5
615.835	562.4
616.248	556
616.66	564.7
617.073	560.6
617.485	562
617.898	570.5
618.311	572.2
618.723	563.6
619.136	598.5
619.549	580.6
619.962	591.3
620.375	566.3
620.788	574
621.201	560.8
621.614	576.5
622.028	565.1
622.441	567.1
622.854	584.2
623.268	560.5
623.681	573.6
624.095	568.7
624.509	576.7
624.922	574
625.336	561.4
625.728	572
626.142	582.2
626.556	590.4
626.97	578.2
627.384	566.4
627.799	565.2
628.213	580.8
628.627	561.1
629.041	565.8
629.456	560.1
629.87	567.3
630.285	573.2
630.699	580.1
631.093	571.9
631.507	577.6
631.922	572.9
632.337	583.1
632.752	562.6
633.167	565.9
633.582	563.7
633.997	564.6
634.412	562.6
634.806	569.7
635.221	558.5
635.637	575.8
636.052	555
636.468	574
636.883	586.2
637.299	564.3
637.715	554.9
638.109	567.2
638.525	556.2
638.941	574
639.357	570.4
639.773	577.4
640.189	562.5
640.584	567.9
641	568.6
641.416	548.8
641.832	566
642.249	560.7
642.665	568.2
643.06	572.2
643.477	579.8
643.894	553
644.31	562.8
644.727	566.8
645.123	567.5
645.54	560.1
645.957	569.9
646.374	574.4
646.77	563.7
647.187	594.1
647.604	566.8
648.021	558.7
648.439	553.2
648.835	570.8
649.252	567.9
649.67	563.6
650.088	565.9
650.484	569.6
650.902	578.4
651.32	571.2
651.738	565.6
652.134	571.3
652.552	582.6
652.971	569.4
653.389	567.9
653.786	583.8
654.204	567.3
654.622	560
655.019	566.1
655.438	572.2
655.857	571.8
656.275	572.9
656.673	563.8
657.091	637.7
657.51	567
657.908	573.3
658.327	581.6
658.746	559.9
659.144	570.5
659.563	580
659.982	571.6
660.38	558.8
660.8	570.5
661.219	582.7
661.617	575.8
662.037	566.7
662.457	576.9
662.855	549.9
663.275	592.4
663.695	568.1
664.094	567
664.514	570.1
664.934	560
665.333	572.4
665.753	561.2
666.152	561.6
666.572	562.7
666.993	578.1
667.392	570.5
667.812	570.5
668.212	564.9
668.632	578.8
669.053	562.2
669.453	568.2
669.874	569.4
670.273	570.1
670.694	562.7
671.116	576.3
671.515	576.5
671.937	563.5
672.337	568.1
672.758	573.4
673.158	577.6
673.58	555.9
673.98	569.6
674.402	572.7
674.824	569
675.224	562.6
675.646	565
676.047	563.2
676.469	569.2
676.869	572.5
677.292	569
677.693	566
678.115	561
678.516	574.6
678.939	569.2
679.34	567.3
679.762	578.3
680.164	571
680.586	564.9
680.988	566.9
681.411	594.4
681.812	566.6
682.236	562.4
682.637	558.2
683.061	552.9
683.462	570.3
683.864	556.6
684.288	566.3
684.69	554.6
685.114	574.6
685.516	573.3
685.94	562.9
686.342	581.1
686.766	563.6
687.168	564
687.571	582.3
687.995	565.8
688.398	558.5
688.822	562.1
689.225	580.3
689.628	582.3
690.052	566.8
690.456	575.7
690.88	566.6
691.284	554.4
691.687	566.6
692.112	562.8
692.515	563.6
692.919	568.8
693.344	568.8
693.747	562.9
694.173	558.4
694.577	575.3
694.98	568
695.406	562.2
695.81	570.8
696.214	570.2
696.64	571.5
697.044	571.3
697.448	571.5
697.874	566
698.279	557.4
698.684	554.1
699.11	564.5
699.514	562.5
699.919	562.3
700.324	552.9
700.75	572.2
701.156	570.7
701.561	580.8
701.987	571.4
702.393	577.1
702.798	574
703.203	563.4
703.63	566.9
704.036	561.5
704.442	565.7
704.847	559.5
705.274	558.2
705.68	566.8
706.086	569.7
706.492	550.8
706.92	565.6
707.326	575.3
707.732	558.8
708.139	552.2
708.545	557.6
708.973	559.5
709.38	562.9
709.786	547.7
710.193	575.4
710.6	569.1
711.028	552.3
711.435	564.2
711.842	564.3
712.249	560.7
712.656	559.5
713.064	571.5
713.492	557.3
713.9	561
714.307	566.5
714.715	566.8
715.123	563.4
715.53	562.2
715.938	571
716.367	567.5
716.775	562.4
717.184	553.1
717.592	558.5
718	568.2
718.408	599
718.816	605.2
719.225	569.2
719.633	569.3
720.042	557.6
720.472	561.5
720.881	586.2
721.29	573.8
721.699	563.3
722.108	564
722.517	568.6
722.926	563.4
723.335	577
723.744	562.7
724.154	564.7
724.563	568.1
724.973	561.9
725.382	564.1
725.792	566.7
726.202	555.3
726.612	573.2
727.022	560.8
727.432	562.8
779.813	563.3
780.223	603
780.634	565.1
781.044	554.5
781.454	562.6
781.865	579.2
782.276	562.2
782.686	572.5
783.097	560.9
783.508	565.4
783.919	567.3
784.33	573.7
784.741	578.2
785.152	562.4
785.563	546.5
785.974	558.9
786.386	575.3
786.776	561
787.188	566.2
787.599	550.1
788.011	566.7
788.423	563.8
788.835	559.8
789.247	551.3
789.659	559.5
790.071	553.8
790.483	597.3
790.874	559.6
791.286	567.3
791.699	558.1
792.111	564.1
792.524	561.7
792.937	559.8
793.349	549.8
793.741	561.1
794.154	559.1
794.567	577.1
794.98	557.2
795.393	548.2
795.785	573.3
796.198	555.5
796.612	565.2
797.026	563.4
797.439	550.4
797.831	559.3
798.245	552.5
798.659	563.5
799.073	559.5
799.487	554.1
799.88	561.2
800.294	562.6
800.708	569.1
801.123	564.5
801.516	581.2
801.93	546.7
802.345	547.9
802.76	564
803.153	568.6
803.568	583.9
803.983	575.5
804.377	566.7
804.792	549.7
805.207	553.5
805.601	563.1
806.016	599
806.432	561.8
806.826	599.8
807.242	573.6
807.658	564.7
808.052	559.9
808.468	562
808.884	556.6
809.279	560.6
809.695	578.7
810.111	586.8
810.506	566.4
810.922	582.3
811.339	567
811.734	572.1
812.151	561.8
812.546	561.2
812.963	561.9
813.38	564.8
813.776	569.6
814.193	582.3
814.589	554
815.006	563.1
815.402	561.4
815.82	559.6
816.237	560.4
816.633	561.7
817.051	551.7
817.448	559.1
817.866	550.3
818.262	581.4
818.68	559.8
819.077	558.5
819.495	564
819.892	603.2
820.311	558.4
820.708	552.6
821.127	561
821.524	574
821.943	566.7
822.34	575.8
822.759	562.5
823.157	566.1
823.576	579.1
823.974	567.6
824.393	571.5
824.791	559.4
825.189	556.4
825.609	558.9
826.007	560.7
826.427	549.2
826.826	562.6
827.246	568.2
827.644	544
828.043	575.8
828.463	563.6
828.862	569.4
829.261	569
829.682	546.6
830.081	567.1
830.502	555.4
830.901	569.2
831.301	552
831.722	553.2
832.121	566.7
832.521	561.2
832.943	563
833.342	558.6
833.742	557.7
834.164	553.9
834.564	557.1
834.965	562.4
835.386	557.3
835.787	561
836.188	560.7
836.588	559.5
837.01	558.2
837.411	551
837.812	568.6
838.213	560.3
838.636	557.4
839.037	631.7
839.438	562.6
839.84	567.5
840.263	565.7
840.664	570.4
841.066	560.9
841.468	559.6
841.891	554.5
842.293	572.3
842.695	564.7
843.098	569.1
843.5	550.5
843.902	565
844.326	564.6
844.729	560.3
845.131	572.1
845.534	566.4
845.937	569
846.34	577.4
846.764	558
847.167	564.5
847.571	555
847.974	559.2
848.377	562.7
