#lambda/nm	C1
208.295	485.4
208.67	449.3
209.045	409.9
209.419	415.3
209.794	595
210.169	578.1
210.544	693.9
210.919	593.8
211.295	585
211.67	595.6
212.045	592.8
212.421	586.1
212.796	625.6
213.172	584.3
213.547	584.8
213.923	589.1
214.299	588.3
214.675	596.2
215.051	589.8
215.427	599
215.803	609
216.179	591.3
216.555	582.2
216.932	597.8
217.308	589.9
217.684	591.5
218.061	595.7
218.438	589.7
218.814	584.1
219.191	591.5
219.568	578.8
219.945	582.7
220.322	589.7
220.699	594.9
221.076	599
221.453	593.1
221.83	577.9
222.208	587.5
222.585	584.3
222.962	589.5
223.34	592.5
223.717	589.9
224.095	590.8
224.473	589.3
224.851	584.5
225.229	577.6
225.607	603.9
225.985	575.6
226.363	588.8
226.741	592.2
227.119	591
227.497	611
227.876	578.6
228.254	594.6
228.633	598.3
229.011	587.9
229.39	594.6
229.769	591.7
230.148	593.9
230.527	608.4
230.905	592.6
231.284	584.3
231.664	581.6
232.043	604.1
232.422	594.8
232.801	584.5
233.181	594.9
233.56	579
233.94	582.4
234.319	573.4
234.699	585.2
235.079	624.8
235.458	631.7
235.838	601.1
236.218	587.4
236.598	577.9
236.978	584.8
237.358	583.3
237.738	588.2
238.119	595.1
238.499	582.1
238.88	585.6
239.26	602.9
239.641	578.8
240.021	582.9
240.402	589.2
240.783	582.9
241.163	587.1
241.544	591.1
241.925	586.7
242.306	601.9
242.687	582
243.069	589.1
243.45	600.2
243.831	587.9
244.212	581.9
244.594	621.1
244.975	602.3
245.357	591
245.739	586.2
246.12	586.7
246.502	602.7
246.884	585.5
247.266	583.6
247.648	590.2
248.03	604.8
248.412	591
248.794	597.9
249.176	581.4
249.559	598.8
249.941	580.3
250.323	586.5
250.706	582.3
251.089	583.9
251.471	592.1
251.854	589.5
252.237	589.5
252.62	599.4
253.002	594.3
253.385	588
253.769	602
254.152	587.2
254.535	591.7
254.918	585
255.301	585.5
255.685	586.5
256.068	579.9
256.452	611.7
256.835	599.2
257.219	595.8
257.603	601.5
257.986	581.8
258.37	592.2
258.754	581.5
259.138	602.9
259.522	599.4
259.906	587.2
260.29	591.3
260.675	584.5
261.059	589.3
261.443	582.1
261.828	595.4
262.212	596.5
262.597	575.3
262.981	585
263.366	592.7
263.751	591.7
264.136	585.3
264.521	587.3
264.906	583.3
265.291	599.4
265.676	579.1
266.061	593.6
266.446	604.5
266.831	593.4
267.217	608.9
267.602	590.6
267.987	592
268.373	585.8
268.759	602.6
269.144	600.9
269.53	589.8
269.916	587.7
270.302	583.9
270.688	594.6
271.074	592.3
271.46	603
271.846	624.1
272.232	590.3
272.618	594.8
273.004	596.4
273.391	597.5
273.777	605.1
274.164	591.9
274.55	610.8
274.937	589.8
275.324	592.7
275.71	597.8
276.097	597.6
276.484	581.9
276.871	590.1
277.258	595
277.645	577
278.032	589.9
278.419	587.4
278.807	598.4
279.194	579.5
279.581	579.8
279.969	594.1
280.356	590.5
280.744	589.4
281.131	619.1
281.519	597
281.907	583.9
282.295	586.9
282.682	602.2
283.07	590.5
283.458	599.8
283.846	602.2
284.235	604
284.623	602.3
285.011	581.2
285.399	595
285.788	594.1
286.176	581.3
286.565	599.4
286.953	585.6
287.342	591.1
287.731	585
288.119	577.8
288.508	586.5
288.897	588.6
289.286	581.8
289.675	590.4
290.064	602.7
290.453	588.1
290.821	588.9
291.21	606.8
291.599	584.1
291.989	587.7
292.378	593.5
292.768	607.9
293.157	590.9
293.547	604.9
293.936	590.8
294.326	587.8
294.716	593
295.106	585.6
295.496	595.7
295.886	595.5
296.276	588.3
296.666	587.2
297.056	586.9
297.446	584.1
297.836	604
298.227	590.9
298.617	593.1
299.008	601.6
299.398	583.7
299.789	585.7
300.179	602.2
300.57	605.8
300.961	586.9
301.352	582.9
301.742	596.9
302.133	594.8
302.524	590.7
302.915	585.2
303.307	584.5
303.698	598.3
304.089	596.7
304.48	586.1
304.872	598.2
305.263	594.2
305.655	587.7
306.046	600.4
306.438	592.2
306.829	585
307.221	608.4
307.613	595.2
308.005	605.5
308.397	605.7
308.789	615.7
309.181	614.8
309.573	614.4
309.965	604
310.357	588.6
310.749	598.4
311.142	582.9
311.534	589.6
311.926	599
312.319	590
312.711	584.4
313.104	599.1
313.497	591.6
313.889	623.5
314.282	608.2
314.675	615.1
315.068	598.2
315.461	603.2
315.854	621.6
316.247	600.8
316.64	596
317.033	589.8
317.405	597.9
317.798	592
318.192	593.3
318.585	587.6
318.979	597.1
319.372	584.3
319.766	588.8
320.16	596.3
320.553	608.6
320.947	616.6
321.341	587.7
321.735	592.9
322.129	581.5
322.523	617.8
322.917	582.7
323.311	597.3
323.705	598.6
324.099	597
324.494	604.8
324.888	599.1
325.282	591.9
325.677	589.7
326.071	598.3
326.466	599.9
326.861	596.2
327.255	599.3
327.65	601.8
328.045	604.8
328.44	594.8
328.835	594.2
329.23	579.3
329.625	615.6
330.02	590.2
330.415	610.5
330.81	587.9
331.206	595.5
331.601	585.9
331.996	597.5
332.37	606.4
332.766	583.1
333.161	615.2
333.557	585.6
333.953	590.9
334.348	928.8
334.744	590.8
335.14	588.6
335.536	584.9
335.932	602.3
336.328	588.2
336.724	603.2
337.12	588.7
337.516	591.6
337.913	592.5
338.309	603.6
338.705	589.7
339.102	606.2
339.498	587.7
339.895	606.8
340.291	590.1
340.688	605
341.085	584.9
341.481	593.4
341.878	588.1
342.275	607.3
342.672	588.6
343.069	586.4
343.466	581.3
343.842	600.8
344.239	587.4
344.636	593.9
345.033	580.6
345.431	582.2
345.828	593.4
346.225	586.8
346.623	600.4
347.02	586.1
347.418	596.5
347.816	603.1
348.213	578.6
348.611	594.5
349.009	584.9
349.407	594.7
349.805	579
350.203	580.9
350.601	607.3
350.999	587.4
351.397	583.6
351.795	589.2
352.193	598.9
352.57	599.3
352.969	598.8
353.367	582.2
353.766	577.7
354.164	592.6
354.563	597.7
354.961	586.9
355.36	581.4
355.759	588.6
356.158	579
356.557	583.2
356.956	581.5
357.355	576.2
357.754	593.9
358.153	594
358.552	609
358.951	586.3
359.35	593.7
359.75	580.3
360.149	575.7
360.527	569.8
360.926	580.8
361.326	595.2
361.726	586
362.125	582.1
362.525	587.9
362.925	585.1
363.325	585.9
363.724	580.9
364.124	580.6
364.524	575.6
364.924	583.1
365.324	600.2
365.725	572.4
366.125	591.4
366.525	589
366.904	578.1
367.304	572.8
367.705	601.3
368.105	598.9
368.506	583.1
368.906	585.4
369.307	580.9
369.708	587.2
370.108	575.6
370.509	601
370.91	573.7
371.311	587.2
371.712	584.1
372.113	586.6
372.514	575.9
372.894	587.9
373.295	581.2
373.696	589.9
374.097	591.4
374.499	614.2
374.9	586.7
375.301	572.9
375.703	582.5
376.105	574.1
376.506	589
376.908	591.9
377.309	581.9
377.711	582
378.113	578
378.493	583.9
378.895	580.9
379.297	588.1
379.699	570.7
380.102	589.8
380.504	580.5
380.906	580.2
381.308	608.8
381.71	586.2
382.113	592.4
382.515	580.7
382.918	588.9
383.299	580.3
383.701	594.6
384.104	587.2
384.507	566.6
384.909	582.9
385.312	571.3
385.715	571.7
386.118	574
386.521	572.2
386.924	590.1
387.327	573.1
387.709	569.7
388.112	573.2
388.515	581.5
388.918	580
389.322	585.2
389.725	575.3
390.129	600.6
390.532	588.7
390.936	577.2
391.339	581.6
391.743	589.4
392.125	576.4
392.529	591.4
392.933	590.7
393.337	586.8
393.74	575.9
394.144	584.3
394.548	580.1
394.953	582.2
395.357	589.7
395.761	579.5
396.144	584.4
396.548	582.6
396.952	580.7
397.357	583
397.761	580.1
398.166	579.2
398.57	585.1
398.975	573.5
399.379	582.8
399.763	635
400.168	583.5
400.572	584.5
400.977	575.2
401.382	598.9
401.787	591.7
402.192	597.2
402.597	594.2
403.002	570.9
403.386	597.8
403.791	601.9
404.197	576.4
404.602	581.2
405.007	584.3
405.413	579.8
405.818	572.1
406.224	579.6
406.608	585.3
407.014	577.2
407.42	600.9
407.825	580.1
408.231	596.1
408.637	582.9
409.043	592.8
409.449	577.2
409.834	579
410.24	589
410.646	597.5
411.052	592.3
411.458	586
411.865	589.9
412.271	593.4
412.677	591.9
413.062	587.3
413.469	574.1
413.875	609.7
414.282	598.3
414.689	585.9
415.095	587.7
415.502	577.1
415.888	585.4
416.294	566.1
416.701	615.4
417.108	579.7
417.515	592.3
417.923	577.8
418.33	605.5
418.715	595.5
419.123	581.5
419.53	579
419.937	581.7
420.345	596.7
420.752	580.5
421.16	595.5
421.546	583.6
421.953	588.1
422.361	575.8
422.769	582.1
423.177	578.6
423.585	608
423.992	600.7
424.379	592.7
424.787	594
425.195	606.4
425.603	581
426.011	596.2
426.419	597.3
426.806	586.8
427.214	591.1
427.623	594.1
428.031	600.9
428.44	588.6
428.848	595
429.235	599.7
429.644	594.3
430.053	587.5
430.461	603
430.87	610.1
431.279	595.9
431.666	580.1
432.075	580.6
432.484	592.2
432.893	575.7
433.302	607
433.711	629.7
434.099	587.7
434.508	586.1
434.918	572.7
435.327	592.5
435.737	585.1
436.125	588.4
436.534	587.4
436.944	586.2
437.353	587.8
437.763	608.7
438.173	578.8
438.561	597.1
438.971	572.2
439.381	587.8
439.791	585.9
440.201	566.3
440.589	590.9
440.999	589.9
441.409	583.8
441.819	576.3
442.23	593.2
442.619	585.6
443.029	578.8
443.439	587.7
443.85	586.5
444.26	601.6
444.649	591.3
445.06	586.3
445.471	576.7
445.881	585.9
446.292	599.9
446.682	601.1
447.092	570.8
447.503	627.3
447.914	585.9
448.325	582.2
448.715	581.4
449.126	578.8
449.537	582.7
449.948	579.6
450.338	583.9
450.75	593.1
451.161	583.5
451.572	592.6
451.984	581.5
452.374	564.4
452.786	579.9
453.197	584.5
453.609	586.4
453.999	564
454.411	581
454.823	592.6
455.235	578.6
455.647	574.4
456.037	586.3
456.449	561.7
456.862	580.6
457.274	583.2
457.665	571.7
458.077	587.5
458.489	588.7
458.902	573.9
459.293	584.6
459.705	577.4
460.118	571.4
460.53	582.8
460.921	579.5
461.334	579.6
461.747	583.1
462.16	589.6
462.551	594.5
462.964	582.1
463.377	565.7
463.79	577.7
464.182	588.6
464.595	576
465.008	585.6
465.421	584.4
465.813	572.9
466.226	590.6
466.64	573.9
467.053	628.8
467.445	588.6
467.859	580
468.272	579.8
468.686	596.9
469.078	579.2
469.492	567.3
469.906	574.2
470.298	586.3
470.712	577.3
471.126	612.3
471.54	568.1
471.933	568
472.347	578.3
472.761	578.6
473.175	571.5
473.568	574.2
473.982	569.9
474.397	573.8
474.79	578.3
475.204	587.7
475.619	575.2
476.033	581.2
476.426	580
476.841	570.7
477.256	598.4
477.649	566.5
478.064	569.1
478.479	567.8
478.872	572.4
479.287	561.6
479.702	571.8
480.118	578.2
480.511	579
480.927	568
481.342	570.4
481.736	574.3
482.151	565.6
482.566	584.9
482.96	573.9
483.376	582.5
483.792	567.3
484.186	584.5
484.602	573.8
485.017	581.3
485.412	574.7
485.827	584.9
486.243	574.7
486.638	598.9
487.054	582.4
487.47	589.4
487.865	567.3
488.281	574.6
488.697	572.2
489.092	575.4
489.508	569.7
489.925	583.2
490.32	566.8
490.736	575.5
491.153	588.1
491.548	578
491.964	583.7
492.381	563
492.776	573.7
493.193	574.3
493.61	577.9
494.006	577.2
494.422	579.4
494.84	566.1
495.235	588.8
495.652	574.5
496.069	573.7
496.465	563.4
496.883	570.8
497.3	601.1
497.696	573.1
498.113	582.4
498.509	562.9
498.927	561.8
499.344	568.3
499.741	565.5
500.158	582.2
500.576	580.4
500.973	571.4
501.39	569.1
501.787	565.9
502.205	573.2
502.623	570.9
503.02	562.2
503.438	567
503.856	572.3
504.253	581.1
504.671	576.1
505.068	568.3
505.486	572.4
505.905	589.3
506.302	575.6
506.72	575.8
507.118	563.4
507.536	572.8
507.955	572
508.352	574.1
508.771	580.6
509.169	577.4
509.587	570
510.006	575
510.404	564.9
510.823	567.5
511.221	566.7
511.64	572.6
512.038	586.5
512.457	572.8
512.877	573.5
513.275	571.2
513.694	575.6
514.092	566.5
514.512	574.9
514.91	578.3
515.33	574.6
515.749	570.8
516.148	575.5
516.568	570.7
516.966	574.5
517.386	570.3
517.785	572.9
518.205	566.9
518.603	564.5
519.024	565.4
519.444	574.3
519.843	576.7
520.263	575.7
520.662	576
521.082	569.7
521.481	576.9
521.902	564.4
522.301	578.2
522.722	574.2
523.121	570.3
523.542	570.6
523.963	565.6
524.362	572.4
524.783	574.9
525.183	567.8
525.604	574.9
526.003	568.8
526.425	567.4
526.824	572.3
527.246	577.7
527.646	582.3
528.067	574.4
528.467	578.2
528.888	576.1
529.289	572.8
529.71	574.6
530.11	569.9
530.532	568.6
530.932	569.8
531.354	565.5
531.755	604.4
532.176	580.9
532.577	569.5
532.999	568.2
533.4	566.1
533.822	582.5
534.223	572
534.645	574.3
535.046	572.5
535.468	572.4
535.869	582.8
536.292	567.5
536.693	571.9
537.115	577.1
537.516	569.7
537.939	571.4
538.34	588.8
538.742	584.1
539.165	570.5
539.566	578
539.989	563.4
540.391	570.1
540.814	573.9
541.216	573.3
541.639	572.9
542.041	577.7
542.464	570.2
542.866	570.6
543.268	558.6
543.691	576.8
544.093	574.5
544.517	588.7
544.919	565.2
545.343	593.2
545.745	564.2
546.147	573.9
546.571	564.6
546.974	564.2
547.398	571.5
547.8	592.3
548.224	571
548.627	561.9
549.03	571.7
549.454	561.7
549.857	560.1
550.281	564
550.684	566.6
551.087	572.9
551.512	572.9
551.915	571.8
552.34	569.8
552.743	562.8
553.146	569.7
553.571	572.1
553.975	594.3
554.399	563.5
554.803	618.1
555.207	570.4
555.632	564.5
556.036	578.3
556.461	557.4
556.865	570.1
557.268	555.4
557.694	562.6
558.098	570.3
558.502	575.5
558.927	560.4
559.332	565.6
559.736	568.4
560.162	570.8
560.566	572.5
560.992	574.8
561.396	571.2
561.801	562.7
562.227	572.5
562.631	569.4
563.036	569.1
563.462	573.3
563.867	575.9
564.272	552.4
564.698	577.5
565.103	561.5
565.508	588.8
565.935	571.9
566.34	566.4
566.745	580.8
567.172	564.6
567.577	587
567.982	581.3
568.409	573
568.815	566.6
569.22	565.5
569.626	575.2
570.053	557.2
570.459	578.1
570.865	578.5
571.292	575.4
571.698	574.1
572.104	557.9
572.531	564.8
572.937	574.7
573.343	568.9
573.75	566.1
574.177	568.3
574.583	574.8
574.99	565.6
575.396	569.3
575.824	564.7
576.231	564.1
576.637	559
577.065	584.6
577.472	561.2
577.879	565.2
578.286	582.3
578.714	560.2
579.121	566.9
579.528	564.6
579.935	572.8
580.364	567.4
580.771	547.5
581.178	561.1
581.585	573.9
582.014	573.6
582.421	566.1
582.829	563.1
583.236	577.3
583.644	564.5
584.073	563.4
584.481	567.5
584.889	562.3
585.296	571
585.726	569.9
586.134	559.8
586.542	564.2
586.95	583.4
587.358	560.4
587.787	571.9
588.196	554.5
588.604	563
589.012	566.1
589.421	557.6
589.851	565.7
590.259	570.4
590.668	566.4
591.076	601.8
591.485	564.4
591.894	565
592.324	580
592.733	578.1
593.142	556.7
593.551	562.8
593.96	604
594.369	561.2
594.8	552.5
595.209	562
595.618	551.1
596.028	563
596.437	559
596.847	566.1
597.256	566.3
597.687	571.9
598.097	563.8
598.507	560.1
598.917	572.5
599.327	572.6
599.736	572.3
600.146	572
600.556	568.2
600.988	579.3
601.398	567.2
601.808	574.9
602.219	552.9
602.629	567.6
603.039	570
603.45	590.5
603.86	571.1
604.271	577.9
604.703	575.4
605.114	565.7
605.525	570.6
605.935	574.3
606.346	587.2
606.757	574.5
607.168	567.6
607.579	559.8
607.99	577.4
608.402	566.7
608.813	573.1
609.224	563.7
609.636	557.2
610.047	562.3
610.48	566.5
610.892	578.5
611.303	571.7
611.715	562.6
612.127	558
612.539	561.7
612.95	569.2
613.362	555.2
613.774	553.6
614.186	556
614.599	564
615.011	574.3
615.423	556.2
615.835	562.5
616.248	556.8
616.66	569.1
617.073	556
617.485	559.3
617.898	572.2
618.311	571.9
618.723	564.5
619.136	589.4
619.549	583
619.962	589.4
620.375	565.7
620.788	568.4
621.201	560.5
621.614	573.5
622.028	561.5
622.441	570.1
622.854	576.8
623.268	556.6
623.681	570.8
624.095	570
624.509	569.3
624.922	570.7
625.336	555.9
625.728	565.1
626.142	572.2
626.556	584.2
626.97	569.4
627.384	560.9
627.799	563.4
628.213	580.2
628.627	562.5
629.041	561.9
629.456	563.6
629.87	565.9
630.285	573.8
630.699	575.8
631.093	565.4
631.507	573.2
631.922	569.8
632.337	581
632.752	555.1
633.167	561.2
633.582	564.5
633.997	565.2
634.412	559.2
634.806	562.2
635.221	557
635.637	581.2
636.052	554
636.468	571
636.883	577.5
637.299	570.3
637.715	553.5
638.109	567.1
638.525	553.8
638.941	574.9
639.357	570.4
639.773	577.9
640.189	558.4
640.584	561.6
641	562.7
641.416	552.8
641.832	566.4
642.249	560.9
642.665	563.7
643.06	567.2
643.477	572.9
643.894	553.5
644.31	564
644.727	563.4
645.123	562.3
645.54	554.9
645.957	569.7
646.374	574.1
646.77	564.8
647.187	596.6
647.604	566.5
648.021	551.3
648.439	565.6
648.835	567.3
649.252	566
649.67	558.6
650.088	563.5
650.484	567
650.902	572.9
651.32	575
651.738	561.7
652.134	565.4
652.552	585.8
652.971	572.3
653.389	562.9
653.786	570.1
654.204	564
654.622	556.5
655.019	563.8
655.438	568.3
655.857	566.9
656.275	569.6
656.673	562.2
657.091	628.5
657.51	560.1
657.908	569.5
658.327	578
658.746	550.2
659.144	562.1
659.563	570.7
659.982	565.9
660.38	553.2
660.8	565.7
661.219	571.7
661.617	568.7
662.037	561.8
662.457	575.6
662.855	548.2
663.275	592.8
663.695	564.5
664.094	565.6
664.514	569.3
664.934	553
665.333	566.6
665.753	560.4
666.152	552.6
666.572	559
666.993	575.7
667.392	558.4
667.812	559.4
668.212	558.8
668.632	575.2
669.053	559.2
669.453	570
669.874	561.6
670.273	562.9
670.694	555.5
671.116	579.6
671.515	569.4
671.937	562.7
672.337	557.8
672.758	559
673.158	569
673.58	556.2
673.98	567.9
674.402	577.4
674.824	564.2
675.224	559.6
675.646	552
676.047	558.4
676.469	565.1
676.869	571.4
677.292	570.1
677.693	559
678.115	553.9
678.516	567
678.939	569.2
679.34	564
679.762	574.5
680.164	565.4
680.586	557.2
680.988	567.6
681.411	591.7
681.812	558.9
682.236	557.5
682.637	555.2
683.061	559
683.462	561.6
683.864	560
684.288	570.2
684.69	553.5
685.114	570.1
685.516	573.7
685.94	561.9
686.342	576.1
686.766	559.8
687.168	557.8
687.571	581.6
687.995	564.3
688.398	558
688.822	569.9
689.225	572.4
689.628	578.4
690.052	565.4
690.456	568
690.88	565.4
691.284	557.5
691.687	573.2
692.112	555.2
692.515	557.6
692.919	563.3
693.344	568.1
693.747	561.7
694.173	564.7
694.577	574.9
694.98	560.6
695.406	559.7
695.81	565.4
696.214	564
696.64	567.1
697.044	572.1
697.448	568.6
697.874	568.8
698.279	564.2
698.684	558.1
699.11	557.4
699.514	561.7
699.919	564.4
700.324	558.9
700.75	562.8
701.156	565.8
701.561	575.6
701.987	569.7
702.393	568.5
702.798	572.7
703.203	564.7
703.63	559
704.036	558.9
704.442	565.7
704.847	555
705.274	560
705.68	566.1
706.086	570
706.492	553.7
706.92	566.9
707.326	571.3
707.732	558.7
708.139	553.2
708.545	553.8
708.973	559.1
709.38	555.8
709.786	551.7
710.193	575.1
710.6	564.3
711.028	559.5
711.435	557.5
711.842	559.9
712.249	560.5
712.656	559.4
713.064	570.9
713.492	554.9
713.9	563.7
714.307	563.1
714.715	560.8
715.123	567
715.53	560.7
715.938	567.1
716.367	563.3
716.775	562.1
717.184	550.1
717.592	556.3
718	567.2
718.408	594
718.816	597.8
719.225	567.5
719.633	563.2
720.042	555.3
720.472	560.2
720.881	581.3
721.29	566.4
721.699	549.3
722.108	568.1
722.517	565.2
722.926	558.5
723.335	565.6
723.744	556.6
724.154	559.8
724.563	559.2
724.973	563.9
725.382	565.7
725.792	559.7
726.202	550.7
726.612	570.8
727.022	558.2
727.432	559.2
779.813	555
780.223	600.6
780.634	556.5
781.044	553.7
781.454	558.7
781.865	573.6
782.276	548.5
782.686	567.4
783.097	555.7
783.508	557.8
783.919	564.8
784.33	569.9
784.741	570.7
785.152	553.8
785.563	542.7
785.974	557.1
786.386	569.1
786.776	559.2
787.188	561.6
787.599	548.7
788.011	569.8
788.423	564.3
788.835	551.3
789.247	552.8
789.659	558.3
790.071	550.3
790.483	603.1
790.874	559.7
791.286	565.6
791.699	557.8
792.111	562.6
792.524	561.9
792.937	561.6
793.349	554.5
793.741	552.2
794.154	556.1
794.567	576.9
794.98	555.9
795.393	550
795.785	574.9
796.198	553.4
796.612	562.3
797.026	558.9
797.439	543.9
797.831	559.7
798.245	551.5
798.659	558.7
799.073	552.5
799.487	554.1
799.88	560.7
800.294	562
800.708	567.5
801.123	559.7
801.516	572.7
801.93	550.4
802.345	548.6
802.76	558.4
803.153	570.9
803.568	572.7
803.983	562.1
804.377	560.9
804.792	555.6
805.207	544.1
805.601	560.7
806.016	590.1
806.432	548.7
806.826	591.4
807.242	573.6
807.658	564.6
808.052	557.1
808.468	557.3
808.884	552.9
809.279	553.9
809.695	569
810.111	572.9
810.506	563.4
810.922	576.8
811.339	554
811.734	567.4
812.151	556.9
812.546	554.1
812.963	553
813.38	570.5
813.776	555.2
814.193	571.8
814.589	555.7
815.006	554.6
815.402	553
815.82	556.7
816.237	564.6
816.633	553.6
817.051	552.7
817.448	560.6
817.866	550.7
818.262	576.2
818.68	556
819.077	557.8
819.495	556.9
819.892	598.9
820.311	548.8
820.708	553.7
821.127	551.3
821.524	562.6
821.943	563.9
822.34	578.1
822.759	555.5
823.157	561.5
823.576	570.8
823.974	567.3
824.393	568
824.791	554.8
825.189	553.3
825.609	548.7
826.007	558.3
826.427	545.9
826.826	555.7
827.246	563.3
827.644	541.9
828.043	562.9
828.463	557.7
828.862	570.9
829.261	560.8
829.682	549.1
830.081	561.7
830.502	551.6
830.901	564.2
831.301	552.4
831.722	551.4
832.121	554.6
832.521	547.4
832.943	552.6
833.342	557.4
833.742	550.1
834.164	561
834.564	548.6
834.965	561.5
835.386	553.5
835.787	556
836.188	555.9
836.588	561.2
837.01	562.3
837.411	550.9
837.812	571.8
838.213	562.7
838.636	553.1
839.037	624.2
839.438	560.4
839.84	564.3
840.263	565.9
840.664	569
841.066	555.6
841.468	559.7
841.891	554.2
842.293	564.6
842.695	560.9
843.098	564
843.5	559.2
843.902	559.3
844.326	564.7
844.729	554.8
845.131	573.7
845.534	564.1
845.937	573
846.34	573.1
846.764	555.8
847.167	560.9
847.571	552.4
