#lambda/nm	C1
208.295	481.7
208.67	449.2
209.045	414.1
209.419	413.7
209.794	597.4
210.169	575.5
210.544	686.5
210.919	589.7
211.295	575.8
211.67	593.5
212.045	581.1
212.421	589.7
212.796	619.4
213.172	581.1
213.547	583.1
213.923	585.8
214.299	577.4
214.675	591.9
215.051	588.2
215.427	598.9
215.803	605.9
216.179	596.9
216.555	579.4
216.932	591
217.308	586.8
217.684	587.1
218.061	594.3
218.438	590.5
218.814	587.8
219.191	598.9
219.568	581.1
219.945	586.5
220.322	599.4
220.699	591.2
221.076	594.4
221.453	584.9
221.83	584.9
222.208	580.5
222.585	587
222.962	586.9
223.34	588.7
223.717	591.8
224.095	588.7
224.473	592.2
224.851	585.5
225.229	582.4
225.607	602.1
225.985	582
226.363	589.3
226.741	584.9
227.119	588
227.497	598.5
227.876	574.9
228.254	595.7
228.633	591.3
229.011	586.5
229.39	591.6
229.769	583.9
230.148	593.5
230.527	610.4
230.905	584.1
231.284	590.6
231.664	583.6
232.043	599.7
232.422	595.2
232.801	581.3
233.181	590
233.56	583.8
233.94	585.7
234.319	575.5
234.699	585.4
235.079	626.4
235.458	621.5
235.838	603.1
236.218	577.4
236.598	576.3
236.978	581.2
237.358	581.9
237.738	580.5
238.119	590.5
238.499	573.4
238.88	584.8
239.26	602.7
239.641	572.1
240.021	586.3
240.402	588.8
240.783	583.6
241.163	584.3
241.544	590.9
241.925	591.2
242.306	603.8
242.687	583.4
243.069	586.5
243.45	597
243.831	586.6
244.212	585.5
244.594	626.1
244.975	593.1
245.357	587.1
245.739	578.8
246.12	592.6
246.502	599.8
246.884	584
247.266	584.3
247.648	585.2
248.03	607.1
248.412	587.2
248.794	583.7
249.176	580.4
249.559	596.2
249.941	575
250.323	577.9
250.706	581.3
251.089	586.2
251.471	585.3
251.854	584.7
252.237	587.7
252.62	594.6
253.002	584.4
253.385	585.8
253.769	600.4
254.152	588.6
254.535	591.9
254.918	577.1
255.301	587.7
255.685	586
256.068	574.2
256.452	607.1
256.835	593.6
257.219	588.9
257.603	596.3
257.986	577.6
258.37	590.7
258.754	574.5
259.138	594.9
259.522	594.7
259.906	583.2
260.29	590.1
260.675	588.5
261.059	590
261.443	582.9
261.828	592.9
262.212	599.4
262.597	583.7
262.981	586.4
263.366	593.3
263.751	590.9
264.136	589.3
264.521	587
264.906	581.7
265.291	595.9
265.676	585
266.061	590.5
266.446	602.4
266.831	594.5
267.217	603.9
267.602	588
267.987	593.6
268.373	584.4
268.759	602.6
269.144	594.3
269.53	580.9
269.916	583.4
270.302	583.1
270.688	594.5
271.074	588.2
271.46	597.2
271.846	622.3
272.232	591.3
272.618	584.3
273.004	590.4
273.391	594.8
273.777	603.4
274.164	596.2
274.55	604.6
274.937	592.5
275.324	589.6
275.71	598.1
276.097	593.8
276.484	576.9
276.871	594.3
277.258	592.9
277.645	580.8
278.032	583.2
278.419	583.7
278.807	585
279.194	581.6
279.581	582.8
279.969	589.8
280.356	588.3
280.744	591.3
281.131	616.5
281.519	604.8
281.907	593.8
282.295	584.7
282.682	603.8
283.07	592.6
283.458	598.3
283.846	602.1
284.235	606.1
284.623	595.6
285.011	581.8
285.399	589.8
285.788	586.3
286.176	577.9
286.565	597.2
286.953	582.3
287.342	580.9
287.731	584.2
288.119	580.7
288.508	583
288.897	587.3
289.286	573.8
289.675	585.3
290.064	596.9
290.453	589.9
290.821	590.7
291.21	603.2
291.599	589.1
291.989	597.3
292.378	595.3
292.768	610.6
293.157	595.7
293.547	599.2
293.936	589.9
294.326	587.7
294.716	591.9
295.106	582.6
295.496	598.8
295.886	596.4
296.276	590.2
296.666	585
297.056	584.2
297.446	579.5
297.836	601.9
298.227	586.7
298.617	591.7
299.008	602
299.398	588.8
299.789	580.3
300.179	589.7
300.57	608.9
300.961	583.7
301.352	587.8
301.742	597.2
302.133	592.3
302.524	585.7
302.915	588.3
303.307	582.9
303.698	602.6
304.089	590.6
304.48	592.4
304.872	591.9
305.263	593.1
305.655	588.9
306.046	595.8
306.438	591.3
306.829	585.6
307.221	603.1
307.613	593.5
308.005	598.8
308.397	604.5
308.789	611.9
309.181	614
309.573	606.8
309.965	606.7
310.357	586
310.749	599.3
311.142	578.6
311.534	586.4
311.926	597.1
312.319	595.4
312.711	588.7
313.104	602.2
313.497	583.7
313.889	625
314.282	602.5
314.675	611
315.068	593.4
315.461	593.1
315.854	617.5
316.247	601.1
316.64	589.5
317.033	593.8
317.405	598.4
317.798	589.9
318.192	591.3
318.585	581
318.979	595.4
319.372	573.9
319.766	584.4
320.16	604.1
320.553	606.1
320.947	612.9
321.341	589
321.735	589.9
322.129	573.9
322.523	608.8
322.917	585.5
323.311	599.3
323.705	592.6
324.099	597.7
324.494	610.3
324.888	605.5
325.282	589.2
325.677	597.7
326.071	594.8
326.466	604.1
326.861	594.9
327.255	597.3
327.65	607.6
328.045	609.4
328.44	591.8
328.835	597.8
329.23	585.2
329.625	612.9
330.02	587.7
330.415	611.2
330.81	593.4
331.206	591.1
331.601	582.8
331.996	596.7
332.37	600.9
332.766	581.2
333.161	612.9
333.557	583.1
333.953	592.7
334.348	957.2
334.744	592.1
335.14	585.3
335.536	587.5
335.932	602.2
336.328	592.2
336.724	601.3
337.12	593.4
337.516	592.8
337.913	590
338.309	601.3
338.705	593.4
339.102	602.9
339.498	588.3
339.895	604.2
340.291	589.7
340.688	599.1
341.085	588.9
341.481	587.2
341.878	592.2
342.275	613.7
342.672	579.6
343.069	584.3
343.466	574.3
343.842	598.6
344.239	584.7
344.636	589.4
345.033	577.7
345.431	578
345.828	591.6
346.225	582.7
346.623	592.7
347.02	585.4
347.418	593.5
347.816	599
348.213	576.4
348.611	591.8
349.009	583.5
349.407	594.4
349.805	578.7
350.203	580.8
350.601	598.8
350.999	576.3
351.397	579.5
351.795	587.3
352.193	588.2
352.57	591.1
352.969	598.2
353.367	570
353.766	573.8
354.164	582.2
354.563	595.9
354.961	589.1
355.36	581.3
355.759	583.3
356.158	575.9
356.557	579.7
356.956	581.1
357.355	574.1
357.754	586.1
358.153	597.1
358.552	613.1
358.951	584.7
359.35	599.3
359.75	582.3
360.149	577.6
360.527	571.8
360.926	576.7
361.326	583.1
361.726	590.9
362.125	576.2
362.525	598
362.925	578.3
363.325	584.2
363.724	586.2
364.124	583.5
364.524	582.8
364.924	583.6
365.324	592.2
365.725	570.4
366.125	591.5
366.525	584.2
366.904	577
367.304	561.8
367.705	602.7
368.105	595.8
368.506	584.2
368.906	588.3
369.307	583.7
369.708	588.4
370.108	572.2
370.509	590.4
370.91	582.2
371.311	588.2
371.712	583.2
372.113	583.6
372.514	569.1
372.894	582.2
373.295	577.3
373.696	589.5
374.097	587.8
374.499	608
374.9	585.9
375.301	578.5
375.703	585.9
376.105	570.3
376.506	583.8
376.908	587.5
377.309	584.2
377.711	583
378.113	580.7
378.493	584.8
378.895	579.9
379.297	599.6
379.699	575.2
380.102	589.8
380.504	584.3
380.906	581.1
381.308	607.8
381.71	578.5
382.113	589.4
382.515	581.4
382.918	586.3
383.299	585.1
383.701	589.8
384.104	587.9
384.507	567.7
384.909	583.6
385.312	568.7
385.715	565.7
386.118	582.8
386.521	575.8
386.924	592
387.327	569.8
387.709	568.7
388.112	569.3
388.515	580.4
388.918	577.3
389.322	583.8
389.725	578.4
390.129	597.3
390.532	586.4
390.936	584.5
391.339	577.3
391.743	587.2
392.125	574.4
392.529	588.2
392.933	594.4
393.337	584.6
393.74	579.2
394.144	579.3
394.548	577.1
394.953	580.4
395.357	589.7
395.761	578.7
396.144	576
396.548	579.6
396.952	579.4
397.357	580.7
397.761	578.8
398.166	580.5
398.57	579.5
398.975	572.6
399.379	583.7
399.763	628.4
400.168	581.5
400.572	583.6
400.977	582.9
401.382	603.6
401.787	588.2
402.192	598
402.597	594.6
403.002	569.8
403.386	593
403.791	595
404.197	574.5
404.602	580.8
405.007	576.8
405.413	575.5
405.818	570.6
406.224	572.8
406.608	574.9
407.014	573.3
407.42	598.6
407.825	572.8
408.231	592.2
408.637	585.3
409.043	592.8
409.449	577.1
409.834	578.8
410.24	586.6
410.646	587.9
411.052	586.2
411.458	588.8
411.865	591.7
412.271	587.6
412.677	584.2
413.062	593.3
413.469	567.7
413.875	611.5
414.282	596.4
414.689	585.3
415.095	584.4
415.502	575
415.888	583.9
416.294	570.4
416.701	626.9
417.108	580.5
417.515	592.1
417.923	582.9
418.33	604.9
418.715	592.6
419.123	580.5
419.53	574.5
419.937	592
420.345	592.5
420.752	579.2
421.16	593.8
421.546	583.5
421.953	593.8
422.361	578.6
422.769	582.1
423.177	579.3
423.585	602.6
423.992	605.6
424.379	594.1
424.787	594.2
425.195	599.1
425.603	583.7
426.011	588.8
426.419	595.4
426.806	588.8
427.214	584.6
427.623	589.4
428.031	605.2
428.44	586.2
428.848	595.6
429.235	599.4
429.644	589.2
430.053	584.2
430.461	600.3
430.87	614
431.279	591.5
431.666	584.6
432.075	585.9
432.484	590.7
432.893	588.5
433.302	608.9
433.711	626.3
434.099	588.5
434.508	579.7
434.918	577.2
435.327	590.6
435.737	587.3
436.125	587.1
436.534	580.5
436.944	589.6
437.353	586.1
437.763	605.9
438.173	575.1
438.561	589.7
438.971	567.8
439.381	581.5
439.791	579.4
440.201	559.7
440.589	583
440.999	588.3
441.409	581.4
441.819	563.8
442.23	592.9
442.619	585.2
443.029	578.5
443.439	573.6
443.85	582.6
444.26	595.9
444.649	591
445.06	583.7
445.471	575.3
445.881	583.4
446.292	592.1
446.682	597.7
447.092	565.5
447.503	626.2
447.914	578.3
448.325	579
448.715	578
449.126	571.7
449.537	578
449.948	578.5
450.338	579.4
450.75	581.6
451.161	581.5
451.572	587.7
451.984	571.1
452.374	570
452.786	579.5
453.197	582.4
453.609	589.6
453.999	565.5
454.411	568.8
454.823	588.7
455.235	580.9
455.647	577.8
456.037	583.4
456.449	558
456.862	578.6
457.274	581.9
457.665	568.5
458.077	585.1
458.489	586.9
458.902	573.8
459.293	581.8
459.705	582.3
460.118	574.7
460.53	581.3
460.921	580.3
461.334	584.3
461.747	578.6
462.16	595.7
462.551	590
462.964	581.7
463.377	568.1
463.79	575.9
464.182	589.6
464.595	566.8
465.008	578.7
465.421	578
465.813	575.9
466.226	576.1
466.64	576.4
467.053	619.1
467.445	585.1
467.859	582.4
468.272	577.5
468.686	588.4
469.078	579.8
469.492	566.4
469.906	574.3
470.298	584.1
470.712	567
471.126	606.5
471.54	565.6
471.933	568.6
472.347	570.3
472.761	572.8
473.175	562.9
473.568	569.4
473.982	567.1
474.397	565.5
474.79	572.2
475.204	581.6
475.619	570
476.033	578.7
476.426	568.4
476.841	572.4
477.256	592.8
477.649	566.4
478.064	565.6
478.479	566.6
478.872	572
479.287	562.8
479.702	567.2
480.118	572.8
480.511	574.2
480.927	562.2
481.342	566
481.736	579.7
482.151	568.8
482.566	585.4
482.96	576
483.376	586.5
483.792	568.9
484.186	575
484.602	573.5
485.017	572.7
485.412	571.2
485.827	579.6
486.243	571.9
486.638	600.2
487.054	580.7
487.47	586.4
487.865	576.7
488.281	574.2
488.697	570.4
489.092	566.9
489.508	566.9
489.925	581
490.32	564.7
490.736	576.7
491.153	571.5
491.548	574.5
491.964	582.6
492.381	563.3
492.776	582.5
493.193	571.6
493.61	580.8
494.006	570.4
494.422	584
494.84	565
495.235	580.1
495.652	569.8
496.069	575
496.465	559.7
496.883	575.3
497.3	604.4
497.696	565.7
498.113	581.3
498.509	558.6
498.927	563.4
499.344	572
499.741	568.3
500.158	581.6
500.576	577.7
500.973	570.1
501.39	564
501.787	563.5
502.205	567.2
502.623	563.9
503.02	563.7
503.438	564.4
503.856	574.9
504.253	571.2
504.671	574.1
505.068	566.2
505.486	568.9
505.905	591.7
506.302	573.1
506.72	582.2
507.118	564.5
507.536	571.2
507.955	575.1
508.352	575.6
508.771	578.9
509.169	581.1
509.587	566
510.006	570.8
510.404	562.5
510.823	569
511.221	575.9
511.64	567.8
512.038	588.2
512.457	575.7
512.877	564.7
513.275	567.1
513.694	568.6
514.092	566.7
514.512	576.8
514.91	570.7
515.33	574.2
515.749	569.7
516.148	574.9
516.568	573.7
516.966	568.4
517.386	572.7
517.785	574.4
518.205	565.5
518.603	566.9
519.024	562.7
519.444	579
519.843	574.1
520.263	574.5
520.662	568.2
521.082	563.5
521.481	573.7
521.902	571.5
522.301	577.5
522.722	570.3
523.121	565
523.542	566
523.963	563.2
524.362	564.9
524.783	568
525.183	565.2
525.604	576.6
526.003	570.6
526.425	565.8
526.824	576.1
527.246	576.4
527.646	577.5
528.067	573.2
528.467	565.7
528.888	573.6
529.289	568.1
529.71	570.2
530.11	572.2
530.532	565.7
530.932	565.4
531.354	565.7
531.755	601.5
532.176	580.8
532.577	564.6
532.999	573
533.4	562.8
533.822	578.8
534.223	564.7
534.645	562.5
535.046	559.4
535.468	570.5
535.869	581.9
536.292	564
536.693	563.6
537.115	568.6
537.516	558.5
537.939	562.8
538.34	584.8
538.742	581.3
539.165	572.8
539.566	569.8
539.989	563.1
540.391	564.5
540.814	565.1
541.216	564.1
541.639	566.4
542.041	578.5
542.464	565
542.866	560.4
543.268	557.6
543.691	572
544.093	569.8
544.517	582.3
544.919	555.8
545.343	584.3
545.745	559.1
546.147	568.9
546.571	567.2
546.974	555.1
547.398	567
547.8	577.5
548.224	563.8
548.627	563.1
549.03	574.5
549.454	563.4
549.857	558.4
550.281	559.8
550.684	565.7
551.087	578.1
551.512	574.2
551.915	569.9
552.34	564.8
552.743	564.1
553.146	570.7
553.571	569.5
553.975	588.7
554.399	559.5
554.803	614.5
555.207	572.7
555.632	562.9
556.036	575.9
556.461	555.8
556.865	568.4
557.268	559.6
557.694	566.7
558.098	569.1
558.502	567.1
558.927	563.4
559.332	565.2
559.736	568.9
560.162	577.2
560.566	564.5
560.992	580.8
561.396	569.7
561.801	562
562.227	565
562.631	565
563.036	563.6
563.462	572.7
563.867	568.7
564.272	557.8
564.698	571.2
565.103	556.3
565.508	585.8
565.935	567.8
566.34	567.1
566.745	580.3
567.172	565.8
567.577	588.8
567.982	579.9
568.409	571
568.815	563
569.22	569.5
569.626	578.3
570.053	558.7
570.459	571.5
570.865	572.1
571.292	577.9
571.698	576.8
572.104	554.3
572.531	557.3
572.937	577.6
573.343	568.7
573.75	561.3
574.177	565.5
574.583	569.5
574.99	567.7
575.396	575.3
575.824	564.1
576.231	570.6
576.637	565.7
577.065	590.5
577.472	566.6
577.879	565.8
578.286	577.3
578.714	562.5
579.121	565.1
579.528	567.4
579.935	577.2
580.364	566.6
580.771	552.3
581.178	565
581.585	579.3
582.014	572.1
582.421	564.9
582.829	564.1
583.236	571.3
583.644	561.5
584.073	561.5
584.481	566.8
584.889	557.2
585.296	571.4
585.726	567.6
586.134	561.9
586.542	558.2
586.95	580.7
587.358	552.9
587.787	571.5
588.196	550.2
588.604	562.4
589.012	566.3
589.421	563.1
589.851	561.5
590.259	570.6
590.668	560.3
591.076	602
591.485	558.4
591.894	560.6
592.324	573.1
592.733	580.4
593.142	557.7
593.551	565.2
593.96	598.7
594.369	553.6
594.8	555.2
595.209	559.7
595.618	548.5
596.028	561.3
596.437	555.7
596.847	568.4
597.256	565.6
597.687	573.4
598.097	553.9
598.507	551.6
598.917	564.4
599.327	572.7
599.736	568.1
600.146	573.3
600.556	573
600.988	575.9
601.398	559.1
601.808	570.6
602.219	550.8
602.629	561
603.039	570.3
603.45	592.3
603.86	566.1
604.271	579.6
604.703	565.2
605.114	570.6
605.525	567.6
605.935	572.8
606.346	585.1
606.757	573.6
607.168	563.5
607.579	564.9
607.99	582.4
608.402	567
608.813	571.7
609.224	561.2
609.636	554.3
610.047	556.6
610.48	568.2
610.892	571
611.303	569.4
611.715	561.2
612.127	557
612.539	563.4
612.95	567.9
613.362	554.6
613.774	554
614.186	561
614.599	559.4
615.011	575.5
615.423	558.2
615.835	555.3
616.248	558.1
616.66	573.4
617.073	559.2
617.485	554.8
617.898	572.7
618.311	564.3
618.723	559.7
619.136	588.4
619.549	576.1
619.962	584.3
620.375	559.5
620.788	570.9
621.201	555.9
621.614	565.7
622.028	559
622.441	563.8
622.854	577.8
623.268	557.6
623.681	566.2
624.095	570
624.509	576.8
624.922	567
625.336	556.6
625.728	568.3
626.142	572.2
626.556	577.7
626.97	566.9
627.384	563.4
627.799	562
628.213	576.1
628.627	569.4
629.041	558
629.456	560.7
629.87	560
630.285	573.8
630.699	571.1
631.093	555.2
631.507	562.8
631.922	566.4
632.337	569.8
632.752	558.1
633.167	563.9
633.582	561.1
633.997	558.5
634.412	557.5
634.806	560.3
635.221	554.3
635.637	571.1
636.052	550.6
636.468	561.3
636.883	575
637.299	557.5
637.715	543.5
638.109	558.5
638.525	555.6
638.941	576.1
639.357	561.3
639.773	566.8
640.189	552.7
640.584	557.9
641	563.7
641.416	548.3
641.832	557.6
642.249	555.5
642.665	558.8
643.06	567.1
643.477	572
643.894	556.3
644.31	557.1
644.727	565
645.123	563.2
645.54	553.8
645.957	566.9
646.374	560.9
646.77	565.9
647.187	590.8
647.604	564.7
648.021	552.1
648.439	555.9
648.835	565.8
649.252	567.9
649.67	564.8
650.088	569
650.484	563.1
650.902	575.2
651.32	571.3
651.738	554.2
652.134	561.4
652.552	580.5
652.971	566.9
653.389	564.5
653.786	576.6
654.204	564.8
654.622	554.6
655.019	561.5
655.438	568.8
655.857	564.4
656.275	566.7
656.673	560.1
657.091	626.2
657.51	559.8
657.908	568.9
658.327	570.7
658.746	553.5
659.144	559.1
659.563	572.7
659.982	564.5
660.38	558.7
660.8	569.7
661.219	576.9
661.617	568.8
662.037	563.3
662.457	579.4
662.855	547.7
663.275	590.4
663.695	559.5
664.094	562
664.514	564.2
664.934	555.6
665.333	568.1
665.753	557.2
666.152	559.8
666.572	553.8
666.993	572.9
667.392	563.4
667.812	558.3
668.212	563.4
668.632	574
669.053	557.7
669.453	565.6
669.874	563.3
670.273	564.5
670.694	556.6
671.116	571.2
671.515	568
671.937	561
672.337	561.4
672.758	555.9
673.158	569.3
673.58	554.1
673.98	562
674.402	573.8
674.824	558.4
675.224	554.3
675.646	560.2
676.047	557.7
676.469	563.4
676.869	569
677.292	567.6
677.693	560.1
678.115	558.8
678.516	570.6
678.939	565
679.34	562.6
679.762	572.1
680.164	564.3
680.586	549.6
680.988	568.5
681.411	582.4
681.812	556.7
682.236	556.3
682.637	558.6
683.061	548.1
683.462	564.8
683.864	556.5
684.288	562.2
684.69	558.3
685.114	569.9
685.516	572.4
685.94	552
686.342	570
686.766	558.8
687.168	557.5
687.571	573.9
687.995	560.9
688.398	553.6
688.822	558.2
689.225	578.8
689.628	579.6
690.052	560.8
690.456	570.9
690.88	565.1
691.284	552.4
691.687	569.6
692.112	553.1
692.515	551.4
692.919	565.7
693.344	568.8
693.747	556.5
694.173	556.2
694.577	572.1
694.98	561.5
695.406	557.4
695.81	562.6
696.214	561.3
696.64	567.8
697.044	560
697.448	566.1
697.874	563.4
698.279	558.4
698.684	552.5
699.11	557.7
699.514	558.5
699.919	555.9
700.324	554.3
700.75	562.3
701.156	556.2
701.561	570.8
701.987	563.6
702.393	571.4
702.798	569
703.203	557.8
703.63	563
704.036	558.4
704.442	566.6
704.847	555.1
705.274	556.8
705.68	568.3
706.086	573.5
706.492	553.2
706.92	560.7
707.326	571.2
707.732	558.3
708.139	550.3
708.545	553.4
708.973	559
709.38	557.9
709.786	548.9
710.193	578.5
710.6	566.7
711.028	554.3
711.435	560.4
711.842	556.3
712.249	554.2
712.656	555.7
713.064	568.9
713.492	548.8
713.9	557.3
714.307	564.3
714.715	554.2
715.123	568.6
715.53	558
715.938	566
716.367	563.5
716.775	557.1
717.184	551
717.592	560
718	568.2
718.408	596
718.816	608.6
719.225	561.7
719.633	563.2
720.042	547.7
720.472	553.3
720.881	586.4
721.29	564
721.699	555.8
722.108	558.7
722.517	557.3
722.926	552.2
723.335	568.4
723.744	554.6
724.154	560.6
724.563	557.8
724.973	562.7
725.382	560.7
725.792	549.6
726.202	550.4
726.612	566.3
727.022	560.2
727.432	554.8
779.813	549.3
780.223	602.1
780.634	552.6
781.044	545.3
781.454	560.8
781.865	565
782.276	545.7
782.686	564.4
783.097	554.4
783.508	553.8
783.919	555.5
784.33	565.7
784.741	569.2
785.152	547.2
785.563	541.5
785.974	553.5
786.386	564.5
786.776	553
787.188	554.8
787.599	552.4
788.011	558.5
788.423	559.5
788.835	557.9
789.247	543.6
789.659	551.1
790.071	554.8
790.483	594.2
790.874	554.4
791.286	566.1
791.699	553.8
792.111	551.8
792.524	559.3
792.937	560.6
793.349	543.8
793.741	555.2
794.154	547.5
794.567	576.1
794.98	559.6
795.393	546.9
795.785	575.2
796.198	551.7
796.612	556.7
797.026	556.4
797.439	545.9
797.831	556.6
798.245	554.4
798.659	548.9
799.073	558.1
799.487	549
799.88	561.1
800.294	554.1
800.708	562.7
801.123	558.6
801.516	573.4
801.93	543.1
802.345	543.2
802.76	561.2
803.153	565.3
803.568	567.9
803.983	566.6
804.377	560.2
804.792	543.3
805.207	545.2
805.601	558.9
806.016	592.5
806.432	555.1
806.826	581.2
807.242	574.9
807.658	564.6
808.052	556.8
808.468	556.3
808.884	549
809.279	562.9
809.695	567
810.111	574.7
810.506	555.2
810.922	571.1
811.339	549.1
811.734	557.7
812.151	554.4
812.546	553.1
812.963	551.8
813.38	559.1
813.776	555.9
814.193	576.4
814.589	549.5
815.006	557.1
815.402	547.9
815.82	553.7
816.237	558.3
816.633	559.9
817.051	548.8
817.448	559.3
817.866	550.1
818.262	578.5
818.68	550.4
819.077	552.7
819.495	559
819.892	596
820.311	548.6
820.708	554.9
821.127	554.4
821.524	573.3
821.943	557.5
822.34	569.3
822.759	555.9
823.157	563.6
823.576	572.8
823.974	565.6
824.393	562.1
824.791	557.6
825.189	555
825.609	555.1
826.007	557.2
826.427	546.5
826.826	553
827.246	560.9
827.644	537.3
828.043	566.4
828.463	547.2
828.862	566.2
829.261	565.1
829.682	545.3
830.081	568.9
830.502	553.2
830.901	559.6
831.301	553.6
831.722	544
832.121	557.4
832.521	554.3
832.943	552.8
833.342	555.6
833.742	551.4
834.164	555.7
834.564	549.3
834.965	560.4
835.386	553.1
835.787	552.5
836.188	554.7
836.588	557.5
837.01	558.7
837.411	552
837.812	565.2
838.213	558.2
838.636	550.4
839.037	617.1
839.438	551.8
839.84	553.7
840.263	564.4
840.664	557.4
841.066	560.1
841.468	557.5
841.891	549.7
842.293	568.7
842.695	558.1
843.098	566.1
843.5	552.7
843.902	559.7
844.326	555.9
844.729	557.2
845.131	564.8
845.534	556
845.937	564.7
846.34	574.5
846.764	553.4
