#lambda/nm	C1
208.295	475.5
208.67	445.4
209.045	404.3
209.419	411.8
209.794	582.9
210.169	558.1
210.544	680
210.919	583.7
211.295	564.6
211.67	581.6
212.045	575.5
212.421	567.2
212.796	608.7
213.172	571.7
213.547	572.5
213.923	571.2
214.299	571.5
214.675	582.2
215.051	577.7
215.427	580.9
215.803	595.9
216.179	577
216.555	562.8
216.932	583.5
217.308	573.6
217.684	570.7
218.061	581.9
218.438	575.2
218.814	567.8
219.191	577.4
219.568	565.7
219.945	566.9
220.322	579.1
220.699	574.5
221.076	578.4
221.453	574.6
221.83	568.4
222.208	566.5
222.585	573.9
222.962	574.9
223.34	573.6
223.717	576.8
224.095	570
224.473	577
224.851	566.8
225.229	564.5
225.607	592.1
225.985	563.9
226.363	573.5
226.741	572.3
227.119	575.7
227.497	587.5
227.876	563.6
228.254	581
228.633	579.7
229.011	578.3
229.39	579.2
229.769	576.3
230.148	581.9
230.527	595.1
230.905	577
231.284	574
231.664	570.7
232.043	586.2
232.422	584.5
232.801	572.6
233.181	583
233.56	569.9
233.94	569.3
234.319	562.3
234.699	572.2
235.079	615.3
235.458	605.2
235.838	586.6
236.218	565.7
236.598	568.8
236.978	566.1
237.358	567.6
237.738	574
238.119	581.6
238.499	566.6
238.88	577.5
239.26	596.8
239.641	564
240.021	575.7
240.402	575.2
240.783	570
241.163	568.5
241.544	579.7
241.925	576.8
242.306	585.8
242.687	569.6
243.069	575.1
243.45	580.6
243.831	568.5
244.212	572.7
244.594	607.7
244.975	585.4
245.357	577.3
245.739	564.5
246.12	572.5
246.502	584.4
246.884	574.9
247.266	571.5
247.648	575.7
248.03	599.4
248.412	575
248.794	579.2
249.176	569.4
249.559	584
249.941	570.9
250.323	567.6
250.706	571.7
251.089	576.2
251.471	576.4
251.854	576
252.237	566.8
252.62	583.1
253.002	578.2
253.385	571.4
253.769	588.1
254.152	573.7
254.535	577
254.918	563
255.301	572
255.685	569.2
256.068	565.4
256.452	592.8
256.835	583.9
257.219	579.5
257.603	581.3
257.986	565.2
258.37	579.1
258.754	561.4
259.138	583.8
259.522	588.6
259.906	569.9
260.29	575.7
260.675	570.6
261.059	578.2
261.443	571.7
261.828	580.4
262.212	581.6
262.597	560.9
262.981	568
263.366	580.8
263.751	570.4
264.136	565.8
264.521	567.1
264.906	569
265.291	581.7
265.676	577.6
266.061	582.8
266.446	592.4
266.831	574.7
267.217	597.1
267.602	579.3
267.987	579.2
268.373	573.7
268.759	579.3
269.144	577.8
269.53	578.2
269.916	575.2
270.302	576.8
270.688	580.3
271.074	577.7
271.46	583.1
271.846	606.3
272.232	571.1
272.618	565.8
273.004	569.9
273.391	583.4
273.777	587.9
274.164	576.5
274.55	586.4
274.937	573.8
275.324	569
275.71	574.8
276.097	583.3
276.484	566.9
276.871	577
277.258	585.7
277.645	560.8
278.032	574.1
278.419	571.2
278.807	570.9
279.194	570.2
279.581	569.1
279.969	577
280.356	577.2
280.744	575.9
281.131	598.3
281.519	583.8
281.907	572.3
282.295	571
282.682	589.9
283.07	578.4
283.458	584.3
283.846	585.8
284.235	580.8
284.623	591.3
285.011	568.7
285.399	575.3
285.788	573.9
286.176	571.2
286.565	586.6
286.953	576.2
287.342	576.7
287.731	568.5
288.119	566.6
288.508	576.2
288.897	570.3
289.286	566
289.675	579.1
290.064	587.8
290.453	575.4
290.821	576.8
291.21	588.8
291.599	576.2
291.989	578
292.378	576.6
292.768	594.4
293.157	576.7
293.547	584
293.936	573.2
294.326	570.2
294.716	583.8
295.106	572.5
295.496	580.1
295.886	583.2
296.276	570.5
296.666	566.9
297.056	574.7
297.446	565.7
297.836	592.5
298.227	574.7
298.617	575.7
299.008	581.2
299.398	571.6
299.789	567.7
300.179	581.4
300.57	585.9
300.961	569
301.352	569.9
301.742	583.7
302.133	577.8
302.524	570.9
302.915	576.4
303.307	563.5
303.698	586.3
304.089	583.4
304.48	574.7
304.872	578.3
305.263	577.6
305.655	570.1
306.046	577.1
306.438	581.9
306.829	567.6
307.221	591.9
307.613	579.2
308.005	583.9
308.397	592
308.789	600.1
309.181	593.8
309.573	597.1
309.965	588.6
310.357	575.6
310.749	582.8
311.142	568.7
311.534	576.3
311.926	582
312.319	582.3
312.711	570.5
313.104	583.2
313.497	575.3
313.889	615.4
314.282	590.9
314.675	598.2
315.068	574.1
315.461	582.8
315.854	601.2
316.247	583.3
316.64	575.7
317.033	576.6
317.405	581.7
317.798	579.2
318.192	580.9
318.585	566.2
318.979	579.9
319.372	570.6
319.766	577.1
320.16	592.8
320.553	588
320.947	595.6
321.341	571.9
321.735	580.1
322.129	569.5
322.523	596.6
322.917	568.1
323.311	587.3
323.705	579.3
324.099	580.5
324.494	589.3
324.888	590.4
325.282	581.4
325.677	582.2
326.071	587.5
326.466	591.5
326.861	574.2
327.255	589.6
327.65	587.3
328.045	589.8
328.44	579.9
328.835	577.7
329.23	577.4
329.625	605.1
330.02	574.6
330.415	597.2
330.81	582.6
331.206	579
331.601	575.1
331.996	590.8
332.37	583
332.766	567.2
333.161	598.4
333.557	573.5
333.953	575.7
334.348	808.7
334.744	579.4
335.14	570.9
335.536	573.6
335.932	588
336.328	579.2
336.724	585.7
337.12	574.6
337.516	577.3
337.913	574.5
338.309	587.2
338.705	576.2
339.102	585.5
339.498	573.6
339.895	592.1
340.291	574.3
340.688	584.2
341.085	568.5
341.481	573.6
341.878	573.6
342.275	589.8
342.672	566.2
343.069	565.8
343.466	564.3
343.842	585.2
344.239	568.3
344.636	575.1
345.033	566.5
345.431	570.9
345.828	576.6
346.225	568.6
346.623	586.7
347.02	574.8
347.418	580.2
347.816	589
348.213	557.9
348.611	575.5
349.009	569.8
349.407	586.8
349.805	566.2
350.203	563.6
350.601	584.2
350.999	570.7
351.397	569.5
351.795	574.6
352.193	581.5
352.57	583.6
352.969	584
353.367	560
353.766	565.2
354.164	571.4
354.563	580.5
354.961	572
355.36	572.6
355.759	568.9
356.158	560.9
356.557	564.1
356.956	567.5
357.355	564.4
357.754	573.7
358.153	579.4
358.552	593.2
358.951	566.2
359.35	581.5
359.75	569.2
360.149	560.8
360.527	558.4
360.926	568.5
361.326	572.2
361.726	566.6
362.125	563
362.525	574.4
362.925	567.6
363.325	575.7
363.724	573.7
364.124	565.4
364.524	562.9
364.924	570.7
365.324	579.9
365.725	558.4
366.125	573
366.525	565.5
366.904	566.2
367.304	548.6
367.705	594.5
368.105	580.5
368.506	565.9
368.906	574.9
369.307	566.7
369.708	568.6
370.108	558
370.509	574.8
370.91	568.8
371.311	566.5
371.712	567.8
372.113	566.1
372.514	560.4
372.894	567.2
373.295	560.6
373.696	577.1
374.097	580.9
374.499	594.3
374.9	570.6
375.301	559.8
375.703	574.4
376.105	561.1
376.506	577.7
376.908	567.6
377.309	570.3
377.711	571.9
378.113	564.5
378.493	572.5
378.895	564.3
379.297	580
379.699	563
380.102	575.1
380.504	570.1
380.906	565.9
381.308	594.2
381.71	571
382.113	575.6
382.515	568.1
382.918	572.1
383.299	568.6
383.701	577.7
384.104	569
384.507	555.5
384.909	564.3
385.312	562.7
385.715	561.5
386.118	566.5
386.521	553.6
386.924	581.8
387.327	561.7
387.709	557.3
388.112	551.9
388.515	568.3
388.918	567.5
389.322	568.8
389.725	563
390.129	585.1
390.532	571.1
390.936	560.9
391.339	562.2
391.743	569.5
392.125	562.8
392.529	574.3
392.933	573.3
393.337	561.2
393.74	564.8
394.144	565.1
394.548	559.1
394.953	561.5
395.357	571.8
395.761	568
396.144	566.5
396.548	564.3
396.952	563.3
397.357	563.6
397.761	558.2
398.166	559.4
398.57	569.2
398.975	563.6
399.379	567.5
399.763	608.3
400.168	564.1
400.572	564.1
400.977	569
401.382	580.1
401.787	574.2
402.192	583.4
402.597	581.6
403.002	563.8
403.386	582
403.791	579.4
404.197	563.3
404.602	570.7
405.007	572.1
405.413	567.2
405.818	560.1
406.224	559
406.608	569.2
407.014	560.5
407.42	583.6
407.825	563
408.231	579.2
408.637	570.8
409.043	581.9
409.449	564.4
409.834	562.5
410.24	562.9
410.646	574.1
411.052	581.9
411.458	568.7
411.865	571.1
412.271	574.8
412.677	571.4
413.062	576.3
413.469	561.1
413.875	591.9
414.282	580.5
414.689	574.7
415.095	574
415.502	565.3
415.888	565.8
416.294	560.1
416.701	604.8
417.108	558.9
417.515	574.3
417.923	569.5
418.33	588.5
418.715	573
419.123	570.6
419.53	568
419.937	570.2
420.345	581.2
420.752	569.9
421.16	576.7
421.546	569
421.953	575.3
422.361	562.1
422.769	569.5
423.177	560.9
423.585	597.6
423.992	586.3
424.379	580.2
424.787	582.7
425.195	592.1
425.603	574
426.011	578.1
426.419	585
426.806	568.2
427.214	571.1
427.623	576.8
428.031	582.8
428.44	576.1
428.848	586.4
429.235	588.8
429.644	565.4
430.053	569.9
430.461	584.4
430.87	589.9
431.279	582.9
431.666	564
432.075	568.4
432.484	571.1
432.893	567.9
433.302	588.5
433.711	611.6
434.099	574.2
434.508	569.1
434.918	564
435.327	570.2
435.737	569.6
436.125	570.2
436.534	574.9
436.944	571.2
437.353	569.2
437.763	587.6
438.173	567.3
438.561	579.2
438.971	550.4
439.381	569.7
439.791	567.4
440.201	550.4
440.589	576.4
440.999	573.7
441.409	574.9
441.819	561.2
442.23	575.8
442.619	571
443.029	568.9
443.439	571
443.85	574.6
444.26	581.9
444.649	576.9
445.06	564
445.471	554.5
445.881	573
446.292	580.5
446.682	585.7
447.092	557.1
447.503	608.9
447.914	565
448.325	566.1
448.715	565.8
449.126	559.5
449.537	565.3
449.948	562.1
450.338	566.9
450.75	573
451.161	572.3
451.572	569.7
451.984	563.4
452.374	547.4
452.786	560.1
453.197	564.8
453.609	570.2
453.999	554.5
454.411	555
454.823	576.5
455.235	573
455.647	560.6
456.037	564.2
456.449	552.1
456.862	568.5
457.274	565.5
457.665	555
458.077	569.5
458.489	574.6
458.902	564.1
459.293	567.2
459.705	562.4
460.118	558.8
460.53	567.1
460.921	561.3
461.334	567.3
461.747	562.3
462.16	580.5
462.551	571.7
462.964	567.9
463.377	553.2
463.79	563.5
464.182	570.9
464.595	557.2
465.008	567.6
465.421	570.6
465.813	560.8
466.226	563.3
466.64	559
467.053	605.8
467.445	567.9
467.859	565.5
468.272	564.2
468.686	569.9
469.078	562.9
469.492	548.5
469.906	564
470.298	564.5
470.712	559.5
471.126	592.1
471.54	547.7
471.933	552.9
472.347	558.9
472.761	556.9
473.175	555.3
473.568	561
473.982	556.9
474.397	561.5
474.79	560.6
475.204	568.1
475.619	564.4
476.033	563.3
476.426	561.9
476.841	552.7
477.256	584.5
477.649	557.4
478.064	549.9
478.479	559.8
478.872	557.8
479.287	547.4
479.702	554.3
480.118	560.2
480.511	563.2
480.927	555.2
481.342	554
481.736	566.7
482.151	559.1
482.566	571.6
482.96	567.4
483.376	567.4
483.792	550.7
484.186	566.8
484.602	556.7
485.017	557.7
485.412	556.9
485.827	563.3
486.243	562
486.638	582
487.054	571.3
487.47	571.8
487.865	554.5
488.281	551.4
488.697	550.1
489.092	556.9
489.508	549
489.925	561.7
490.32	546
490.736	558.2
491.153	558.4
491.548	560.8
491.964	567.3
492.381	546.4
492.776	558.6
493.193	562.1
493.61	568.7
494.006	559.1
494.422	567.5
494.84	553.7
495.235	567.9
495.652	564.5
496.069	561
496.465	551
496.883	560
497.3	582.7
497.696	552.3
498.113	566.9
498.509	549.1
498.927	551.4
499.344	553.3
499.741	555.2
500.158	568.2
500.576	563.5
500.973	563.4
501.39	549.9
501.787	551.7
502.205	556.7
502.623	552.8
503.02	549
503.438	552.1
503.856	554.3
504.253	555
504.671	555.4
505.068	548.2
505.486	554.1
505.905	576.5
506.302	559.5
506.72	565.5
507.118	543.8
507.536	559.2
507.955	556.5
508.352	560.3
508.771	563.3
509.169	561.6
509.587	552
510.006	558.1
510.404	544.4
510.823	551.8
511.221	552.8
511.64	555.2
512.038	565.7
512.457	560.5
512.877	555.2
513.275	553.6
513.694	556.9
514.092	552.1
514.512	556.9
514.91	556.5
515.33	562.9
515.749	560.9
516.148	557.9
516.568	564.8
516.966	559.4
517.386	555.3
517.785	557.1
518.205	560.3
518.603	550.3
519.024	552.3
519.444	553.8
519.843	562.5
520.263	559.9
520.662	564.9
521.082	555
521.481	561
521.902	555.1
522.301	558.1
522.722	561.5
523.121	559.1
523.542	553.3
523.963	555.4
524.362	558.6
524.783	558.4
525.183	556.9
525.604	562
526.003	550.5
526.425	549
526.824	561.5
527.246	562.4
527.646	564.1
528.067	550.3
528.467	563.7
528.888	557.2
529.289	554.8
529.71	556.5
530.11	548.2
530.532	557.9
530.932	547.6
531.354	551.4
531.755	588.1
532.176	562
532.577	559.5
532.999	557.3
533.4	554.1
533.822	562.6
534.223	558
534.645	557
535.046	556.3
535.468	555.3
535.869	565.4
536.292	556.5
536.693	551.2
537.115	559.2
537.516	549.7
537.939	546.9
538.34	569.7
538.742	568.7
539.165	561.4
539.566	558.6
539.989	546.3
540.391	549.5
540.814	559.7
541.216	557.4
541.639	552.4
542.041	561.7
542.464	557.1
542.866	545.4
543.268	544.5
543.691	558.1
544.093	559.9
544.517	569.6
544.919	544.2
545.343	568.4
545.745	545.8
546.147	555.2
546.571	548.2
546.974	547.6
547.398	556.3
547.8	563.8
548.224	553.9
548.627	550.3
549.03	557.9
549.454	556.6
549.857	548.1
550.281	548.1
550.684	546.4
551.087	562.6
551.512	557.6
551.915	563.2
552.34	561.9
552.743	550.5
553.146	557.5
553.571	554.6
553.975	573.4
554.399	550.4
554.803	596.6
555.207	552.3
555.632	549
556.036	555.6
556.461	546
556.865	555.2
557.268	548.9
557.694	548.9
558.098	558.7
558.502	557
558.927	545
559.332	545.9
559.736	549.2
560.162	554.3
560.566	553.5
560.992	559.7
561.396	554.7
561.801	550.5
562.227	557.7
562.631	557.8
563.036	549.7
563.462	559.7
563.867	549.6
564.272	545
564.698	553.1
565.103	549.2
565.508	567.8
565.935	553.4
566.34	546.3
566.745	568.3
567.172	551
567.577	570.8
567.982	571.5
568.409	561.1
568.815	548
569.22	551.8
569.626	557.5
570.053	541.3
570.459	557.3
570.865	561.5
571.292	553.9
571.698	557.7
572.104	540.9
572.531	551.4
572.937	563.2
573.343	552.1
573.75	548
574.177	552.1
574.583	560.1
574.99	552.4
575.396	557.3
575.824	550.8
576.231	550.5
576.637	548.6
577.065	578.3
577.472	551
577.879	551.3
578.286	566.7
578.714	546.5
579.121	550.3
579.528	559.7
579.935	560.2
580.364	553
580.771	539.3
581.178	549.8
581.585	555.3
582.014	558
582.421	547.2
582.829	554.2
583.236	554.3
583.644	540
584.073	549.6
584.481	551.5
584.889	541
585.296	547.9
585.726	553.8
586.134	543
586.542	543.6
586.95	562.9
587.358	543.6
587.787	557.1
588.196	544.5
588.604	547.7
589.012	553
589.421	539.7
589.851	545.3
590.259	553.7
590.668	551.1
591.076	583.2
591.485	542
591.894	552.4
592.324	561.4
592.733	565.1
593.142	542.8
593.551	547.1
593.96	588.3
594.369	542.8
594.8	541.9
595.209	552.4
595.618	538
596.028	551.7
596.437	540.5
596.847	547.8
597.256	550.7
597.687	550.8
598.097	550.8
598.507	544.4
598.917	558.1
599.327	554
599.736	551.5
600.146	558.1
600.556	553.9
600.988	560.5
601.398	548.2
601.808	561.4
602.219	540.3
602.629	548.5
603.039	550.7
603.45	574.6
603.86	551
604.271	566.9
604.703	553.1
605.114	552.1
605.525	547.9
605.935	552.3
606.346	571.3
606.757	561.4
607.168	550.8
607.579	551.6
607.99	560.2
608.402	554.9
608.813	551.4
609.224	548.6
609.636	541.3
610.047	546.5
610.48	549.9
610.892	557.7
611.303	563.6
611.715	553
612.127	542.9
612.539	546.2
612.95	552.8
613.362	540
613.774	539.1
614.186	546.6
614.599	548.2
615.011	559.3
615.423	539.8
615.835	546.7
616.248	541.1
616.66	552.2
617.073	545.1
617.485	553.6
617.898	557.9
618.311	555.3
618.723	546.3
619.136	580.4
619.549	564.9
619.962	570.7
620.375	550
620.788	552.5
621.201	539.3
621.614	559.3
622.028	549.7
622.441	558.2
622.854	560.7
623.268	538
623.681	552
624.095	550.9
624.509	556.6
624.922	553.1
625.336	539.4
625.728	556.5
626.142	562.2
626.556	565.3
626.97	555.1
627.384	543.3
627.799	552.2
628.213	559.1
628.627	551.5
629.041	548.8
629.456	539.9
629.87	548.1
630.285	558.9
630.699	555.9
631.093	547.2
631.507	552.1
631.922	554.4
632.337	561.2
632.752	538.8
633.167	555.6
633.582	547.8
633.997	544.4
634.412	547.4
634.806	550.1
635.221	542.9
635.637	559.1
636.052	538.2
636.468	553.6
636.883	563.7
637.299	546.4
637.715	535.6
638.109	547
638.525	538.1
638.941	560.6
639.357	557.3
639.773	558.5
640.189	541
640.584	548.6
641	553.4
641.416	538.4
641.832	546.6
642.249	543.7
642.665	550.2
643.06	550.1
643.477	558.9
643.894	534.5
644.31	547.6
644.727	551.1
645.123	547
645.54	542.7
645.957	550.6
646.374	554.3
646.77	549.2
647.187	575.2
647.604	552.8
648.021	533.3
648.439	545.1
648.835	554.4
649.252	548.2
649.67	544.3
650.088	547.6
650.484	553
650.902	554.5
651.32	558.8
651.738	546.2
652.134	551.9
652.552	562.5
652.971	550.9
653.389	547.6
653.786	563.6
654.204	552.4
654.622	538.3
655.019	548.7
655.438	554.4
655.857	551.1
656.275	544.2
656.673	541.5
657.091	610.4
657.51	544.1
657.908	551.8
658.327	559.3
658.746	543.5
659.144	548
659.563	560.1
659.982	548.3
660.38	542.1
660.8	548.1
661.219	560.4
661.617	546.2
662.037	549.5
662.457	561
662.855	538.7
663.275	579.4
663.695	548.7
664.094	545.2
664.514	550
664.934	542.4
665.333	553.9
665.753	544.3
666.152	543.2
666.572	542.6
666.993	560.6
667.392	545.1
667.812	546
668.212	551.6
668.632	555.3
669.053	545.9
669.453	552.8
669.874	552.1
670.273	554.3
670.694	540.9
671.116	565.3
671.515	556.6
671.937	542.7
672.337	542.1
672.758	539.4
673.158	557.6
673.58	539.1
673.98	553.6
674.402	552.9
674.824	548.3
675.224	541.3
675.646	540.6
676.047	545.1
676.469	541.7
676.869	554.1
677.292	545.6
677.693	535.9
678.115	538.5
678.516	547.9
678.939	553.4
679.34	544.8
679.762	554.8
680.164	555.1
680.586	537.1
680.988	543
681.411	565.4
681.812	540.8
682.236	537.1
682.637	537.6
683.061	535.2
683.462	549.7
683.864	544.4
684.288	557
684.69	541.6
685.114	561.5
685.516	555.9
685.94	536.7
686.342	547.5
686.766	539.2
687.168	549.7
687.571	567.1
687.995	547.2
688.398	541.4
688.822	548.1
689.225	569.7
689.628	559.9
690.052	550.3
690.456	549.7
690.88	553.5
691.284	539.4
691.687	557.8
692.112	545.2
692.515	537.6
692.919	546.9
693.344	546.8
693.747	546.3
694.173	546
694.577	554.1
694.98	548.8
695.406	545.1
695.81	543.4
696.214	548.5
696.64	541.5
697.044	551.8
697.448	553
697.874	545.1
698.279	540.6
698.684	535.4
699.11	534.7
699.514	540.5
699.919	550.6
700.324	544.3
700.75	546.9
701.156	549.8
701.561	553.1
701.987	549.1
702.393	553.6
702.798	551.7
703.203	547.4
703.63	541.4
704.036	546.9
704.442	549.2
704.847	538.1
705.274	546.7
705.68	552.8
706.086	552.3
706.492	530.5
706.92	542.1
707.326	561
707.732	541.9
708.139	536.9
708.545	536.2
708.973	543.2
709.38	544.3
709.786	535.5
710.193	556
710.6	546.9
711.028	537.6
711.435	541.1
711.842	543.4
712.249	541.1
712.656	547
713.064	552.7
713.492	537.5
713.9	541.7
714.307	551.8
714.715	544.3
715.123	549.3
715.53	550.8
715.938	557.6
716.367	542
716.775	545.4
717.184	537.7
717.592	548.9
718	554.8
718.408	578.5
718.816	583.6
719.225	550.4
719.633	544.5
720.042	537.8
720.472	546.4
720.881	564.3
721.29	550.7
721.699	542.8
722.108	547.3
722.517	548
722.926	546.1
723.335	550.2
723.744	541.3
724.154	552.1
724.563	545.9
724.973	547.6
725.382	545.2
725.792	544.9
726.202	537
726.612	549.3
727.022	540.3
727.432	543.8
779.813	539.7
780.223	588.4
780.634	540.8
781.044	536.6
781.454	539.7
781.865	553.7
782.276	536.2
782.686	553.3
783.097	544.9
783.508	547.6
783.919	547
784.33	550.4
784.741	554.6
785.152	540.5
785.563	531.2
785.974	535.4
786.386	550
786.776	537.8
787.188	544.4
787.599	538.5
788.011	545.9
788.423	549.4
788.835	542
789.247	535.5
789.659	535.5
790.071	540.4
790.483	582.8
790.874	544.5
791.286	549.8
791.699	537.7
792.111	546
792.524	549
792.937	541.5
793.349	529.7
793.741	536.4
794.154	540.6
794.567	560.3
794.98	541.3
795.393	533.9
795.785	560.9
796.198	542.7
796.612	540.5
797.026	543.2
797.439	527.2
797.831	542
798.245	531.7
798.659	536.4
799.073	545.2
799.487	537.9
799.88	545.4
800.294	542.4
800.708	546.9
801.123	544.1
801.516	560.2
801.93	537.8
802.345	534.1
802.76	544.3
803.153	549.7
803.568	552.7
803.983	549.9
804.377	545.3
804.792	529.8
805.207	532.7
805.601	542
806.016	578.7
806.432	544.2
806.826	574.7
807.242	557.8
807.658	550.3
808.052	537
808.468	544
808.884	539.8
809.279	547.6
809.695	554.5
810.111	563.1
810.506	547.8
810.922	557.9
811.339	540.5
811.734	551.5
812.151	541
812.546	539.7
812.963	539.8
813.38	548.5
813.776	543.6
814.193	564.3
814.589	536.6
815.006	543.5
815.402	538.3
815.82	543.4
816.237	542.5
816.633	542.8
817.051	535.3
817.448	540.7
817.866	539.6
818.262	561.8
818.68	539.8
819.077	537.3
819.495	539.2
819.892	579.7
820.311	534.9
820.708	540
821.127	537.7
821.524	548.3
821.943	545.7
822.34	558.7
822.759	543.7
823.157	547.6
823.576	550.7
823.974	541.2
824.393	551.7
824.791	541.8
825.189	534.8
825.609	534.4
826.007	538.1
826.427	531.5
826.826	537.8
827.246	542.7
827.644	527.4
828.043	551.5
828.463	534
828.862	548.8
829.261	542.5
829.682	532.3
830.081	547.2
830.502	536.5
830.901	547.1
831.301	531.8
831.722	533.8
832.121	543.4
832.521	538.8
832.943	541.8
833.342	542.7
833.742	534
834.164	537.5
834.564	530.2
834.965	535.8
835.386	538.5
835.787	539
836.188	546.9
836.588	548.9
837.01	540.9
837.411	532.2
837.812	548.1
838.213	545.5
838.636	533
839.037	599.3
839.438	543.2
839.84	540.9
840.263	544.3
840.664	541.4
841.066	541
841.468	538.8
841.891	534.6
842.293	551.3
842.695	543.9
843.098	549.4
843.5	539.8
843.902	541.7
844.326	545.8
844.729	542.5
845.131	554
845.534	541.2
845.937	550.3
846.34	559.1
846.764	535.2
847.167	543.4
847.571	538
847.974	539.1
