#lambda/nm	C1
208.295	484.6
208.67	452.1
209.045	410.5
209.419	415.6
209.794	605.7
210.169	576.8
210.544	691.3
210.919	595.6
211.295	579.8
211.67	598.9
212.045	582.3
212.421	583.2
212.796	632.2
213.172	581.9
213.547	585.5
213.923	589.8
214.299	585.1
214.675	599
215.051	589.3
215.427	594.6
215.803	604.4
216.179	597.7
216.555	584.3
216.932	599.8
217.308	587.5
217.684	589.4
218.061	600
218.438	596.3
218.814	579.9
219.191	597.7
219.568	587.2
219.945	587.5
220.322	602
220.699	596.2
221.076	600.8
221.453	595.3
221.83	581.1
222.208	592.3
222.585	587.7
222.962	591.4
223.34	598.9
223.717	589
224.095	587.7
224.473	597.1
224.851	587.4
225.229	579.4
225.607	605.3
225.985	578.4
226.363	596.9
226.741	587.7
227.119	590.5
227.497	604.9
227.876	581.3
228.254	598.3
228.633	595.9
229.011	593.4
229.39	592.7
229.769	588.5
230.148	596.1
230.527	615.7
230.905	594.5
231.284	597.7
231.664	585.8
232.043	602.8
232.422	595.6
232.801	582.7
233.181	593.4
233.56	587.7
233.94	594
234.319	580.4
234.699	583.7
235.079	631.1
235.458	626.3
235.838	603.2
236.218	585.8
236.598	578.7
236.978	586.3
237.358	585.6
237.738	586.9
238.119	592.3
238.499	574.4
238.88	595.4
239.26	607.3
239.641	578.6
240.021	584
240.402	592.8
240.783	584.4
241.163	593
241.544	594.8
241.925	589.1
242.306	609.5
242.687	585.2
243.069	591.5
243.45	594.3
243.831	589.4
244.212	588
244.594	623.6
244.975	601.8
245.357	593.1
245.739	581.3
246.12	594
246.502	604.2
246.884	590.3
247.266	594
247.648	595.9
248.03	610.9
248.412	593.1
248.794	591.8
249.176	586.1
249.559	595.2
249.941	586.9
250.323	582.7
250.706	592.2
251.089	594.6
251.471	595.3
251.854	591.1
252.237	597.9
252.62	601.5
253.002	598.9
253.385	588.3
253.769	603.7
254.152	598.6
254.535	601.1
254.918	581.7
255.301	590.2
255.685	585.1
256.068	584.7
256.452	617.1
256.835	600.2
257.219	595
257.603	606.2
257.986	587.8
258.37	600.4
258.754	579.5
259.138	597.3
259.522	601.6
259.906	596.5
260.29	595.6
260.675	592.9
261.059	594.7
261.443	585.3
261.828	592.9
262.212	589.8
262.597	579.2
262.981	582.1
263.366	591.9
263.751	591.8
264.136	588.7
264.521	580.7
264.906	581.6
265.291	601.7
265.676	582.5
266.061	593.4
266.446	613
266.831	592.1
267.217	609.6
267.602	593.5
267.987	594.5
268.373	591.1
268.759	606.2
269.144	595.4
269.53	591
269.916	584
270.302	586.6
270.688	592.5
271.074	598.7
271.46	602.6
271.846	623.4
272.232	595.5
272.618	584.9
273.004	587.4
273.391	600
273.777	606
274.164	597.4
274.55	600.6
274.937	593.5
275.324	587.8
275.71	595.6
276.097	602.5
276.484	580.9
276.871	594
277.258	592.9
277.645	578.7
278.032	590.2
278.419	589.9
278.807	600
279.194	584.6
279.581	585.2
279.969	601.1
280.356	593.4
280.744	596
281.131	615.5
281.519	597.1
281.907	592.4
282.295	588.6
282.682	606.8
283.07	597.6
283.458	599.3
283.846	606.9
284.235	604.7
284.623	592.8
285.011	582.7
285.399	591
285.788	589.4
286.176	582.7
286.565	603.7
286.953	589.4
287.342	592.3
287.731	585.6
288.119	584.4
288.508	589.6
288.897	591.5
289.286	578
289.675	586.6
290.064	600.6
290.453	592.5
290.821	589.7
291.21	603
291.599	587.3
291.989	593.9
292.378	597.6
292.768	616.1
293.157	591
293.547	599
293.936	587.8
294.326	584
294.716	597.5
295.106	593.7
295.496	600
295.886	596.6
296.276	591.1
296.666	587.4
297.056	589.5
297.446	586.2
297.836	610.3
298.227	595.4
298.617	592.3
299.008	606.5
299.398	586.6
299.789	593.3
300.179	594
300.57	606.4
300.961	584.6
301.352	596.7
301.742	604
302.133	591.1
302.524	592.2
302.915	592
303.307	588
303.698	595.9
304.089	599.8
304.48	593.3
304.872	597.4
305.263	595
305.655	582.7
306.046	596.2
306.438	597.9
306.829	592
307.221	604.4
307.613	600.2
308.005	600.9
308.397	601.8
308.789	609
309.181	611.7
309.573	611.8
309.965	605.2
310.357	593.8
310.749	604.5
311.142	591.8
311.534	586.9
311.926	601.9
312.319	594.4
312.711	585.5
313.104	603.5
313.497	591.5
313.889	630.5
314.282	612.4
314.675	616.1
315.068	594.7
315.461	599.6
315.854	624.4
316.247	601
316.64	592.8
317.033	591.8
317.405	602
317.798	596.4
318.192	597.5
318.585	586.6
318.979	598.2
319.372	590.2
319.766	593.2
320.16	605.3
320.553	613.2
320.947	619.2
321.341	594
321.735	593.3
322.129	583.7
322.523	618.7
322.917	586.5
323.311	603.7
323.705	597.6
324.099	597.5
324.494	608.9
324.888	601.7
325.282	596.1
325.677	596.2
326.071	606.3
326.466	609.6
326.861	599.5
327.255	603.7
327.65	610.3
328.045	609.9
328.44	598.2
328.835	598.3
329.23	593.8
329.625	618.3
330.02	583.1
330.415	612.4
330.81	603.9
331.206	596.6
331.601	588.8
331.996	604.7
332.37	604.7
332.766	585.9
333.161	623.8
333.557	590.5
333.953	592.4
334.348	840.1
334.744	598.6
335.14	592.3
335.536	586
335.932	604.9
336.328	598.6
336.724	606
337.12	596.2
337.516	598
337.913	593
338.309	611.2
338.705	594.2
339.102	605.5
339.498	585.5
339.895	604
340.291	588.8
340.688	602.6
341.085	590.5
341.481	595.1
341.878	594.2
342.275	613.5
342.672	583.1
343.069	588
343.466	580.9
343.842	600
344.239	584.7
344.636	591.1
345.033	582.9
345.431	588.5
345.828	593.3
346.225	590.6
346.623	604
347.02	591.5
347.418	606.4
347.816	605.5
348.213	587.1
348.611	597
349.009	583.9
349.407	599.8
349.805	579.9
350.203	580.2
350.601	598.6
350.999	584.7
351.397	584.8
351.795	594.6
352.193	600.7
352.57	599.2
352.969	597.5
353.367	582
353.766	584.3
354.164	585.3
354.563	602.6
354.961	588.6
355.36	585.3
355.759	590.8
356.158	578.2
356.557	587.3
356.956	577.6
357.355	575.6
357.754	591.4
358.153	591
358.552	610.3
358.951	583.9
359.35	598.1
359.75	577.3
360.149	578
360.527	573.7
360.926	581.4
361.326	587.1
361.726	585.9
362.125	575.5
362.525	589.1
362.925	582
363.325	592.9
363.724	588.4
364.124	586.6
364.524	581.3
364.924	585.4
365.324	597.1
365.725	574.4
366.125	588.1
366.525	591.1
366.904	575.9
367.304	570.2
367.705	606.8
368.105	603.8
368.506	583.1
368.906	583.6
369.307	584.9
369.708	592.7
370.108	575.3
370.509	601.4
370.91	580.3
371.311	587
371.712	586
372.113	590
372.514	576.7
372.894	582.9
373.295	583.6
373.696	590.2
374.097	594.3
374.499	614.7
374.9	587.8
375.301	582.3
375.703	590.2
376.105	578.5
376.506	591
376.908	587.5
377.309	586.6
377.711	583.6
378.113	580.1
378.493	589.3
378.895	582.9
379.297	594.2
379.699	575.1
380.102	584
380.504	584.7
380.906	578.4
381.308	608.3
381.71	580.1
382.113	594.1
382.515	579.7
382.918	588.9
383.299	579.8
383.701	592
384.104	587.6
384.507	567.4
384.909	583.5
385.312	564.8
385.715	570.3
386.118	578.9
386.521	575.2
386.924	591.4
387.327	581
387.709	577.5
388.112	572.7
388.515	581.4
388.918	585.2
389.322	584.5
389.725	584.3
390.129	605.3
390.532	589.8
390.936	584.1
391.339	581.6
391.743	589.4
392.125	578.2
392.529	592.1
392.933	591.5
393.337	584.4
393.74	580.3
394.144	584.8
394.548	577.8
394.953	581.2
395.357	587.9
395.761	580.9
396.144	584.9
396.548	583
396.952	583.7
397.357	588.1
397.761	577.4
398.166	581.7
398.57	585.9
398.975	575.6
399.379	588.9
399.763	629.3
400.168	580.4
400.572	586.3
400.977	583.8
401.382	602.5
401.787	594.2
402.192	601.3
402.597	596.1
403.002	568.6
403.386	595
403.791	601.1
404.197	577.6
404.602	582
405.007	581.4
405.413	580.5
405.818	574.5
406.224	577
406.608	580.5
407.014	578.4
407.42	599.5
407.825	582.1
408.231	592.5
408.637	586.4
409.043	597.2
409.449	587.7
409.834	581.2
410.24	586.8
410.646	597.8
411.052	592.4
411.458	587.8
411.865	592.1
412.271	595.2
412.677	583.5
413.062	589.7
413.469	579.2
413.875	608.6
414.282	599.5
414.689	587.6
415.095	594.9
415.502	580.6
415.888	582.5
416.294	574
416.701	621.5
417.108	579.7
417.515	593.3
417.923	582.6
418.33	606.4
418.715	593.6
419.123	581.9
419.53	586.5
419.937	586.8
420.345	601.4
420.752	584.7
421.16	599.1
421.546	582.2
421.953	595.2
422.361	575.9
422.769	591.5
423.177	577.5
423.585	609.6
423.992	601
424.379	597.7
424.787	596.6
425.195	604.8
425.603	583.2
426.011	596.3
426.419	608.9
426.806	590.6
427.214	585.3
427.623	597.4
428.031	608.3
428.44	597.7
428.848	600.4
429.235	605.5
429.644	591.5
430.053	589.3
430.461	601.8
430.87	609.3
431.279	602.2
431.666	582.9
432.075	587.8
432.484	596
432.893	585.9
433.302	609.9
433.711	627.4
434.099	590.2
434.508	580.7
434.918	577.1
435.327	597
435.737	590.5
436.125	591.4
436.534	586.3
436.944	593.8
437.353	592.8
437.763	606.4
438.173	580.8
438.561	603.5
438.971	572.7
439.381	582
439.791	593.6
440.201	562.9
440.589	592.2
440.999	589.1
441.409	587.6
441.819	573.1
442.23	594.4
442.619	593.3
443.029	588.1
443.439	585.6
443.85	597.9
444.26	600.9
444.649	597.7
445.06	588.6
445.471	579.2
445.881	587
446.292	598.5
446.682	604.6
447.092	572
447.503	634
447.914	590
448.325	583.8
448.715	585.7
449.126	579.4
449.537	576.6
449.948	586.3
450.338	583.3
450.75	588.8
451.161	580.4
451.572	592.1
451.984	581.5
452.374	565.1
452.786	576
453.197	586.1
453.609	585.9
453.999	569.6
454.411	573.4
454.823	590.1
455.235	590.8
455.647	585.2
456.037	583.9
456.449	566.7
456.862	579.7
457.274	586.5
457.665	572.7
458.077	592.3
458.489	588.5
458.902	577.5
459.293	586.5
459.705	589.4
460.118	577.3
460.53	584.9
460.921	579.9
461.334	587.8
461.747	577.7
462.16	599.4
462.551	597.5
462.964	586.5
463.377	570.4
463.79	584
464.182	595.4
464.595	574.2
465.008	583.6
465.421	584.9
465.813	580.4
466.226	586
466.64	574.6
467.053	628
467.445	591.5
467.859	582
468.272	579.8
468.686	594.1
469.078	581.9
469.492	571.8
469.906	585.6
470.298	586.5
470.712	578.2
471.126	610.3
471.54	567.2
471.933	568.3
472.347	576.7
472.761	571.3
473.175	562.2
473.568	576.2
473.982	569.2
474.397	578.4
474.79	579
475.204	584.8
475.619	574.9
476.033	582.5
476.426	581.7
476.841	573.1
477.256	598.3
477.649	572.7
478.064	572.5
478.479	571.7
478.872	571.8
479.287	564.6
479.702	569.1
480.118	580.4
480.511	579
480.927	571
481.342	572.4
481.736	582.6
482.151	574.4
482.566	588
482.96	574.3
483.376	587.9
483.792	567.6
484.186	580
484.602	576
485.017	581.5
485.412	574.8
485.827	582
486.243	571.7
486.638	601.7
487.054	583.9
487.47	590.6
487.865	581.9
488.281	571.9
488.697	573.2
489.092	574.9
489.508	572.3
489.925	587.6
490.32	572.2
490.736	580.5
491.153	580.6
491.548	579
491.964	581.9
492.381	560.6
492.776	579.6
493.193	577.2
493.61	580.8
494.006	575.5
494.422	577.8
494.84	568
495.235	589.4
495.652	574.6
496.069	576.9
496.465	570.8
496.883	571.7
497.3	601
497.696	573
498.113	581.6
498.509	571.9
498.927	569.3
499.344	570
499.741	570.2
500.158	586.5
500.576	584.7
500.973	575.8
501.39	568.6
501.787	567.6
502.205	578.2
502.623	576.2
503.02	565.8
503.438	572.4
503.856	570.4
504.253	577.2
504.671	580.6
505.068	569
505.486	574
505.905	591.3
506.302	578.2
506.72	590.5
507.118	566.7
507.536	572.3
507.955	573.1
508.352	573.9
508.771	582.8
509.169	582.2
509.587	569.8
510.006	575.6
510.404	562.8
510.823	573.4
511.221	572.6
511.64	570.7
512.038	584.1
512.457	573.3
512.877	574.8
513.275	574.2
513.694	578.5
514.092	571.9
514.512	576.3
514.91	574.4
515.33	578.6
515.749	578.5
516.148	579.5
516.568	579.1
516.966	575.7
517.386	565.8
517.785	576.5
518.205	569.2
518.603	569
519.024	570.4
519.444	578.5
519.843	585.8
520.263	579
520.662	585.1
521.082	574.9
521.481	577.3
521.902	576.1
522.301	576.2
522.722	574
523.121	571
523.542	574.4
523.963	571.5
524.362	577.5
524.783	574.2
525.183	574.3
525.604	575.5
526.003	569.2
526.425	568.7
526.824	579.1
527.246	578
527.646	581.3
528.067	579.3
528.467	572.9
528.888	576.7
529.289	568.3
529.71	576.8
530.11	571.5
530.532	572.9
530.932	571.9
531.354	568.4
531.755	599.6
532.176	582.7
532.577	568.1
532.999	575.2
533.4	573.8
533.822	581.4
534.223	569.7
534.645	572.3
535.046	574.5
535.468	576.3
535.869	594.3
536.292	568.1
536.693	569.6
537.115	575.7
537.516	572.3
537.939	567.4
538.34	589
538.742	587
539.165	576.6
539.566	575.2
539.989	572
540.391	574.3
540.814	573.4
541.216	571.7
541.639	572.7
542.041	576.2
542.464	569
542.866	567.1
543.268	561.1
543.691	571.8
544.093	579.2
544.517	594.1
544.919	566.5
545.343	594.9
545.745	566.1
546.147	574.9
546.571	564.9
546.974	565.2
547.398	577
547.8	592.2
548.224	568
548.627	564.8
549.03	576.3
549.454	561
549.857	565.3
550.281	563.9
550.684	562.4
551.087	579.3
551.512	574.3
551.915	577.7
552.34	575.7
552.743	569.7
553.146	572.9
553.571	571.5
553.975	595.4
554.399	563.1
554.803	620.9
555.207	571.6
555.632	563.6
556.036	574.5
556.461	558.5
556.865	567.5
557.268	564.2
557.694	564.3
558.098	579.2
558.502	575.3
558.927	564.6
559.332	568.9
559.736	571.3
560.162	574.5
560.566	570.6
560.992	574.4
561.396	572.7
561.801	565.4
562.227	563.6
562.631	571.7
563.036	572.2
563.462	574.7
563.867	577.4
564.272	559.6
564.698	578.4
565.103	561.7
565.508	580.2
565.935	572.9
566.34	565.5
566.745	580.4
567.172	564.4
567.577	589.2
567.982	582.9
568.409	574
568.815	563.7
569.22	575.5
569.626	572.8
570.053	556.2
570.459	576.6
570.865	577.1
571.292	578.7
571.698	573.7
572.104	558.3
572.531	564
572.937	577.9
573.343	562.7
573.75	569.3
574.177	574.4
574.583	576.1
574.99	568.2
575.396	573.1
575.824	570.2
576.231	569.8
576.637	568
577.065	598.9
577.472	568.4
577.879	574.1
578.286	592.2
578.714	565.6
579.121	562.6
579.528	572.3
579.935	581.3
580.364	575
580.771	555.1
581.178	559.6
581.585	565.7
582.014	572.4
582.421	566.3
582.829	568.3
583.236	577.2
583.644	564.2
584.073	570.2
584.481	565.1
584.889	566
585.296	577.1
585.726	575.6
586.134	557.7
586.542	565.3
586.95	586.9
587.358	556.5
587.787	567.6
588.196	552.9
588.604	572.4
589.012	570.4
589.421	565.3
589.851	564.8
590.259	573.8
590.668	566
591.076	605.1
591.485	563.8
591.894	568.1
592.324	583.8
592.733	585.4
593.142	559
593.551	565.9
593.96	601.6
594.369	562.3
594.8	559.4
595.209	568.2
595.618	557
596.028	562.4
596.437	566.4
596.847	567.4
597.256	572.8
597.687	566
598.097	571.6
598.507	557
598.917	569.5
599.327	578.3
599.736	576.4
600.146	580.3
600.556	573.7
600.988	578.2
601.398	566.5
601.808	578.8
602.219	555.6
602.629	567
603.039	565.2
603.45	590
603.86	566.1
604.271	581.5
604.703	566.1
605.114	571.5
605.525	573.3
605.935	573.1
606.346	591.8
606.757	571.4
607.168	561.7
607.579	560.5
607.99	575.6
608.402	568.1
608.813	573.8
609.224	564.2
609.636	559.8
610.047	566.3
610.48	574.2
610.892	578.1
611.303	579.9
611.715	567.2
612.127	558.2
612.539	568.7
612.95	570.6
613.362	558.5
613.774	555.1
614.186	564.5
614.599	568.3
615.011	574
615.423	558.7
615.835	559.1
616.248	558.8
616.66	575.5
617.073	563.6
617.485	562.4
617.898	574.9
618.311	568.8
618.723	565.8
619.136	603.2
619.549	582.8
619.962	593.4
620.375	562.6
620.788	569.2
621.201	562.2
621.614	572.7
622.028	564.6
622.441	570.7
622.854	581.9
623.268	558.8
623.681	566.4
624.095	567.5
624.509	577.3
624.922	580.6
625.336	556
625.728	574.8
626.142	582
626.556	582.1
626.97	574.1
627.384	559.7
627.799	571.4
628.213	576.3
628.627	564.6
629.041	569.7
629.456	563.3
629.87	570.2
630.285	579
630.699	572.2
631.093	562.4
631.507	573.2
631.922	572.2
632.337	577.9
632.752	557.6
633.167	569.5
633.582	563.5
633.997	566.7
634.412	563.3
634.806	572.7
635.221	555.7
635.637	578.5
636.052	556.2
636.468	571.7
636.883	585.2
637.299	567.7
637.715	553.3
638.109	565.6
638.525	553.5
638.941	576.6
639.357	573.1
639.773	578.8
640.189	570.3
640.584	568.1
641	571.3
641.416	558.2
641.832	562.9
642.249	566.5
642.665	560.9
643.06	573.3
643.477	575.1
643.894	556.5
644.31	566.5
644.727	557.2
645.123	568.7
645.54	558.4
645.957	566.7
646.374	568.5
646.77	567
647.187	594.3
647.604	565.5
648.021	558.4
648.439	555.8
648.835	567.3
649.252	569.5
649.67	565.9
650.088	571.3
650.484	571.5
650.902	568.7
651.32	575.9
651.738	560.1
652.134	571.8
652.552	582.5
652.971	579.7
653.389	569
653.786	573.1
654.204	565.1
654.622	558.9
655.019	570.1
655.438	571.1
655.857	571.6
656.275	570
656.673	557.8
657.091	632.2
657.51	562.3
657.908	570.7
658.327	582.4
658.746	553.2
659.144	566
659.563	581
659.982	563.7
660.38	560.8
660.8	568
661.219	579.8
661.617	568.1
662.037	569.3
662.457	576
662.855	553.3
663.275	594.3
663.695	568.1
664.094	563.7
664.514	568.2
664.934	560.4
665.333	576.3
665.753	558.3
666.152	559.3
666.572	562.6
666.993	574.9
667.392	558.8
667.812	561.4
668.212	562.1
668.632	579.8
669.053	564.1
669.453	573.1
669.874	567.5
670.273	565.8
670.694	561.8
671.116	574.9
671.515	573.5
671.937	563.5
672.337	562
672.758	561.5
673.158	570.6
673.58	557.4
673.98	571.5
674.402	576.6
674.824	566.2
675.224	559.4
675.646	560.7
676.047	559.8
676.469	558.6
676.869	575.2
677.292	573.3
677.693	561.7
678.115	558.9
678.516	572.3
678.939	567.3
679.34	565.8
679.762	573.1
680.164	574.2
680.586	556.4
680.988	567
681.411	588.4
681.812	567.3
682.236	557
682.637	559.9
683.061	551.3
683.462	568.2
683.864	562.5
684.288	575.5
684.69	553.2
685.114	577.6
685.516	571.6
685.94	549.7
686.342	567.2
686.766	557.6
687.168	563.2
687.571	583.6
687.995	563
688.398	554.8
688.822	558.8
689.225	579.5
689.628	579.6
690.052	568.8
690.456	568.3
690.88	565.6
691.284	553.2
691.687	567.3
692.112	554
692.515	559.4
692.919	563.3
693.344	565.5
693.747	563.8
694.173	560.3
694.577	580.4
694.98	563.8
695.406	562.1
695.81	561.5
696.214	564.8
696.64	573.1
697.044	562.7
697.448	573.5
697.874	560.2
698.279	558
698.684	552.7
699.11	554.3
699.514	563
699.919	560.2
700.324	557.2
700.75	566.3
701.156	565.7
701.561	570.8
701.987	568.3
702.393	572.9
702.798	576.1
703.203	566.3
703.63	556.9
704.036	558.9
704.442	562.2
704.847	562.2
705.274	561.9
705.68	565.2
706.086	571.3
706.492	552.9
706.92	560.1
707.326	575
707.732	559.4
708.139	559.1
708.545	556.1
708.973	562.2
709.38	569.3
709.786	553.3
710.193	580.7
710.6	564.3
711.028	552.4
711.435	567.1
711.842	570
712.249	563.3
712.656	562.1
713.064	576
713.492	558.8
713.9	565.7
714.307	565.2
714.715	563.2
715.123	566.5
715.53	562
715.938	570.7
716.367	565.4
716.775	560.9
717.184	559.9
717.592	564
718	570.4
718.408	593.4
718.816	606.7
719.225	567.6
719.633	563.6
720.042	555.4
720.472	563.9
720.881	579.7
721.29	568.6
721.699	551.1
722.108	567.8
722.517	568.1
722.926	556.2
723.335	571.2
723.744	560.8
724.154	564.2
724.563	561.5
724.973	563.2
725.382	567.8
725.792	559.2
726.202	558.5
726.612	575.3
727.022	563.1
727.432	558.6
779.813	557.8
780.223	608
780.634	567
781.044	557.4
781.454	565.4
781.865	573.3
782.276	552.7
782.686	572.2
783.097	560.1
783.508	560.3
783.919	569.7
784.33	577.3
784.741	572.7
785.152	559.8
785.563	552.2
785.974	556.6
786.386	570.4
786.776	561.1
787.188	563.9
787.599	552.9
788.011	569.2
788.423	566
788.835	560.2
789.247	551.9
789.659	555.7
790.071	557
790.483	600.4
790.874	566.9
791.286	567.1
791.699	558.5
792.111	562.9
792.524	560.9
792.937	563
793.349	551.1
793.741	556.6
794.154	560.2
794.567	580.2
794.98	560.2
795.393	551.9
795.785	574.2
796.198	556.6
796.612	561.7
797.026	558.8
797.439	552
797.831	560.9
798.245	557.5
798.659	556.5
799.073	556.3
799.487	555
799.88	557.4
800.294	564.8
800.708	565.7
801.123	562.5
801.516	581.6
801.93	550.6
802.345	551
802.76	559
803.153	569.6
803.568	575.6
803.983	568.3
804.377	563.2
804.792	549.4
805.207	542.4
805.601	560.3
806.016	594.6
806.432	556.7
806.826	591
807.242	577.7
807.658	560.8
808.052	556
808.468	554.6
808.884	550.5
809.279	556.6
809.695	572.8
810.111	580.5
810.506	566.6
810.922	580.3
811.339	556.8
811.734	568.4
812.151	557.3
812.546	555.1
812.963	560.2
813.38	567.2
813.776	560.2
814.193	577.8
814.589	557.5
815.006	557.3
815.402	552.5
815.82	557.1
816.237	559.2
816.633	563.2
817.051	551.1
817.448	566.7
817.866	553.5
818.262	573.6
818.68	557
819.077	558.8
819.495	564.3
819.892	605.9
820.311	556.8
820.708	551.7
821.127	558.3
821.524	573.2
821.943	560.7
822.34	571.6
822.759	562.2
823.157	563.9
823.576	577.4
823.974	574.6
824.393	563.2
824.791	553.9
825.189	554.4
825.609	556.7
826.007	561.8
826.427	547.8
826.826	560.4
827.246	568.3
827.644	549.1
828.043	576.8
828.463	560.8
828.862	568
829.261	561.4
829.682	554.1
830.081	560.6
830.502	555.6
830.901	554.7
831.301	555
831.722	546.7
832.121	559
832.521	554.5
832.943	564.4
833.342	564
833.742	549.5
834.164	559.9
834.564	550.9
834.965	559.5
835.386	564.3
835.787	558.3
836.188	554.7
836.588	564.5
837.01	562.3
837.411	550.2
837.812	563.6
838.213	566.6
838.636	556
839.037	623.4
839.438	563
839.84	562.7
840.263	566.1
840.664	567.7
841.066	559.9
841.468	558
841.891	554.9
842.293	564.6
842.695	563
843.098	570
843.5	557.1
843.902	563.7
844.326	560.1
844.729	555.1
845.131	572.3
845.534	561.4
845.937	569.2
846.34	576.2
846.764	556.2
847.167	564.8
847.571	550.7
847.974	556.1
848.377	555.6
