#lambda/nm	C1
208.295	482.6
208.67	451.7
209.045	409.4
209.419	417.2
209.794	598.9
210.169	576.5
210.544	693.6
210.919	596.9
211.295	583.3
211.67	593
212.045	586.1
212.421	592.4
212.796	622.6
213.172	582
213.547	585.4
213.923	589.7
214.299	585.4
214.675	597.9
215.051	595.3
215.427	596.9
215.803	610.2
216.179	600.8
216.555	586.2
216.932	602.3
217.308	596.2
217.684	597.6
218.061	599.6
218.438	595.8
218.814	595
219.191	601.2
219.568	586.1
219.945	595.4
220.322	595.1
220.699	600.4
221.076	594.1
221.453	590.2
221.83	585
222.208	588.6
222.585	593.5
222.962	594.7
223.34	589.7
223.717	590.4
224.095	591.1
224.473	593.9
224.851	589.2
225.229	579.8
225.607	608.7
225.985	578.9
226.363	595.1
226.741	591.5
227.119	591.9
227.497	598.4
227.876	573.7
228.254	599
228.633	597.6
229.011	587.4
229.39	594.9
229.769	598
230.148	597
230.527	615.3
230.905	595.8
231.284	597.8
231.664	586.2
232.043	607.1
232.422	594.3
232.801	581.7
233.181	595.5
233.56	588
233.94	594.6
234.319	582.1
234.699	588.6
235.079	635.7
235.458	627.3
235.838	609.4
236.218	587.6
236.598	575.6
236.978	588.9
237.358	591.3
237.738	588
238.119	601.2
238.499	588.4
238.88	587.8
239.26	613.5
239.641	582.8
240.021	589
240.402	590.1
240.783	588.6
241.163	593.4
241.544	592.3
241.925	593.2
242.306	601.4
242.687	584.6
243.069	593.8
243.45	604.9
243.831	587
244.212	588.3
244.594	632.8
244.975	604.9
245.357	597
245.739	583.8
246.12	595.9
246.502	605.2
246.884	588.5
247.266	592
247.648	598.2
248.03	612.6
248.412	599.5
248.794	597.9
249.176	591.8
249.559	599.5
249.941	583.5
250.323	584.9
250.706	587.8
251.089	592.1
251.471	594.6
251.854	594.2
252.237	592.3
252.62	606
253.002	587.8
253.385	592.2
253.769	605
254.152	590.5
254.535	603.3
254.918	585.8
255.301	593.7
255.685	588.5
256.068	588.6
256.452	612.8
256.835	600.6
257.219	603.1
257.603	606
257.986	587.2
258.37	596.8
258.754	585.1
259.138	596
259.522	602.6
259.906	592.1
260.29	595.2
260.675	592
261.059	599.1
261.443	589.1
261.828	597
262.212	594.1
262.597	582
262.981	589.4
263.366	599
263.751	594.8
264.136	590.3
264.521	588.8
264.906	580.2
265.291	601
265.676	590.2
266.061	607.6
266.446	612
266.831	591.2
267.217	611.6
267.602	597.2
267.987	596.5
268.373	593.9
268.759	603.8
269.144	597.4
269.53	593.6
269.916	588.6
270.302	586.4
270.688	600.2
271.074	596.8
271.46	608.1
271.846	625.4
272.232	587.9
272.618	579.8
273.004	593.6
273.391	607.2
273.777	606
274.164	601.8
274.55	607.4
274.937	600.6
275.324	589.1
275.71	593.2
276.097	601.2
276.484	584.3
276.871	595.6
277.258	593
277.645	584.7
278.032	587.6
278.419	584.7
278.807	600.3
279.194	583.3
279.581	593.9
279.969	596.1
280.356	595.2
280.744	590
281.131	619.6
281.519	607.4
281.907	590.5
282.295	593.1
282.682	606.6
283.07	596.3
283.458	603.7
283.846	604.4
284.235	601.9
284.623	600.3
285.011	587.9
285.399	593
285.788	588.3
286.176	582.8
286.565	609.8
286.953	588.2
287.342	585.9
287.731	579.8
288.119	594.1
288.508	592.6
288.897	597.1
289.286	581.9
289.675	594.8
290.064	607.8
290.453	590
290.821	596
291.21	614.7
291.599	585.4
291.989	592.2
292.378	603.7
292.768	611.6
293.157	596.1
293.547	603.6
293.936	592.8
294.326	589.5
294.716	598.7
295.106	591.1
295.496	596.6
295.886	605.1
296.276	596.6
296.666	584.7
297.056	586.4
297.446	582.2
297.836	610.1
298.227	591.7
298.617	594.8
299.008	607.7
299.398	590.7
299.789	586.8
300.179	600.3
300.57	606.7
300.961	593.2
301.352	586.1
301.742	601.5
302.133	588
302.524	591.5
302.915	592.5
303.307	588.1
303.698	605.2
304.089	598.2
304.48	592.6
304.872	597.4
305.263	599.2
305.655	588.4
306.046	599.7
306.438	593.6
306.829	589.2
307.221	606
307.613	602.4
308.005	604.5
308.397	606.9
308.789	615.5
309.181	619.1
309.573	607.9
309.965	608
310.357	593.6
310.749	598.9
311.142	591
311.534	588
311.926	599.3
312.319	595.6
312.711	584.9
313.104	606.5
313.497	593.7
313.889	627.7
314.282	611.5
314.675	625.8
315.068	602.7
315.461	598.6
315.854	627.5
316.247	601.9
316.64	593.6
317.033	593.8
317.405	605.5
317.798	593.9
318.192	603.9
318.585	587.9
318.979	603.8
319.372	587.4
319.766	589.7
320.16	609.5
320.553	609.8
320.947	611.6
321.341	589
321.735	598.8
322.129	584
322.523	614.5
322.917	588.5
323.311	608.1
323.705	598.1
324.099	592.3
324.494	617.1
324.888	605.1
325.282	595.1
325.677	598.6
326.071	601.4
326.466	605.3
326.861	598.3
327.255	599.1
327.65	607.7
328.045	611.8
328.44	598.6
328.835	600.3
329.23	588.5
329.625	619.7
330.02	594.6
330.415	613.6
330.81	600.2
331.206	594.8
331.601	589.6
331.996	601.4
332.37	605.2
332.766	581.4
333.161	619.5
333.557	589.7
333.953	590.5
334.348	1026.8
334.744	597.5
335.14	591
335.536	592.9
335.932	610.4
336.328	598.3
336.724	603.8
337.12	601.5
337.516	602
337.913	596.4
338.309	608.2
338.705	594.4
339.102	606.3
339.498	592.2
339.895	611.8
340.291	594.2
340.688	595.8
341.085	589.2
341.481	593.9
341.878	595.9
342.275	617.4
342.672	591
343.069	595.2
343.466	583.5
343.842	607.5
344.239	586.9
344.636	595
345.033	582.7
345.431	587.1
345.828	592.4
346.225	586.7
346.623	603.8
347.02	596.9
347.418	603.8
347.816	607.5
348.213	587.1
348.611	599.2
349.009	590.7
349.407	607.5
349.805	587.6
350.203	582.9
350.601	608.4
350.999	589
351.397	588.2
351.795	592.5
352.193	602.5
352.57	605.7
352.969	606.7
353.367	583.6
353.766	588.5
354.164	595.6
354.563	607.4
354.961	585.3
355.36	590.4
355.759	593.2
356.158	586.7
356.557	585.2
356.956	585.8
357.355	582.5
357.754	593.5
358.153	597.5
358.552	618.6
358.951	588.3
359.35	600.1
359.75	588.3
360.149	584.3
360.527	576.3
360.926	577.8
361.326	592.9
361.726	588.9
362.125	580.4
362.525	601.1
362.925	583.8
363.325	592.4
363.724	589.9
364.124	591.5
364.524	575.5
364.924	581.6
365.324	604
365.725	575.6
366.125	595.6
366.525	589.8
366.904	577.6
367.304	573.3
367.705	606.7
368.105	603.7
368.506	586.6
368.906	590.2
369.307	589
369.708	592.7
370.108	582.2
370.509	597
370.91	585.8
371.311	594.8
371.712	587.3
372.113	583.8
372.514	572.5
372.894	587.7
373.295	584.7
373.696	594.6
374.097	601.6
374.499	614.1
374.9	590.7
375.301	580.9
375.703	590.2
376.105	582.4
376.506	592.9
376.908	591.9
377.309	586.6
377.711	592.6
378.113	583.4
378.493	589.7
378.895	582
379.297	594.3
379.699	574.3
380.102	591.1
380.504	586.7
380.906	576.7
381.308	607.9
381.71	584.4
382.113	597.1
382.515	577.1
382.918	588.9
383.299	582.5
383.701	594.3
384.104	590.4
384.507	568
384.909	582.2
385.312	576.5
385.715	580.3
386.118	582
386.521	572.7
386.924	597.3
387.327	581.6
387.709	572.9
388.112	569.4
388.515	586.3
388.918	587.9
389.322	587.2
389.725	575.8
390.129	606.5
390.532	593.5
390.936	584.8
391.339	580.6
391.743	588.7
392.125	578.4
392.529	594.7
392.933	599.3
393.337	582.9
393.74	580
394.144	587
394.548	578.4
394.953	584.1
395.357	596.4
395.761	582.2
396.144	585.8
396.548	581.4
396.952	587.1
397.357	590.9
397.761	587.6
398.166	581.4
398.57	580.9
398.975	573.5
399.379	583.8
399.763	634
400.168	590.3
400.572	586.7
400.977	582.2
401.382	610.1
401.787	594.3
402.192	597.5
402.597	602
403.002	571.9
403.386	600
403.791	607.5
404.197	581.5
404.602	589.1
405.007	587.1
405.413	582.9
405.818	576
406.224	580.3
406.608	586.9
407.014	576.4
407.42	600.4
407.825	581.7
408.231	593.1
408.637	590.5
409.043	600.2
409.449	585.9
409.834	578.8
410.24	590.4
410.646	596
411.052	600.4
411.458	590.3
411.865	590.2
412.271	592.2
412.677	588.7
413.062	592.7
413.469	579.8
413.875	616.3
414.282	603.8
414.689	585.6
415.095	596.4
415.502	585.1
415.888	584.6
416.294	574.7
416.701	629.4
417.108	583.3
417.515	594.2
417.923	586.4
418.33	608.5
418.715	598.1
419.123	581.9
419.53	581.4
419.937	596.2
420.345	604.8
420.752	582.9
421.16	594.2
421.546	590.5
421.953	596.2
422.361	582.4
422.769	587
423.177	581.7
423.585	614.9
423.992	612.3
424.379	600.7
424.787	595.2
425.195	612.4
425.603	591
426.011	596
426.419	599.6
426.806	594.2
427.214	593.1
427.623	600.8
428.031	605.8
428.44	597.1
428.848	598.9
429.235	609
429.644	593.3
430.053	586.9
430.461	603.8
430.87	618.6
431.279	600.4
431.666	582
432.075	593.9
432.484	598.6
432.893	590.2
433.302	610.1
433.711	631
434.099	596
434.508	584.9
434.918	581.7
435.327	596.9
435.737	588.6
436.125	595
436.534	585.8
436.944	594
437.353	595.7
437.763	609.7
438.173	584
438.561	594.7
438.971	573.3
439.381	585.2
439.791	586.6
440.201	566
440.589	589.3
440.999	593.1
441.409	589.8
441.819	576.5
442.23	596.8
442.619	587.9
443.029	585
443.439	591.4
443.85	596.8
444.26	603.4
444.649	601.9
445.06	584.9
445.471	584.8
445.881	586.2
446.292	597.6
446.682	607
447.092	577.4
447.503	627.8
447.914	587.4
448.325	584.6
448.715	588.4
449.126	582
449.537	580.8
449.948	587
450.338	587.5
450.75	594.8
451.161	586.1
451.572	590.7
451.984	577.4
452.374	569.2
452.786	580.3
453.197	587.9
453.609	590.4
453.999	575.1
454.411	578.1
454.823	598.1
455.235	591.3
455.647	581.1
456.037	584.9
456.449	568.2
456.862	582.5
457.274	580.2
457.665	579.4
458.077	589.6
458.489	596.3
458.902	582.2
459.293	584.3
459.705	580.6
460.118	577.2
460.53	587.5
460.921	592.9
461.334	588.1
461.747	582.3
462.16	595.5
462.551	596.2
462.964	588.1
463.377	566.9
463.79	579.4
464.182	597.4
464.595	581.6
465.008	580.8
465.421	591.7
465.813	583.5
466.226	589.3
466.64	587.6
467.053	632.2
467.445	593.2
467.859	582.4
468.272	582.2
468.686	594.9
469.078	586.2
469.492	573.9
469.906	585.4
470.298	580.9
470.712	576.3
471.126	615.7
471.54	573
471.933	575
472.347	580.1
472.761	581.7
473.175	569.2
473.568	574
473.982	571.9
474.397	575.2
474.79	578.8
475.204	592.4
475.619	579.8
476.033	587.2
476.426	583.9
476.841	574.9
477.256	607
477.649	574.2
478.064	571.1
478.479	570.9
478.872	580.1
479.287	569.2
479.702	572.5
480.118	583.2
480.511	581.4
480.927	569.2
481.342	579.5
481.736	580.4
482.151	568.8
482.566	587
482.96	574.2
483.376	589.1
483.792	569.4
484.186	585.6
484.602	576.5
485.017	580.3
485.412	572.4
485.827	583.6
486.243	577.6
486.638	604.9
487.054	585.8
487.47	593.5
487.865	576.1
488.281	569.7
488.697	571.5
489.092	578.9
489.508	571.2
489.925	588.1
490.32	567.6
490.736	581.7
491.153	584.5
491.548	582.9
491.964	586
492.381	567.9
492.776	581
493.193	583
493.61	584.6
494.006	576
494.422	586.2
494.84	571.2
495.235	586.6
495.652	578.4
496.069	578.6
496.465	568.1
496.883	578.6
497.3	603.1
497.696	572.3
498.113	580.4
498.509	564.4
498.927	570.9
499.344	570.9
499.741	572.1
500.158	582.3
500.576	584.8
500.973	579.5
501.39	578
501.787	567.5
502.205	580.6
502.623	574.1
503.02	568.6
503.438	569.3
503.856	570.4
504.253	578
504.671	576.9
505.068	575.2
505.486	575.7
505.905	596
506.302	576.1
506.72	585.8
507.118	565.2
507.536	579.7
507.955	571.6
508.352	579.4
508.771	578
509.169	580.4
509.587	570.2
510.006	578.7
510.404	562.8
510.823	567.4
511.221	574.2
511.64	573.6
512.038	589.3
512.457	577
512.877	572.2
513.275	575.8
513.694	568
514.092	570.3
514.512	574.5
514.91	572.5
515.33	571.7
515.749	573.8
516.148	577.2
516.568	574.4
516.966	570.1
517.386	568.1
517.785	574.3
518.205	570.9
518.603	567.7
519.024	567.1
519.444	576.5
519.843	582.9
520.263	579.5
520.662	579.4
521.082	566.8
521.481	572.2
521.902	571.3
522.301	577.5
522.722	578.4
523.121	569
523.542	572.6
523.963	576.3
524.362	574.2
524.783	580.5
525.183	583.7
525.604	578.9
526.003	570.3
526.425	569.4
526.824	584.2
527.246	587.1
527.646	584.1
528.067	581.9
528.467	573.1
528.888	582.4
529.289	576
529.71	578.6
530.11	575.7
530.532	573.8
530.932	569.3
531.354	571.8
531.755	611.7
532.176	581.4
532.577	574.3
532.999	577.4
533.4	569.7
533.822	589.1
534.223	576.1
534.645	570.7
535.046	575.1
535.468	575.1
535.869	584.7
536.292	568.7
536.693	573.6
537.115	577.2
537.516	569.3
537.939	573.7
538.34	588.8
538.742	582.2
539.165	575.1
539.566	575.5
539.989	573.7
540.391	569.5
540.814	572.5
541.216	579.6
541.639	571.2
542.041	581.2
542.464	567.8
542.866	572.4
543.268	562.9
543.691	576.9
544.093	577.1
544.517	596.3
544.919	562.6
545.343	600
545.745	568.2
546.147	585.3
546.571	573.8
546.974	567.8
547.398	577.1
547.8	592.2
548.224	573.3
548.627	570.4
549.03	577
549.454	574.2
549.857	564
550.281	569.4
550.684	568.8
551.087	582
551.512	576.9
551.915	580.1
552.34	575.3
552.743	567.4
553.146	576
553.571	575.8
553.975	594
554.399	570.1
554.803	625.8
555.207	572.8
555.632	565.1
556.036	577.2
556.461	564.3
556.865	571
557.268	568.7
557.694	572.9
558.098	571.4
558.502	578.7
558.927	567.9
559.332	572.2
559.736	571.8
560.162	585
560.566	570.3
560.992	578.3
561.396	571.8
561.801	572.2
562.227	567.8
562.631	569.6
563.036	574.9
563.462	573.5
563.867	570
564.272	562.5
564.698	577.1
565.103	563.4
565.508	581.9
565.935	574.9
566.34	572.9
566.745	580.5
567.172	571.6
567.577	588.4
567.982	579.4
568.409	574.7
568.815	563.2
569.22	574
569.626	577.6
570.053	559.6
570.459	570.3
570.865	586.5
571.292	578.9
571.698	581.6
572.104	557.4
572.531	568.5
572.937	573.7
573.343	569.7
573.75	568.1
574.177	578.6
574.583	582.5
574.99	567.9
575.396	577.6
575.824	567.6
576.231	575.4
576.637	568
577.065	599.4
577.472	572.2
577.879	569.9
578.286	587.5
578.714	561.5
579.121	568.5
579.528	574.5
579.935	580.3
580.364	570.9
580.771	560.4
581.178	571.5
581.585	575.3
582.014	580.4
582.421	566.1
582.829	567.2
583.236	582.3
583.644	562.9
584.073	565.9
584.481	565.7
584.889	568.1
585.296	574
585.726	576.5
586.134	566.7
586.542	567.2
586.95	590.3
587.358	560.2
587.787	570.7
588.196	556.8
588.604	562.5
589.012	567.1
589.421	562.6
589.851	560.9
590.259	577.3
590.668	565.5
591.076	603.8
591.485	562.6
591.894	572
592.324	575.6
592.733	583.1
593.142	566.6
593.551	566.7
593.96	600.9
594.369	557.7
594.8	561.5
595.209	565.2
595.618	552.8
596.028	564.1
596.437	564.1
596.847	575
597.256	574
597.687	572
598.097	573.4
598.507	562.2
598.917	573.7
599.327	572
599.736	571
600.146	583.7
600.556	574.1
600.988	583.6
601.398	570.1
601.808	586.6
602.219	558.7
602.629	571
603.039	578.4
603.45	597.9
603.86	571.9
604.271	584.6
604.703	571.2
605.114	565.5
605.525	571.1
605.935	577.2
606.346	594.1
606.757	572.7
607.168	568.7
607.579	566.7
607.99	576.6
608.402	571.1
608.813	578.9
609.224	568.8
609.636	562.4
610.047	563.2
610.48	570.3
610.892	576.7
611.303	580.8
611.715	565.7
612.127	562
612.539	566.8
612.95	572.6
613.362	564.9
613.774	560.8
614.186	561.5
614.599	562.8
615.011	576.8
615.423	560.9
615.835	559
616.248	562.5
616.66	574.3
617.073	564.8
617.485	570.7
617.898	569.2
618.311	573.1
618.723	566.5
619.136	597.8
619.549	577.8
619.962	595.4
620.375	563.5
620.788	571.8
621.201	560.4
621.614	574
622.028	562.4
622.441	570.1
622.854	580.8
623.268	562.7
623.681	574.7
624.095	570
624.509	579.9
624.922	575.9
625.336	564
625.728	575.1
626.142	578.7
626.556	584.6
626.97	574.7
627.384	568.1
627.799	574.7
628.213	578.1
628.627	569.5
629.041	569.4
629.456	572.6
629.87	571
630.285	577.3
630.699	578.3
631.093	569.2
631.507	570.7
631.922	567.7
632.337	577.3
632.752	566.9
633.167	571.7
633.582	572.7
633.997	564.6
634.412	562.3
634.806	570.4
635.221	560
635.637	584.4
636.052	558.4
636.468	573.3
636.883	590.8
637.299	563.3
637.715	550.2
638.109	571.1
638.525	552.4
638.941	581.3
639.357	578.7
639.773	579.9
640.189	565.7
640.584	569.3
641	565.1
641.416	554.7
641.832	566.3
642.249	560.4
642.665	567.5
643.06	574.1
643.477	580.9
643.894	555.5
644.31	562.7
644.727	567.8
645.123	562.4
645.54	564.2
645.957	574.7
646.374	567.3
646.77	566
647.187	599.2
647.604	568.4
648.021	555
648.439	561.3
648.835	573.7
649.252	573.1
649.67	568.6
650.088	577.4
650.484	571.2
650.902	577.3
651.32	580.7
651.738	570.6
652.134	574.2
652.552	589
652.971	577.7
653.389	567.1
653.786	585.6
654.204	564.7
654.622	560
655.019	571.3
655.438	575.2
655.857	568
656.275	570.2
656.673	561.4
657.091	635.2
657.51	560.8
657.908	575.2
658.327	586.3
658.746	557.4
659.144	570.7
659.563	578.4
659.982	563.4
660.38	560.6
660.8	570.1
661.219	580.7
661.617	570.1
662.037	562.4
662.457	571.3
662.855	556.7
663.275	594.8
663.695	567.8
664.094	561.5
664.514	569.3
664.934	560.3
665.333	568.2
665.753	561.3
666.152	561.2
666.572	559.6
666.993	576.8
667.392	569.2
667.812	563.7
668.212	564.8
668.632	578.2
669.053	564.4
669.453	577.1
669.874	570.5
670.273	567.4
670.694	563.4
671.116	581.3
671.515	577.9
671.937	561.4
672.337	566.5
672.758	566.4
673.158	573.9
673.58	559
673.98	568.2
674.402	579.8
674.824	563.4
675.224	568.7
675.646	558
676.047	564.9
676.469	568.6
676.869	574.5
677.292	566.6
677.693	564.4
678.115	556.8
678.516	570.8
678.939	572.4
679.34	564.7
679.762	577.2
680.164	570.4
680.586	560.1
680.988	574.5
681.411	593.9
681.812	567.9
682.236	562.5
682.637	559.6
683.061	554.2
683.462	570.6
683.864	559.1
684.288	571.3
684.69	550.3
685.114	577.1
685.516	576.1
685.94	558
686.342	577
686.766	565.2
687.168	557.3
687.571	579.5
687.995	562.7
688.398	560
688.822	564.4
689.225	587.7
689.628	580.5
690.052	572.2
690.456	566.8
690.88	567.5
691.284	557.3
691.687	572
692.112	555
692.515	556.7
692.919	564
693.344	569.2
693.747	564.2
694.173	564.2
694.577	574.9
694.98	570
695.406	561.3
695.81	568.8
696.214	571.7
696.64	567.7
697.044	572.3
697.448	575.3
697.874	568.5
698.279	565.9
698.684	559.2
699.11	558.1
699.514	560.5
699.919	562.6
700.324	551.9
700.75	565.5
701.156	566.9
701.561	579.1
701.987	575.4
702.393	581.7
702.798	575.7
703.203	564.9
703.63	561.7
704.036	559.6
704.442	568.4
704.847	558.1
705.274	561.5
705.68	568.3
706.086	574.6
706.492	559.3
706.92	563.8
707.326	570.7
707.732	565
708.139	554.9
708.545	562
708.973	560.7
709.38	566.8
709.786	555.6
710.193	574.6
710.6	563.7
711.028	552.1
711.435	558.7
711.842	562.9
712.249	563.1
712.656	564.1
713.064	574.7
713.492	559.9
713.9	559.5
714.307	566.8
714.715	566.1
715.123	572
715.53	566
715.938	574.3
716.367	569.9
716.775	560.7
717.184	556.3
717.592	564.8
718	576.5
718.408	594.3
718.816	608.3
719.225	571.9
719.633	565.8
720.042	555.6
720.472	559.1
720.881	578.7
721.29	568.5
721.699	554.8
722.108	571.4
722.517	566.2
722.926	560.7
723.335	573.8
723.744	566.4
724.154	570.9
724.563	566.2
724.973	570.1
725.382	564.8
725.792	564.4
726.202	556.7
726.612	575.1
727.022	557
727.432	561.7
779.813	561.8
780.223	604.6
780.634	562.8
781.044	561
781.454	562.3
781.865	576.2
782.276	556.3
782.686	571.1
783.097	560.9
783.508	564.9
783.919	566.9
784.33	578.7
784.741	575.5
785.152	563.1
785.563	552.6
785.974	558
786.386	578.1
786.776	558.7
787.188	569.7
787.599	556.3
788.011	567.2
788.423	562.3
788.835	560.1
789.247	552.4
789.659	551.8
790.071	558.7
790.483	600.7
790.874	560.9
791.286	567.4
791.699	560
792.111	564
792.524	569.9
792.937	562.8
793.349	559.5
793.741	559.3
794.154	561.5
794.567	582
794.98	559.1
795.393	558.6
795.785	576.1
796.198	553.1
796.612	562.9
797.026	558.8
797.439	546.6
797.831	559.3
798.245	550.1
798.659	558.3
799.073	557.5
799.487	562.8
799.88	559.9
800.294	560.4
800.708	564.9
801.123	569.5
801.516	584.4
801.93	549
802.345	551.3
802.76	562.4
803.153	579
803.568	574.5
803.983	572.7
804.377	564.1
804.792	552.7
805.207	556.4
805.601	564.2
806.016	592.1
806.432	553.2
806.826	591.6
807.242	575.1
807.658	563.3
808.052	559.2
808.468	554.5
808.884	559.4
809.279	558.4
809.695	569.1
810.111	584.3
810.506	562.9
810.922	576.2
811.339	560.1
811.734	569.7
812.151	558.4
812.546	554.3
812.963	563
813.38	568.8
813.776	556.7
814.193	579.4
814.589	557.7
815.006	562
815.402	564.1
815.82	556.2
816.237	562.7
816.633	561.9
817.051	556.4
817.448	562.3
817.866	551.3
818.262	578.6
818.68	558.2
819.077	555.8
819.495	564.8
819.892	599.5
820.311	558.6
820.708	556.6
821.127	562.1
821.524	569.2
821.943	567.9
822.34	576.8
822.759	571.1
823.157	566.9
823.576	578
823.974	568.3
824.393	572.5
824.791	558.1
825.189	551.8
825.609	555.7
826.007	559.9
826.427	554.1
826.826	557.9
827.246	573.4
827.644	549.2
828.043	576.5
828.463	551.9
828.862	570.3
829.261	568.5
829.682	556.4
830.081	563.3
830.502	556.1
830.901	564.3
831.301	557
831.722	550.3
832.121	559.5
832.521	555.5
832.943	557.3
833.342	561.3
833.742	552.4
834.164	555.1
834.564	548.5
834.965	557.6
835.386	558.8
835.787	554.9
836.188	563.9
836.588	564.7
837.01	562.1
837.411	554.3
837.812	570.1
838.213	573.8
838.636	558.1
839.037	627.7
839.438	558.9
839.84	566.4
840.263	565.8
840.664	564.7
841.066	558.3
841.468	566.2
841.891	559.8
842.293	573
842.695	565.7
843.098	573.5
843.5	557.1
843.902	566.7
844.326	567.8
844.729	559.4
845.131	570
845.534	558.6
845.937	574.3
846.34	579.5
846.764	551.2
847.167	564.6
847.571	554.9
847.974	560.1
