#lambda/nm	C1
208.295	475
208.67	438.4
209.045	401
209.419	407.4
209.794	558
210.169	537.8
210.544	640.9
210.919	552.2
211.295	538.4
211.67	549
212.045	546.4
212.421	549.8
212.796	571.3
213.172	542.2
213.547	543.2
213.923	544.7
214.299	542.3
214.675	553.5
215.051	552.2
215.427	551.2
215.803	559
216.179	550.9
216.555	544.8
216.932	561.5
217.308	546.2
217.684	545.8
218.061	551.3
218.438	553.4
218.814	541.9
219.191	555.5
219.568	540.6
219.945	546.5
220.322	552.1
220.699	553.5
221.076	556.7
221.453	551
221.83	539.7
222.208	544.9
222.585	546
222.962	548.5
223.34	552.5
223.717	545.2
224.095	547.1
224.473	546.9
224.851	545.1
225.229	538.3
225.607	560.3
225.985	532.6
226.363	548.2
226.741	547.5
227.119	548.7
227.497	562.7
227.876	540.6
228.254	552.9
228.633	552.9
229.011	548.7
229.39	554.4
229.769	546.1
230.148	557.7
230.527	565.1
230.905	551
231.284	554.7
231.664	543.6
232.043	559.5
232.422	551.7
232.801	545.3
233.181	553.2
233.56	542.4
233.94	548.2
234.319	537.4
234.699	545
235.079	577.6
235.458	578.5
235.838	564.9
236.218	543.1
236.598	540.2
236.978	545.5
237.358	543.3
237.738	544.6
238.119	556.2
238.499	539.5
238.88	552.3
239.26	565.1
239.641	536.6
240.021	544.3
240.402	548.2
240.783	546.8
241.163	550.8
241.544	551.4
241.925	544.1
242.306	557.5
242.687	540
243.069	548.8
243.45	557.3
243.831	544.2
244.212	547.4
244.594	578
244.975	554.4
245.357	547.9
245.739	549
246.12	552.3
246.502	553.5
246.884	546.2
247.266	545.9
247.648	548.7
248.03	565.5
248.412	549.6
248.794	554.7
249.176	543.9
249.559	561
249.941	542.8
250.323	540.1
250.706	540.1
251.089	544.3
251.471	551.7
251.854	546.7
252.237	550
252.62	552.5
253.002	550.2
253.385	544.1
253.769	557.7
254.152	549.2
254.535	556
254.918	545.4
255.301	546.7
255.685	542.2
256.068	537.1
256.452	566.9
256.835	550.8
257.219	553.1
257.603	553.2
257.986	542.5
258.37	551.2
258.754	538.2
259.138	552.1
259.522	549.8
259.906	548.3
260.29	552.1
260.675	544.7
261.059	549.3
261.443	545.1
261.828	554.4
262.212	549.4
262.597	534.6
262.981	545.8
263.366	553
263.751	550.8
264.136	541
264.521	550.9
264.906	536.8
265.291	558.1
265.676	543.4
266.061	556.3
266.446	558.4
266.831	547.7
267.217	566.3
267.602	553.2
267.987	550.8
268.373	545.2
268.759	551.6
269.144	550.7
269.53	545.7
269.916	546.8
270.302	541.9
270.688	546
271.074	547
271.46	553
271.846	577.7
272.232	545.6
272.618	544
273.004	544.1
273.391	547.9
273.777	560.5
274.164	552.1
274.55	556.8
274.937	546.9
275.324	544.1
275.71	551.2
276.097	548.7
276.484	540.3
276.871	549.1
277.258	551.3
277.645	541.6
278.032	545.1
278.419	544.9
278.807	553.8
279.194	542.8
279.581	539.8
279.969	554
280.356	543.3
280.744	548.6
281.131	566.3
281.519	558.4
281.907	546.2
282.295	547.5
282.682	555.8
283.07	549.7
283.458	553.3
283.846	550.8
284.235	555.9
284.623	549.5
285.011	538.3
285.399	548.1
285.788	545.1
286.176	537.4
286.565	554.3
286.953	543.7
287.342	545.4
287.731	540.6
288.119	543.8
288.508	548.9
288.897	552.6
289.286	538.5
289.675	548.6
290.064	558
290.453	544.2
290.821	548.3
291.21	562.2
291.599	544.8
291.989	553.1
292.378	556.2
292.768	557.8
293.157	552.9
293.547	555
293.936	543.3
294.326	541.1
294.716	550.8
295.106	551.6
295.496	553.6
295.886	552.2
296.276	540.7
296.666	538.2
297.056	541.4
297.446	537.6
297.836	559
298.227	548.8
298.617	546.2
299.008	560.2
299.398	549.8
299.789	542.9
300.179	549.4
300.57	562.7
300.961	541.3
301.352	541.9
301.742	556.4
302.133	552.4
302.524	544.1
302.915	550.5
303.307	543.5
303.698	555.2
304.089	551.8
304.48	546.4
304.872	551.9
305.263	550.4
305.655	543.7
306.046	549.6
306.438	555.8
306.829	548.2
307.221	558.1
307.613	549.7
308.005	555.9
308.397	558.6
308.789	570
309.181	567.7
309.573	564.5
309.965	558.8
310.357	541.7
310.749	549.3
311.142	536.3
311.534	543
311.926	555.9
312.319	545.7
312.711	543.5
313.104	557.2
313.497	548.9
313.889	585.5
314.282	558
314.675	575.7
315.068	543.8
315.461	553.3
315.854	574.1
316.247	556.4
316.64	550.1
317.033	545
317.405	553.1
317.798	546.5
318.192	555.8
318.585	541
318.979	550.8
319.372	542.9
319.766	547.3
320.16	558.2
320.553	558.5
320.947	564.9
321.341	544.5
321.735	549.9
322.129	536.6
322.523	568
322.917	541.4
323.311	557.7
323.705	550.3
324.099	553.6
324.494	557.8
324.888	556.7
325.282	549.2
325.677	548.5
326.071	554.5
326.466	557.4
326.861	552.2
327.255	559.3
327.65	560.8
328.045	562.2
328.44	552.8
328.835	546.2
329.23	540.5
329.625	572.1
330.02	543.9
330.415	566.8
330.81	548
331.206	548.4
331.601	547.3
331.996	553.2
332.37	559.5
332.766	540.4
333.161	567.6
333.557	540.1
333.953	554.3
334.348	883.5
334.744	553.2
335.14	544.9
335.536	545.3
335.932	556.7
336.328	545.6
336.724	558.4
337.12	548.2
337.516	550
337.913	551.2
338.309	561.1
338.705	548.3
339.102	556.3
339.498	546.7
339.895	556.5
340.291	541.3
340.688	550.6
341.085	544.4
341.481	552.7
341.878	548.1
342.275	568.2
342.672	543.3
343.069	545.5
343.466	540.4
343.842	549.9
344.239	543.8
344.636	542.8
345.033	540.7
345.431	542.3
345.828	548
346.225	539.6
346.623	554.9
347.02	550.4
347.418	558.3
347.816	557.9
348.213	539.5
348.611	542.9
349.009	538.3
349.407	552.2
349.805	536.7
350.203	535.1
350.601	555.7
350.999	542.4
351.397	542.8
351.795	546.8
352.193	551.7
352.57	550.9
352.969	559
353.367	540.8
353.766	539
354.164	544.4
354.563	547.7
354.961	546.8
355.36	546.3
355.759	546.8
356.158	535.1
356.557	542.8
356.956	537.9
357.355	527
357.754	544.2
358.153	549.8
358.552	565.8
358.951	546.9
359.35	552.8
359.75	541.3
360.149	537.1
360.527	531.9
360.926	539.7
361.326	542.4
361.726	545.2
362.125	539.4
362.525	550.3
362.925	540.8
363.325	546.5
363.724	547
364.124	538.5
364.524	535.3
364.924	542
365.324	550.4
365.725	531.8
366.125	546.1
366.525	541.1
366.904	540.4
367.304	526.9
367.705	554.4
368.105	551
368.506	541.8
368.906	540.2
369.307	540.7
369.708	549
370.108	533.3
370.509	552.3
370.91	534.2
371.311	542.1
371.712	540.2
372.113	543.5
372.514	527.9
372.894	539.5
373.295	539.5
373.696	552
374.097	547.3
374.499	569.6
374.9	544.9
375.301	533.1
375.703	540.2
376.105	536
376.506	542.2
376.908	541.1
377.309	536.3
377.711	541.2
378.113	534.6
378.493	542.6
378.895	535.8
379.297	543.5
379.699	536.3
380.102	541.7
380.504	546.1
380.906	535.9
381.308	559.8
381.71	537.4
382.113	548.5
382.515	534
382.918	541.5
383.299	537.5
383.701	541.8
384.104	543.9
384.507	522.8
384.909	536.5
385.312	530.5
385.715	531.8
386.118	537.7
386.521	531.4
386.924	547.6
387.327	535.4
387.709	526.8
388.112	530.5
388.515	539.9
388.918	540.2
389.322	545.9
389.725	535.3
390.129	558.5
390.532	541.5
390.936	539.5
391.339	535.2
391.743	539.2
392.125	540.1
392.529	549.2
392.933	553.5
393.337	542.9
393.74	532.5
394.144	544.9
394.548	533.7
394.953	540.5
395.357	546.1
395.761	534.9
396.144	540.9
396.548	539.3
396.952	542.1
397.357	540
397.761	538.7
398.166	536.2
398.57	536.3
398.975	538.1
399.379	545
399.763	583.2
400.168	537.8
400.572	540.4
400.977	538.1
401.382	552.5
401.787	545.4
402.192	553.3
402.597	550
403.002	528.2
403.386	551
403.791	550.5
404.197	537.1
404.602	543.5
405.007	540.3
405.413	536.8
405.818	533.4
406.224	533
406.608	536.2
407.014	535.9
407.42	553.6
407.825	532.8
408.231	546.8
408.637	538.2
409.043	550.6
409.449	534.1
409.834	536.4
410.24	539.2
410.646	548.7
411.052	542.8
411.458	550.5
411.865	538.9
412.271	545.3
412.677	540.5
413.062	543.3
413.469	534.9
413.875	561.8
414.282	555.8
414.689	543.5
415.095	542.8
415.502	539.2
415.888	542.3
416.294	528.6
416.701	575.8
417.108	534.2
417.515	550.4
417.923	537.5
418.33	554.5
418.715	544.4
419.123	538.7
419.53	539.3
419.937	540.1
420.345	555.5
420.752	539.8
421.16	553.5
421.546	541.1
421.953	547.4
422.361	533.8
422.769	535.6
423.177	538.3
423.585	564.3
423.992	559.8
424.379	551.3
424.787	549.4
425.195	559.2
425.603	541.4
426.011	554.2
426.419	552.8
426.806	541.5
427.214	545.4
427.623	551.7
428.031	555.3
428.44	550.5
428.848	552.8
429.235	553.6
429.644	542.8
430.053	541.3
430.461	555.6
430.87	569.4
431.279	551.6
431.666	543.2
432.075	547.7
432.484	549.1
432.893	538.1
433.302	554.5
433.711	578
434.099	551.6
434.508	536.6
434.918	537.7
435.327	551.9
435.737	545.3
436.125	547
436.534	544.5
436.944	547.4
437.353	544.2
437.763	563.9
438.173	537.7
438.561	555.6
438.971	534.9
439.381	544.8
439.791	546.8
440.201	528.4
440.589	551.6
440.999	551.4
441.409	550.2
441.819	540.8
442.23	559.9
442.619	561.8
443.029	546.9
443.439	548.3
443.85	567.5
444.26	561.3
444.649	555.4
445.06	555.3
445.471	549.6
445.881	550.1
446.292	563
446.682	574.2
447.092	544.5
447.503	603.1
447.914	558.6
448.325	553.6
448.715	561.7
449.126	555.9
449.537	557.2
449.948	555.7
450.338	556.2
450.75	564.6
451.161	558
451.572	564
451.984	557.7
452.374	545.9
452.786	557.4
453.197	560.2
453.609	568.5
453.999	546.9
454.411	551.3
454.823	566.5
455.235	560.1
455.647	562.5
456.037	562.2
456.449	548
456.862	561.6
457.274	566.3
457.665	556.3
458.077	569.4
458.489	574.9
458.902	559.9
459.293	565.9
459.705	564.7
460.118	558.9
460.53	560.7
460.921	563.7
461.334	563.2
461.747	564.1
462.16	572.8
462.551	573.7
462.964	568.8
463.377	551.3
463.79	559.6
464.182	570.1
464.595	548.7
465.008	560.2
465.421	564.1
465.813	553.8
466.226	563.4
466.64	553.1
467.053	597.1
467.445	567.8
467.859	563.2
468.272	560.8
468.686	572.9
469.078	556.4
469.492	549.3
469.906	567.6
470.298	572.3
470.712	555.5
471.126	584
471.54	548.1
471.933	553.7
472.347	556.2
472.761	549.7
473.175	549.7
473.568	549.6
473.982	546.7
474.397	555
474.79	557.3
475.204	557.2
475.619	553.8
476.033	561.5
476.426	558.5
476.841	556.3
477.256	574.6
477.649	555.6
478.064	548.5
478.479	551
478.872	547.7
479.287	546.5
479.702	547.8
480.118	550.4
480.511	554.2
480.927	550
481.342	551.3
481.736	553.8
482.151	550.2
482.566	562.2
482.96	552.6
483.376	562.7
483.792	548.7
484.186	557.2
484.602	552.7
485.017	555.2
485.412	551.5
485.827	562.3
486.243	555.5
486.638	574.4
487.054	565.5
487.47	567.4
487.865	553.7
488.281	551.6
488.697	550
489.092	550.7
489.508	550.7
489.925	560.6
490.32	547.2
490.736	557.8
491.153	553.1
491.548	551.4
491.964	559
492.381	541.2
492.776	554.6
493.193	551.9
493.61	560.8
494.006	549.7
494.422	565.1
494.84	543.5
495.235	560.4
495.652	557.4
496.069	548.3
496.465	540.5
496.883	551.9
497.3	575.2
497.696	548.8
498.113	553.5
498.509	542
498.927	544
499.344	542.7
499.741	545.5
500.158	552.1
500.576	552.7
500.973	548.2
501.39	539.8
501.787	543
502.205	550.1
502.623	539.9
503.02	537.4
503.438	540.4
503.856	550.1
504.253	547.8
504.671	548.5
505.068	543.9
505.486	545.9
505.905	560.2
506.302	549.7
506.72	549.8
507.118	537.2
507.536	546.3
507.955	539.2
508.352	546.9
508.771	549.2
509.169	551.3
509.587	538.4
510.006	548.2
510.404	532.9
510.823	538.4
511.221	542
511.64	538.9
512.038	548.9
512.457	541.2
512.877	545.1
513.275	537.2
513.694	542.3
514.092	543.6
514.512	545.6
514.91	538.9
515.33	541
515.749	542.2
516.148	545.6
516.568	547.5
516.966	543.2
517.386	538.4
517.785	539.5
518.205	543.7
518.603	536.3
519.024	543.2
519.444	548.7
519.843	550.1
520.263	541.9
520.662	543.5
521.082	542.1
521.481	541
521.902	537.2
522.301	543.1
522.722	546.6
523.121	542.5
523.542	541.7
523.963	538.3
524.362	537.2
524.783	545.9
525.183	540.6
525.604	541.6
526.003	532.9
526.425	531.4
526.824	543.5
527.246	547
527.646	543.3
528.067	538.7
528.467	540.4
528.888	539
529.289	536.8
529.71	540.7
530.11	536.9
530.532	539.8
530.932	530.8
531.354	530
531.755	566.8
532.176	544.3
532.577	532
532.999	535.4
533.4	531.4
533.822	545.8
534.223	538.2
534.645	532.9
535.046	528
535.468	541.5
535.869	549.2
536.292	537
536.693	533.5
537.115	533.8
537.516	529.9
537.939	529.4
538.34	547.7
538.742	549.4
539.165	537.9
539.566	527.5
539.989	524.7
540.391	532.3
540.814	534.4
541.216	541.5
541.639	531.7
542.041	540.5
542.464	530.9
542.866	530.4
543.268	526.8
543.691	539.6
544.093	539.9
544.517	553.4
544.919	532.3
545.343	553.6
545.745	529.2
546.147	541.9
546.571	538
546.974	528.1
547.398	538.3
547.8	547.3
548.224	534.4
548.627	528.9
549.03	533.6
549.454	527.6
549.857	523.8
550.281	524.9
550.684	530
551.087	538.5
551.512	542.5
551.915	538.3
552.34	532.3
552.743	527.6
553.146	533
553.571	530.6
553.975	549.6
554.399	525.2
554.803	576.9
555.207	530.5
555.632	527.3
556.036	536.1
556.461	520.6
556.865	527.8
557.268	526.1
557.694	530.1
558.098	535
558.502	531.1
558.927	531.7
559.332	527.8
559.736	529.8
560.162	536.2
560.566	529.8
560.992	532
561.396	529.1
561.801	525
562.227	532.3
562.631	528.8
563.036	528.5
563.462	538.5
563.867	533.2
564.272	517.9
564.698	533.5
565.103	520
565.508	545.2
565.935	530.7
566.34	526.1
566.745	533
567.172	527.8
567.577	544.7
567.982	534.5
568.409	532.4
568.815	521.8
569.22	532.3
569.626	534.2
570.053	516.2
570.459	532.4
570.865	528.8
571.292	533.1
571.698	534.3
572.104	518.8
572.531	520.7
572.937	537
573.343	521.7
573.75	525.2
574.177	531.2
574.583	535.7
574.99	525.3
575.396	532.2
575.824	521.6
576.231	529.4
576.637	529.1
577.065	544.9
577.472	522.2
577.879	523.8
578.286	537.5
578.714	518.7
579.121	530
579.528	532.8
579.935	541.8
580.364	534.2
580.771	522.9
581.178	523.6
581.585	531.7
582.014	535.4
582.421	528.1
582.829	530.1
583.236	537.1
583.644	523.5
584.073	529.8
584.481	523.6
584.889	525.7
585.296	534.6
585.726	531.8
586.134	520.5
586.542	526.2
586.95	544
587.358	522.4
587.787	530.3
588.196	519.9
588.604	528.7
589.012	528.5
589.421	519.9
589.851	521.7
590.259	534.6
590.668	522.5
591.076	556.4
591.485	519.8
591.894	526.4
592.324	538.1
592.733	541.5
593.142	517.8
593.551	524.7
593.96	525.7
594.369	514
594.8	523.1
595.209	523.8
595.618	512.5
596.028	521.3
596.437	517.5
596.847	526.4
597.256	523.1
597.687	528.6
598.097	524.8
598.507	520.3
598.917	526.3
599.327	533.3
599.736	528.1
600.146	531.4
600.556	528.9
600.988	535.2
601.398	521.4
601.808	536.5
602.219	513.1
602.629	527.9
603.039	526.8
603.45	547.7
603.86	528.9
604.271	539.9
604.703	529.6
605.114	520.8
605.525	524.3
605.935	530.3
606.346	546.8
606.757	537.6
607.168	522.8
607.579	524.1
607.99	538.7
608.402	529.6
608.813	535.7
609.224	527.5
609.636	523.3
610.047	522.9
610.48	526.2
610.892	530.4
611.303	534
611.715	525.6
612.127	528.6
612.539	530.7
612.95	529.9
613.362	519.4
613.774	521.6
614.186	523
614.599	519.9
615.011	535.9
615.423	518.6
615.835	520.7
616.248	520.8
616.66	525.7
617.073	520.6
617.485	526.8
617.898	531.9
618.311	523.3
618.723	523.9
619.136	547
619.549	534
619.962	547.1
620.375	526.6
620.788	525.8
621.201	522.9
621.614	528.2
622.028	524.3
622.441	528.4
622.854	533.5
623.268	522.5
623.681	530.3
624.095	524.3
624.509	531.7
624.922	528.7
625.336	519.2
625.728	521.9
626.142	534.5
626.556	539.5
626.97	533.1
627.384	519.5
627.799	526.4
628.213	532
628.627	527.7
629.041	521.8
629.456	524.3
629.87	526
630.285	533.5
630.699	532.6
631.093	525.5
631.507	530.5
631.922	531.9
632.337	539.2
632.752	517.1
633.167	524.1
633.582	521.3
633.997	523.4
634.412	518.5
634.806	522.2
635.221	518.9
635.637	530.7
636.052	511.4
636.468	520.6
636.883	537.9
637.299	522.4
637.715	511.1
638.109	517.2
638.525	508.3
638.941	529.6
639.357	526.8
639.773	531.4
640.189	518.2
640.584	521.8
641	521.5
641.416	518.4
641.832	516.4
642.249	517.2
642.665	520.8
643.06	527.7
643.477	532.1
643.894	512.2
644.31	520.2
644.727	523.2
645.123	522
645.54	518.8
645.957	522.7
646.374	524.9
646.77	520.8
647.187	541.1
647.604	522.3
648.021	507.6
648.439	517.3
648.835	524.7
649.252	524.4
649.67	513.6
650.088	524.2
650.484	523.4
650.902	521.9
651.32	535.2
651.738	523.1
652.134	531.3
652.552	535.4
652.971	527.6
653.389	526.5
653.786	535.8
654.204	519.4
654.622	515.6
655.019	522.6
655.438	528.5
655.857	522.2
656.275	526.5
656.673	519.4
657.091	575.4
657.51	519.4
657.908	531.3
658.327	531.9
658.746	510.4
659.144	515.9
659.563	533.5
659.982	529.1
660.38	513.3
660.8	522.1
661.219	530.2
661.617	528.3
662.037	516.6
662.457	528.3
662.855	507.6
663.275	547.4
663.695	521
664.094	520.8
664.514	521.6
664.934	510.8
665.333	526.1
665.753	516.8
666.152	516
666.572	514.1
666.993	526.8
667.392	522.8
667.812	517.2
668.212	517.5
668.632	527
669.053	519.8
669.453	524
669.874	516.7
670.273	521
670.694	514.8
671.116	526.9
671.515	529.9
671.937	518.5
672.337	517.2
672.758	521.4
673.158	524.2
673.58	514.6
673.98	523.9
674.402	530.7
674.824	520.5
675.224	519.7
675.646	520.2
676.047	519.3
676.469	524.4
676.869	525.9
677.292	522.8
677.693	518.8
678.115	516.8
678.516	522.6
678.939	526.8
679.34	522
679.762	526.5
680.164	523.3
680.586	512.8
680.988	521.5
681.411	537.1
681.812	522.5
682.236	512.9
682.637	515.7
683.061	509.8
683.462	522.8
683.864	518.1
684.288	521.3
684.69	518.8
685.114	528.9
685.516	527.6
685.94	509.5
686.342	527.7
686.766	516.7
687.168	523.2
687.571	539.1
687.995	519
688.398	513.3
688.822	519.2
689.225	534.5
689.628	538
690.052	518.2
690.456	529.9
690.88	526.4
691.284	507.5
691.687	527.1
692.112	512.8
692.515	511.1
692.919	517.7
693.344	519.4
693.747	520.5
694.173	514.5
694.577	530.1
694.98	516.8
695.406	516.1
695.81	520.8
696.214	521.2
696.64	518.3
697.044	526.3
697.448	528
697.874	525.8
698.279	518
698.684	509.8
699.11	509.9
699.514	516.7
699.919	519.1
700.324	516.1
700.75	522.7
701.156	525.4
701.561	530.3
701.987	524.2
702.393	531
702.798	523.9
703.203	521.5
703.63	515.7
704.036	517.9
704.442	519.9
704.847	518.3
705.274	524.8
705.68	523.3
706.086	531.3
706.492	513.2
706.92	516.8
707.326	534.3
707.732	519
708.139	516.2
708.545	511.8
708.973	515.8
709.38	523.9
709.786	514.4
710.193	527.6
710.6	522.7
711.028	508.4
711.435	517.8
711.842	516.6
712.249	521.2
712.656	519.4
713.064	527.9
713.492	514.8
713.9	512.6
714.307	524.7
714.715	520.8
715.123	523
715.53	522.7
715.938	529
716.367	519.3
716.775	519.3
717.184	515
717.592	519.6
718	522.2
718.408	548.4
718.816	555.6
719.225	523
719.633	518.6
720.042	511
720.472	518.1
720.881	535
721.29	524.2
721.699	516
722.108	524.8
722.517	518.5
722.926	514.5
723.335	522.2
723.744	521
724.154	516.8
724.563	523.2
724.973	526.8
725.382	521.9
725.792	515.3
726.202	509.1
726.612	528
727.022	516.3
727.432	519.1
779.813	514.4
780.223	557.4
780.634	514.6
781.044	514.4
781.454	520.9
781.865	524.7
782.276	507.5
782.686	523.5
783.097	512.4
783.508	514.7
783.919	520.3
784.33	531.2
784.741	526.1
785.152	514.6
785.563	505.3
785.974	507.6
786.386	523.5
786.776	516.8
787.188	518.2
787.599	514.3
788.011	517.7
788.423	523.7
788.835	507.4
789.247	508.3
789.659	512
790.071	518.5
790.483	550.7
790.874	515.2
791.286	520.8
791.699	516.3
792.111	515.1
792.524	522.2
792.937	518.1
793.349	509.3
793.741	511.2
794.154	511.9
794.567	531.1
794.98	513.5
795.393	511.8
795.785	526
796.198	512.3
796.612	520.2
797.026	516.4
797.439	505.8
797.831	516.2
798.245	509.9
798.659	519.2
799.073	517.7
799.487	515.4
799.88	518.8
800.294	517.4
800.708	518.4
801.123	517.9
801.516	529.7
801.93	509.6
802.345	503.1
802.76	512.4
803.153	524.9
803.568	524.6
803.983	526.1
804.377	518.1
804.792	507
805.207	496.8
805.601	516
806.016	540.8
806.432	515.6
806.826	541.4
807.242	522.5
807.658	519.4
808.052	514.6
808.468	509.9
808.884	512.6
809.279	513.5
809.695	523.7
810.111	529.1
810.506	516.9
810.922	526.1
811.339	512
811.734	517.5
812.151	508.2
812.546	511.5
812.963	513
813.38	517
813.776	520.4
814.193	528.9
814.589	514.2
815.006	513.4
815.402	507.8
815.82	513.6
816.237	517.2
816.633	514.1
817.051	508.7
817.448	522.7
817.866	509.5
818.262	531.2
818.68	512.1
819.077	514.5
819.495	516.9
819.892	543.3
820.311	510.7
820.708	512.7
821.127	510.8
821.524	524.3
821.943	517.1
822.34	526.5
822.759	521.5
823.157	515.8
823.576	527.2
823.974	514
824.393	526.4
824.791	509.6
825.189	513
825.609	513
826.007	514.1
826.427	503.1
826.826	514.4
827.246	519.7
827.644	503.1
828.043	526.5
828.463	510.4
828.862	524.3
829.261	525.6
829.682	507.3
830.081	521.8
830.502	507.3
830.901	515.6
831.301	512.7
831.722	507.2
832.121	513.4
832.521	514.2
832.943	514.9
833.342	513.7
833.742	510.2
834.164	512.8
834.564	506.8
834.965	513.8
835.386	516.4
835.787	515
836.188	515.1
836.588	514
837.01	513.2
837.411	507.3
837.812	519.5
838.213	514.2
838.636	509.4
839.037	573.4
839.438	515
839.84	521.2
840.263	518.4
840.664	521.5
841.066	516
841.468	514.9
841.891	510.1
842.293	522.7
842.695	518.8
843.098	522.1
843.5	519
843.902	515
844.326	514
844.729	519.6
845.131	523.4
845.534	516.6
845.937	526.2
846.34	530
846.764	511.4
847.167	519.8
