#lambda/nm	C1
208.295	472.1
208.67	442.3
209.045	400.1
209.419	403.4
209.794	557.4
210.169	542.9
210.544	643.9
210.919	557.3
211.295	540.9
211.67	545.2
212.045	544.8
212.421	546.8
212.796	578.2
213.172	544.8
213.547	544.7
213.923	547.1
214.299	547.7
214.675	551.1
215.051	551.4
215.427	550.2
215.803	564.4
216.179	552.7
216.555	542.8
216.932	556.3
217.308	551.1
217.684	549.4
218.061	550.7
218.438	550
218.814	547.2
219.191	558.7
219.568	542.8
219.945	548.1
220.322	551.8
220.699	553.8
221.076	552.5
221.453	547.4
221.83	541.1
222.208	548.6
222.585	547.6
222.962	547.3
223.34	554.7
223.717	553.7
224.095	540.4
224.473	549.9
224.851	539.9
225.229	539.9
225.607	562.2
225.985	540.8
226.363	549.6
226.741	545.2
227.119	548.5
227.497	563.8
227.876	539.3
228.254	558.4
228.633	555.9
229.011	550.9
229.39	550.9
229.769	550.9
230.148	553
230.527	561.3
230.905	550.9
231.284	551.8
231.664	542.2
232.043	559.5
232.422	551.8
232.801	543.8
233.181	556.4
233.56	548.5
233.94	558.6
234.319	539.9
234.699	547.4
235.079	576.7
235.458	576.2
235.838	559.5
236.218	544.7
236.598	537.1
236.978	539.4
237.358	540
237.738	543.3
238.119	549.1
238.499	535.7
238.88	543.8
239.26	563.1
239.641	540
240.021	543.4
240.402	552.4
240.783	550.7
241.163	544.8
241.544	547.3
241.925	543.7
242.306	561.8
242.687	541.1
243.069	549.6
243.45	551.4
243.831	536.5
244.212	549.1
244.594	577.6
244.975	551.8
245.357	547.4
245.739	544.6
246.12	547.9
246.502	558.6
246.884	545.6
247.266	542.8
247.648	556.2
248.03	570.4
248.412	551.5
248.794	549.6
249.176	544.6
249.559	554.3
249.941	545.4
250.323	538.4
250.706	541.7
251.089	549
251.471	549.4
251.854	552.3
252.237	549.8
252.62	555.1
253.002	551.4
253.385	553.6
253.769	557.6
254.152	546.8
254.535	547.9
254.918	543.4
255.301	549.7
255.685	550.6
256.068	539.9
256.452	570.3
256.835	554.1
257.219	555.3
257.603	569.5
257.986	539.3
258.37	554.8
258.754	537.1
259.138	553.9
259.522	558.1
259.906	548.5
260.29	548.5
260.675	547.6
261.059	549.7
261.443	543
261.828	557.3
262.212	553.6
262.597	539.4
262.981	549.7
263.366	550.7
263.751	547.5
264.136	540.9
264.521	545.5
264.906	547.7
265.291	557.2
265.676	548.3
266.061	552.1
266.446	567.8
266.831	548.4
267.217	566.5
267.602	554.1
267.987	552.3
268.373	543.9
268.759	552.8
269.144	552.9
269.53	551.7
269.916	544.9
270.302	543.7
270.688	546.1
271.074	551.9
271.46	557.5
271.846	574.6
272.232	549.5
272.618	548
273.004	554.8
273.391	555
273.777	558.6
274.164	550
274.55	561.8
274.937	553.5
275.324	549
275.71	554.8
276.097	553.5
276.484	545
276.871	552.9
277.258	556.1
277.645	540
278.032	546.3
278.419	544.9
278.807	555
279.194	547
279.581	543.2
279.969	551.9
280.356	552.8
280.744	553.7
281.131	569.1
281.519	556.7
281.907	544.3
282.295	546
282.682	558.4
283.07	553.4
283.458	555.4
283.846	560.3
284.235	559.4
284.623	558.9
285.011	540
285.399	552.5
285.788	545.5
286.176	536.5
286.565	558.5
286.953	542.3
287.342	540.7
287.731	544.7
288.119	539.7
288.508	548.8
288.897	551
289.286	533.6
289.675	547.8
290.064	556.9
290.453	549.6
290.821	549.5
291.21	561
291.599	547.7
291.989	549.7
292.378	555.1
292.768	570.5
293.157	556.2
293.547	558.9
293.936	548.7
294.326	544
294.716	550.5
295.106	548.8
295.496	553.5
295.886	556.6
296.276	545.8
296.666	544.9
297.056	540.3
297.446	539.7
297.836	559.8
298.227	544.9
298.617	550.7
299.008	557.3
299.398	545
299.789	540.7
300.179	549
300.57	560.9
300.961	542.9
301.352	543.3
301.742	548.4
302.133	545.4
302.524	543.9
302.915	546
303.307	537.2
303.698	551.8
304.089	552.2
304.48	545.9
304.872	552.7
305.263	553.4
305.655	541.8
306.046	554.2
306.438	555.7
306.829	547.5
307.221	562.5
307.613	558.3
308.005	558.1
308.397	558.5
308.789	566.7
309.181	569.7
309.573	559.6
309.965	557.3
310.357	545.8
310.749	550.1
311.142	545.8
311.534	542.4
311.926	557
312.319	547.1
312.711	544
313.104	562.2
313.497	547.6
313.889	585.4
314.282	562.9
314.675	570.2
315.068	549
315.461	558.3
315.854	573.2
316.247	554.1
316.64	548.5
317.033	546.6
317.405	557.2
317.798	549.6
318.192	551.5
318.585	544.4
318.979	557.8
319.372	545.6
319.766	547.8
320.16	557.9
320.553	561.9
320.947	562.9
321.341	550.4
321.735	545.6
322.129	542
322.523	572.3
322.917	540.4
323.311	555.6
323.705	547.2
324.099	550
324.494	559.5
324.888	558.4
325.282	552.2
325.677	554.8
326.071	556.3
326.466	559.9
326.861	561.3
327.255	559.8
327.65	561.5
328.045	566
328.44	547.8
328.835	549.1
329.23	547.7
329.625	567.6
330.02	544.9
330.415	566.6
330.81	551.4
331.206	547.6
331.601	542.1
331.996	562.4
332.37	556.1
332.766	538.4
333.161	566.8
333.557	546.8
333.953	551.5
334.348	846.1
334.744	551.3
335.14	547.3
335.536	541.5
335.932	564.1
336.328	546.4
336.724	560.8
337.12	547.5
337.516	555.3
337.913	547.4
338.309	556.2
338.705	546.7
339.102	561.7
339.498	551.2
339.895	560
340.291	541.2
340.688	554.9
341.085	540.8
341.481	543.9
341.878	546.2
342.275	563.7
342.672	541.7
343.069	543.5
343.466	537.7
343.842	555.4
344.239	542.3
344.636	550.7
345.033	539.9
345.431	542.2
345.828	549.6
346.225	539.1
346.623	556.8
347.02	545.9
347.418	556.3
347.816	556
348.213	538
348.611	555.4
349.009	543.1
349.407	559.5
349.805	539.4
350.203	537.6
350.601	558.1
350.999	545.5
351.397	542.7
351.795	551.3
352.193	554.3
352.57	555.6
352.969	554.3
353.367	542.8
353.766	542.1
354.164	546.8
354.563	554.3
354.961	546.7
355.36	548.2
355.759	548.1
356.158	535.7
356.557	544.1
356.956	543.6
357.355	536.2
357.754	548.6
358.153	551.8
358.552	569.3
358.951	546.6
359.35	558.3
359.75	545
360.149	537.5
360.527	538.8
360.926	537.5
361.326	546.3
361.726	543.5
362.125	538.5
362.525	548.8
362.925	543.6
363.325	544.3
363.724	547.8
364.124	541.3
364.524	539.7
364.924	543.8
365.324	553.2
365.725	535.5
366.125	546.9
366.525	544.9
366.904	541.3
367.304	530.4
367.705	556.1
368.105	556.4
368.506	543.6
368.906	542.6
369.307	542.3
369.708	553.8
370.108	533.6
370.509	550.1
370.91	536.6
371.311	550.5
371.712	545.2
372.113	547.6
372.514	535.3
372.894	542.6
373.295	537.2
373.696	545
374.097	547.4
374.499	569.1
374.9	543.4
375.301	540.3
375.703	544.5
376.105	536.5
376.506	546.8
376.908	543.3
377.309	545.1
377.711	545.5
378.113	532.9
378.493	539.4
378.895	535.8
379.297	549.1
379.699	529.6
380.102	543.9
380.504	542
380.906	535.2
381.308	559.8
381.71	542.1
382.113	544
382.515	535.8
382.918	542.7
383.299	541.8
383.701	541.3
384.104	543.1
384.507	525.5
384.909	538.8
385.312	533
385.715	534.1
386.118	537.8
386.521	532.8
386.924	547.5
387.327	534
387.709	531.8
388.112	528.4
388.515	533.4
388.918	539.3
389.322	536.7
389.725	536
390.129	557.8
390.532	547
390.936	538.4
391.339	531.8
391.743	543.1
392.125	535.6
392.529	549.4
392.933	551.7
393.337	537.1
393.74	542.1
394.144	539.8
394.548	537.4
394.953	539.1
395.357	541.9
395.761	537.7
396.144	538.6
396.548	535.8
396.952	538.6
397.357	536.2
397.761	535.7
398.166	537.3
398.57	537.5
398.975	533
399.379	536.3
399.763	585
400.168	540.3
400.572	534.6
400.977	532.3
401.382	555.8
401.787	546.6
402.192	553.9
402.597	551.5
403.002	531
403.386	551.6
403.791	550.9
404.197	533.2
404.602	543.3
405.007	541.3
405.413	537.3
405.818	537.4
406.224	536.7
406.608	542.9
407.014	538.4
407.42	554.2
407.825	541.5
408.231	551
408.637	547.3
409.043	552.8
409.449	536.6
409.834	537
410.24	541.1
410.646	554.8
411.052	553.8
411.458	544
411.865	549.6
412.271	546.6
412.677	549.5
413.062	547.4
413.469	534.4
413.875	561.3
414.282	558.1
414.689	544.8
415.095	548.1
415.502	538
415.888	539.9
416.294	529.5
416.701	579.4
417.108	536.5
417.515	548.9
417.923	533.6
418.33	557.5
418.715	549.5
419.123	536.4
419.53	539.3
419.937	544.6
420.345	555.1
420.752	534.7
421.16	556.1
421.546	545.6
421.953	551.3
422.361	536.3
422.769	539.1
423.177	537.4
423.585	563.7
423.992	561.1
424.379	554.2
424.787	548.5
425.195	557.9
425.603	543.8
426.011	554.1
426.419	557.5
426.806	547.3
427.214	544.4
427.623	552.7
428.031	560.3
428.44	548.5
428.848	555.7
429.235	555.4
429.644	542.9
430.053	542.8
430.461	558.5
430.87	565.9
431.279	551.3
431.666	540.9
432.075	541.5
432.484	543.9
432.893	546.4
433.302	562.3
433.711	584.8
434.099	546
434.508	547.2
434.918	545.3
435.327	552.8
435.737	552.4
436.125	553.9
436.534	550.4
436.944	558
437.353	555.9
437.763	579.5
438.173	553.1
438.561	570.1
438.971	554
439.381	559.7
439.791	565.6
440.201	547.6
440.589	566.8
440.999	567.7
441.409	570.7
441.819	550.7
442.23	570.6
442.619	567.5
443.029	556.2
443.439	566
443.85	566.5
444.26	575.5
444.649	570.9
445.06	561.8
445.471	562.5
445.881	559.5
446.292	577.2
446.682	583.3
447.092	551.6
447.503	601.8
447.914	558.5
448.325	563
448.715	564.1
449.126	559.1
449.537	564.2
449.948	564.7
450.338	565.8
450.75	573.6
451.161	566.8
451.572	569.3
451.984	558
452.374	554.6
452.786	570.1
453.197	573.7
453.609	574.8
453.999	554.9
454.411	562
454.823	579.3
455.235	573.5
455.647	564.7
456.037	575.6
456.449	558.4
456.862	572.7
457.274	565.3
457.665	565.3
458.077	576.9
458.489	575.2
458.902	567.8
459.293	573.3
459.705	567.9
460.118	560.5
460.53	566.4
460.921	566.7
461.334	566.5
461.747	565
462.16	579.6
462.551	574.8
462.964	571.9
463.377	552.8
463.79	571.3
464.182	575.1
464.595	561.8
465.008	574.6
465.421	570.8
465.813	563.3
466.226	570.8
466.64	563.9
467.053	604.5
467.445	579.9
467.859	572.8
468.272	570.8
468.686	577.3
469.078	560.6
469.492	556.2
469.906	568.3
470.298	567.8
470.712	561
471.126	584.3
471.54	555.3
471.933	561.4
472.347	555.1
472.761	561.8
473.175	554.1
473.568	556.8
473.982	555.4
474.397	558.4
474.79	562.7
475.204	567.5
475.619	555.9
476.033	563.6
476.426	565.9
476.841	554
477.256	578.7
477.649	555.8
478.064	558.2
478.479	554.1
478.872	556.8
479.287	545.3
479.702	553.6
480.118	561.2
480.511	560.9
480.927	546
481.342	550.9
481.736	563.9
482.151	554.2
482.566	566.6
482.96	560.4
483.376	567.7
483.792	555.3
484.186	564.5
484.602	555.7
485.017	560.3
485.412	557.6
485.827	569
486.243	552.7
486.638	583.5
487.054	564.9
487.47	572.7
487.865	553.3
488.281	561
488.697	552.2
489.092	555.7
489.508	552.9
489.925	562.3
490.32	548.2
490.736	562.1
491.153	557.7
491.548	560.4
491.964	571.5
492.381	549
492.776	563.8
493.193	556.2
493.61	561.8
494.006	558.8
494.422	562.4
494.84	548.1
495.235	564.5
495.652	551.8
496.069	549.7
496.465	545.5
496.883	557.6
497.3	570.1
497.696	549.2
498.113	560.9
498.509	543.6
498.927	548.2
499.344	545
499.741	551.1
500.158	560.8
500.576	559.9
500.973	553.8
501.39	543.8
501.787	540.5
502.205	553.8
502.623	543.7
503.02	548
503.438	550.7
503.856	549.4
504.253	552.7
504.671	552.8
505.068	545.9
505.486	546.8
505.905	563.4
506.302	551.9
506.72	555.9
507.118	542.8
507.536	547.8
507.955	543.1
508.352	547.1
508.771	552
509.169	552.1
509.587	533.7
510.006	544.3
510.404	536.7
510.823	547
511.221	545.1
511.64	538.7
512.038	560.1
512.457	544.3
512.877	539.5
513.275	537.3
513.694	541.6
514.092	544.3
514.512	544.5
514.91	540.5
515.33	541.8
515.749	544.7
516.148	543.8
516.568	548.5
516.966	539.8
517.386	540.6
517.785	539.1
518.205	538.7
518.603	542
519.024	534.3
519.444	540.9
519.843	544.3
520.263	543.8
520.662	542.1
521.082	535.3
521.481	539.2
521.902	539.4
522.301	543.7
522.722	543.3
523.121	539.1
523.542	539.8
523.963	537.6
524.362	540
524.783	538
525.183	542.3
525.604	540.4
526.003	530.3
526.425	529.8
526.824	540.2
527.246	546.8
527.646	549.4
528.067	536
528.467	534.5
528.888	536.3
529.289	530.7
529.71	539.2
530.11	534.9
530.532	533
530.932	529
531.354	526.5
531.755	566.7
532.176	545.8
532.577	539
532.999	539
533.4	534.3
533.822	548.6
534.223	537.7
534.645	537.9
535.046	536.8
535.468	540.2
535.869	547.7
536.292	531.5
536.693	536.9
537.115	542.7
537.516	534
537.939	535.6
538.34	559.1
538.742	556.1
539.165	547.2
539.566	540.4
539.989	534.9
540.391	538.7
540.814	542.8
541.216	547.5
541.639	549.2
542.041	561.8
542.464	549.3
542.866	549.8
543.268	546.8
543.691	559.4
544.093	560.5
544.517	568.3
544.919	548.6
545.343	571.7
545.745	551.7
546.147	557.2
546.571	553.8
546.974	551.9
547.398	562.4
547.8	573.1
548.224	562.6
548.627	559.7
549.03	569.4
549.454	552
549.857	549.9
550.281	555.8
550.684	553.8
551.087	558.6
551.512	558.9
551.915	551
552.34	547.9
552.743	542
553.146	545.2
553.571	546.4
553.975	554.6
554.399	537.9
554.803	577.5
555.207	542.3
555.632	529.6
556.036	546.2
556.461	529.8
556.865	532.3
557.268	528.2
557.694	535.1
558.098	539.5
558.502	539.5
558.927	531
559.332	534.5
559.736	529.6
560.162	537.7
560.566	532.3
560.992	538.3
561.396	540.8
561.801	534.6
562.227	530.4
562.631	525.4
563.036	534.1
563.462	536.8
563.867	533.8
564.272	521.6
564.698	535.2
565.103	524.5
565.508	547
565.935	533.6
566.34	532
566.745	541.7
567.172	524.3
567.577	543.4
567.982	539.1
568.409	529.3
568.815	530.3
569.22	529.5
569.626	533.7
570.053	519.2
570.459	531.8
570.865	539.2
571.292	539.1
571.698	530.8
572.104	518.1
572.531	525.9
572.937	536.9
573.343	532.1
573.75	527.8
574.177	534.7
574.583	540.6
574.99	531.2
575.396	532
575.824	525.4
576.231	538.4
576.637	528.7
577.065	549.9
577.472	528.3
577.879	530.6
578.286	539
578.714	525.3
579.121	529.8
579.528	533.9
579.935	541.4
580.364	534.3
580.771	519.7
581.178	526.6
581.585	536.4
582.014	535.5
582.421	532.3
582.829	534.7
583.236	535.3
583.644	521.8
584.073	534.5
584.481	531.5
584.889	529.3
585.296	539.8
585.726	536.7
586.134	529.7
586.542	531.5
586.95	550.9
587.358	532.9
587.787	536.9
588.196	527.3
588.604	533.3
589.012	533.5
589.421	530.8
589.851	523
590.259	538.4
590.668	526.8
591.076	563.1
591.485	521.4
591.894	532.4
592.324	550.1
592.733	542.7
593.142	517.4
593.551	533.7
593.96	539.6
594.369	523.9
594.8	522.5
595.209	524.3
595.618	519.3
596.028	524.4
596.437	525.3
596.847	528.9
597.256	532.8
597.687	530.2
598.097	533.9
598.507	523.7
598.917	536.3
599.327	529.9
599.736	533
600.146	535.2
600.556	531.9
600.988	544.4
601.398	526.5
601.808	537.4
602.219	512.8
602.629	529.2
603.039	533
603.45	554.2
603.86	533.8
604.271	542.3
604.703	531
605.114	528.3
605.525	524.4
605.935	530.5
606.346	549.8
606.757	538.5
607.168	530.8
607.579	521.2
607.99	536.2
608.402	534.8
608.813	538.2
609.224	540.2
609.636	538.5
610.047	546.4
610.48	551.1
610.892	559.2
611.303	561.8
611.715	557.7
612.127	557.2
612.539	557.5
612.95	556.3
613.362	545.5
613.774	543.4
614.186	541.4
614.599	539.4
615.011	545.8
615.423	533.8
615.835	537.1
616.248	531
616.66	536.9
617.073	525.5
617.485	529.7
617.898	539.4
618.311	534.1
618.723	525.2
619.136	558.4
619.549	539.3
619.962	545.9
620.375	521.8
620.788	528.1
621.201	524.8
621.614	535.5
622.028	527.4
622.441	532.3
622.854	547.8
623.268	523.6
623.681	535.1
624.095	528.3
624.509	534.2
624.922	533.5
625.336	517.4
625.728	535.8
626.142	537.8
626.556	538.6
626.97	530.2
627.384	529.6
627.799	519.3
628.213	536.1
628.627	529
629.041	527.9
629.456	531.2
629.87	530.9
630.285	536.5
630.699	539.1
631.093	530.4
631.507	533.3
631.922	530.9
632.337	540.4
632.752	521.1
633.167	525.8
633.582	520.2
633.997	525.9
634.412	522.3
634.806	529.8
635.221	515.8
635.637	532.2
636.052	516.4
636.468	528.7
636.883	538.3
637.299	525.4
637.715	517.8
638.109	523.3
638.525	516.6
638.941	531.6
639.357	527.1
639.773	536.8
640.189	518.8
640.584	526.5
641	526.7
641.416	512.9
641.832	524.1
642.249	519.3
642.665	524.4
643.06	529.2
643.477	535.6
643.894	517.2
644.31	528.3
644.727	525.6
645.123	526.6
645.54	514.4
645.957	524.5
646.374	531.2
646.77	524.6
647.187	547.1
647.604	529.8
648.021	511.6
648.439	519.8
648.835	526.3
649.252	525
649.67	524.9
650.088	524
650.484	530.1
650.902	529.9
651.32	532.6
651.738	524.4
652.134	527.2
652.552	534
652.971	533.2
653.389	523
653.786	535.1
654.204	525.7
654.622	522.6
655.019	521.5
655.438	526.7
655.857	531.6
656.275	525
656.673	523.7
657.091	583.3
657.51	522.6
657.908	534.5
658.327	535.8
658.746	517.9
659.144	523.8
659.563	541.2
659.982	526.4
660.38	514.4
660.8	522.1
661.219	534.7
661.617	522.9
662.037	519.6
662.457	529.3
662.855	507.8
663.275	551.4
663.695	520.7
664.094	519.2
664.514	525.7
664.934	517.5
665.333	525.8
665.753	521
666.152	513.5
666.572	514.6
666.993	534.9
667.392	520
667.812	518.8
668.212	519.3
668.632	531.4
669.053	516.6
669.453	523.1
669.874	523.4
670.273	526.5
670.694	517.5
671.116	530.9
671.515	529.5
671.937	517.6
672.337	520.4
672.758	520.4
673.158	534
673.58	523.1
673.98	527.6
674.402	534.7
674.824	514.2
675.224	522.9
675.646	515.7
676.047	518.6
676.469	523.3
676.869	532.1
677.292	526
677.693	519.5
678.115	517.9
678.516	520.2
678.939	527.9
679.34	516.2
679.762	525.9
680.164	527.3
680.586	513.7
680.988	530.4
681.411	543.4
681.812	516.5
682.236	515.8
682.637	515.8
683.061	513.5
683.462	518.7
683.864	519.9
684.288	526.2
684.69	511.3
685.114	530
685.516	526.6
685.94	515.2
686.342	528.7
686.766	517.6
687.168	514.5
687.571	534.3
687.995	513.7
688.398	511.3
688.822	519.2
689.225	533.2
689.628	537
690.052	521.3
690.456	525.6
690.88	524.2
691.284	511.7
691.687	526.2
692.112	514.4
692.515	515
692.919	522.2
693.344	527.4
693.747	522.9
694.173	520.4
694.577	529.3
694.98	523.2
695.406	523.1
695.81	522.4
696.214	525.1
696.64	522
697.044	525.9
697.448	530
697.874	520.3
698.279	522.8
698.684	510
699.11	516.6
699.514	522.2
699.919	520.6
700.324	510.3
700.75	522.1
701.156	527.3
701.561	529.5
701.987	529.4
702.393	530.6
702.798	532.9
703.203	522.6
703.63	519.1
704.036	519.8
704.442	522
704.847	517.6
705.274	522.7
705.68	523.8
706.086	532.6
706.492	515.7
706.92	522.2
707.326	525.7
707.732	527.3
708.139	513.2
708.545	516.6
708.973	515.5
709.38	523.6
709.786	510.5
710.193	535.1
710.6	524.4
711.028	510.4
711.435	518.7
711.842	516.8
712.249	517.4
712.656	515
713.064	524.6
713.492	521.4
713.9	513.2
714.307	525
714.715	517.3
715.123	521.7
715.53	524.3
715.938	528.6
716.367	526.1
716.775	516.8
717.184	508.4
717.592	514.4
718	529.1
718.408	546.3
718.816	552.7
719.225	517.5
719.633	518
720.042	514.2
720.472	518.7
720.881	537.6
721.29	525
721.699	515.8
722.108	521.1
722.517	518
722.926	518.7
723.335	526.1
723.744	524.5
724.154	515.3
724.563	518.7
724.973	523.4
725.382	522.5
725.792	522.9
726.202	516.7
726.612	533.2
727.022	517.2
727.432	514.5
779.813	518.5
780.223	557.1
780.634	515.2
781.044	519
781.454	521.7
781.865	528
782.276	514.2
782.686	530.9
783.097	519.8
783.508	519.5
783.919	519.3
784.33	526
784.741	526.1
785.152	514.4
785.563	505.4
785.974	519.5
786.386	526.3
786.776	516.1
787.188	520.9
787.599	514.1
788.011	529.3
788.423	519.9
788.835	519.1
789.247	514
789.659	514.5
790.071	512
790.483	549.1
790.874	518.2
791.286	522.6
791.699	516.8
792.111	523.2
792.524	521.2
792.937	516.1
793.349	512.4
793.741	515.2
794.154	513.9
794.567	528.9
794.98	517.3
795.393	508.9
795.785	532.2
796.198	517.9
796.612	517.3
797.026	519.2
797.439	505.8
797.831	515.5
798.245	513.1
798.659	515.2
799.073	517.9
799.487	510.8
799.88	520.7
800.294	520
800.708	524.6
801.123	516.8
801.516	537.9
801.93	508.7
802.345	512.3
802.76	520
803.153	533.7
803.568	528.3
803.983	525.8
804.377	522.2
804.792	506.9
805.207	507.7
805.601	515.1
806.016	548.2
806.432	515.8
806.826	549.6
807.242	526.2
807.658	519.4
808.052	512.4
808.468	515
808.884	514.9
809.279	519.4
809.695	526.1
810.111	539.1
810.506	515
810.922	531.8
811.339	508.1
811.734	521.2
812.151	511.4
812.546	509.6
812.963	511.9
813.38	522.8
813.776	520.8
814.193	532.2
814.589	513.1
815.006	513.7
815.402	509.2
815.82	511.7
816.237	515.5
816.633	518.1
817.051	514
817.448	520.5
817.866	502.5
818.262	529.5
818.68	515.3
819.077	511.2
819.495	517.4
819.892	548.5
820.311	510.7
820.708	514.5
821.127	512.5
821.524	525
821.943	519
822.34	533.3
822.759	521.1
823.157	519.4
823.576	530.5
823.974	526.1
824.393	520.8
824.791	512.8
825.189	507.2
825.609	511.3
826.007	514.4
826.427	505.2
826.826	517
827.246	512.6
827.644	501.2
828.043	530.5
828.463	512.2
828.862	526.2
829.261	518.5
829.682	509
830.081	519.6
830.502	508.6
830.901	520.3
831.301	513.7
831.722	504.6
832.121	514.5
832.521	505.7
832.943	514.3
833.342	516.8
833.742	509.3
834.164	512.2
834.564	505
834.965	516.6
835.386	508.8
835.787	511.7
836.188	516.5
836.588	515.7
837.01	513.5
837.411	509.7
837.812	522.6
838.213	515
838.636	508.7
839.037	572.4
839.438	520.4
839.84	519.9
840.263	522.8
840.664	517.5
841.066	513.3
841.468	522.6
841.891	515.2
842.293	521.5
842.695	523.1
843.098	523.9
843.5	510.9
843.902	518.8
844.326	521.8
844.729	513.3
845.131	527.8
845.534	519
845.937	523.3
846.34	530.5
846.764	513
