#lambda/nm	C1
208.295	471.7
208.67	441
209.045	405.9
209.419	407.4
209.794	590.7
210.169	566.1
210.544	688.6
210.919	582.3
211.295	572.1
211.67	581.9
212.045	574.8
212.421	582.2
212.796	615.1
213.172	577.2
213.547	580.5
213.923	578.1
214.299	571.7
214.675	595.5
215.051	582.5
215.427	586.2
215.803	603.1
216.179	583.9
216.555	576
216.932	591.5
217.308	585.3
217.684	581.5
218.061	582.2
218.438	589.7
218.814	580.1
219.191	590.3
219.568	573.6
219.945	577.1
220.322	585.3
220.699	584.1
221.076	597.5
221.453	592.6
221.83	578.5
222.208	579.5
222.585	577.2
222.962	586.4
223.34	590.6
223.717	584.2
224.095	579.7
224.473	582.4
224.851	582.7
225.229	571.8
225.607	602.2
225.985	568.8
226.363	580.9
226.741	588
227.119	580.6
227.497	596.9
227.876	570.5
228.254	585.6
228.633	583.7
229.011	584.2
229.39	586.5
229.769	586.5
230.148	591.7
230.527	600.1
230.905	580.7
231.284	586.8
231.664	576.6
232.043	601.2
232.422	591.9
232.801	570.3
233.181	586.3
233.56	586.6
233.94	580.7
234.319	576.9
234.699	580
235.079	620.8
235.458	623.5
235.838	598.7
236.218	576.8
236.598	567.8
236.978	571.7
237.358	578.9
237.738	580.1
238.119	592.1
238.499	569.9
238.88	580.6
239.26	597.1
239.641	571.6
240.021	576.3
240.402	581
240.783	582.4
241.163	580
241.544	579
241.925	581.6
242.306	595.3
242.687	570
243.069	583.7
243.45	590.2
243.831	575.4
244.212	581.6
244.594	607.2
244.975	589.6
245.357	592
245.739	582.9
246.12	575.8
246.502	593.8
246.884	580.6
247.266	570.1
247.648	583.8
248.03	609.4
248.412	578.6
248.794	590.1
249.176	570.6
249.559	588.9
249.941	571
250.323	570.7
250.706	567.7
251.089	578.7
251.471	586.8
251.854	585.1
252.237	578.8
252.62	587.8
253.002	586.8
253.385	580.8
253.769	590
254.152	581.3
254.535	585
254.918	568.6
255.301	578.3
255.685	581.7
256.068	575.6
256.452	604
256.835	588.3
257.219	590.3
257.603	593.4
257.986	572.6
258.37	582.2
258.754	571.4
259.138	584.4
259.522	588.9
259.906	576.9
260.29	586.2
260.675	581.1
261.059	581.2
261.443	571.4
261.828	579.9
262.212	590.9
262.597	563.3
262.981	577.8
263.366	587.3
263.751	579.6
264.136	579.1
264.521	583
264.906	572.7
265.291	593.4
265.676	582.2
266.061	588.5
266.446	598.9
266.831	581.7
267.217	601.2
267.602	586.4
267.987	590
268.373	582.5
268.759	587.8
269.144	590.5
269.53	584.4
269.916	580.1
270.302	579.7
270.688	591.6
271.074	587.5
271.46	591.2
271.846	613.1
272.232	586.4
272.618	575.4
273.004	576.9
273.391	593.4
273.777	593.3
274.164	586.8
274.55	592.8
274.937	586.3
275.324	581.7
275.71	587.2
276.097	592.2
276.484	579.1
276.871	586.7
277.258	587.5
277.645	571.9
278.032	583.5
278.419	579.8
278.807	590.1
279.194	577.3
279.581	579.5
279.969	590.5
280.356	584.6
280.744	585.7
281.131	607.7
281.519	592.1
281.907	579.5
282.295	579
282.682	592.9
283.07	586.4
283.458	589.8
283.846	594
284.235	592.3
284.623	591.2
285.011	573.7
285.399	579.6
285.788	582.5
286.176	572.6
286.565	599.1
286.953	579.8
287.342	574.4
287.731	576.2
288.119	575.3
288.508	581.7
288.897	582.9
289.286	574
289.675	584.9
290.064	597.1
290.453	574.4
290.821	585.1
291.21	594.6
291.599	580.4
291.989	585.1
292.378	586.6
292.768	593.9
293.157	586.5
293.547	592.1
293.936	580.6
294.326	580.1
294.716	590.5
295.106	579.2
295.496	591.6
295.886	595
296.276	581.6
296.666	576.1
297.056	581.5
297.446	571.4
297.836	599.8
298.227	580.3
298.617	589
299.008	599.3
299.398	580.4
299.789	582.5
300.179	591.5
300.57	596.2
300.961	584.6
301.352	579
301.742	591
302.133	583.6
302.524	584.2
302.915	581.2
303.307	579.2
303.698	592.6
304.089	591.7
304.48	584.5
304.872	593.2
305.263	586.5
305.655	573.5
306.046	585.7
306.438	590.8
306.829	578.3
307.221	600.2
307.613	590
308.005	597.4
308.397	591.9
308.789	603.3
309.181	616
309.573	604
309.965	598.7
310.357	583.1
310.749	588.2
311.142	578.7
311.534	579.6
311.926	589.2
312.319	584
312.711	575.1
313.104	596.5
313.497	577.4
313.889	624.2
314.282	602.5
314.675	614.1
315.068	587.8
315.461	591.5
315.854	615.8
316.247	592.7
316.64	586
317.033	585.2
317.405	594.4
317.798	588.7
318.192	594.4
318.585	580.6
318.979	591.2
319.372	582.8
319.766	583.4
320.16	600.1
320.553	598
320.947	601
321.341	582.7
321.735	586.9
322.129	571.7
322.523	609.6
322.917	576.7
323.311	596.5
323.705	582.2
324.099	591.2
324.494	599.2
324.888	600.7
325.282	584.8
325.677	588.3
326.071	586.3
326.466	598.9
326.861	589.4
327.255	595.6
327.65	595.3
328.045	605.9
328.44	583.8
328.835	580.5
329.23	577.9
329.625	612.1
330.02	578.8
330.415	609.6
330.81	591.3
331.206	585.8
331.601	578.1
331.996	590.8
332.37	598.3
332.766	574.4
333.161	604.6
333.557	581.5
333.953	582.6
334.348	1006.5
334.744	580.5
335.14	581.1
335.536	581.6
335.932	596.6
336.328	584.3
336.724	598.6
337.12	581.6
337.516	589.3
337.913	582.9
338.309	600.6
338.705	584
339.102	593.3
339.498	576.9
339.895	593.3
340.291	579.4
340.688	591.2
341.085	579.1
341.481	578.3
341.878	585.1
342.275	598.9
342.672	575.8
343.069	575.4
343.466	570.6
343.842	593.6
344.239	572.4
344.636	580.7
345.033	567.4
345.431	576.2
345.828	583.4
346.225	575.2
346.623	586.9
347.02	576.1
347.418	587.7
347.816	593.3
348.213	571.2
348.611	590.3
349.009	574.7
349.407	596.2
349.805	569.6
350.203	569.5
350.601	589
350.999	582.2
351.397	577.2
351.795	585.9
352.193	590.6
352.57	592.9
352.969	594.4
353.367	576.4
353.766	573.2
354.164	584.3
354.563	588.7
354.961	577.8
355.36	577.4
355.759	576.4
356.158	573
356.557	565.8
356.956	567.9
357.355	566.4
357.754	584.4
358.153	584.4
358.552	604.4
358.951	582.5
359.35	589.9
359.75	572.4
360.149	568.7
360.527	567
360.926	565
361.326	573.5
361.726	580.2
362.125	567.8
362.525	583.1
362.925	579.6
363.325	582
363.724	581.9
364.124	569.7
364.524	576.9
364.924	581
365.324	595.7
365.725	558.8
366.125	577.3
366.525	580.1
366.904	571.4
367.304	557.3
367.705	595.5
368.105	585.5
368.506	578.2
368.906	583.4
369.307	578.5
369.708	577.2
370.108	566.6
370.509	585.4
370.91	577.3
371.311	580.9
371.712	581.1
372.113	573.5
372.514	565.6
372.894	573.5
373.295	572.5
373.696	583.1
374.097	591.9
374.499	601.1
374.9	582.6
375.301	569.4
375.703	581.8
376.105	569.4
376.506	576.7
376.908	578.5
377.309	579.5
377.711	579.3
378.113	576.5
378.493	579
378.895	570.5
379.297	585.1
379.699	565.3
380.102	579.4
380.504	576.8
380.906	571
381.308	603.5
381.71	572.5
382.113	579.1
382.515	580.5
382.918	584.9
383.299	573.1
383.701	583.1
384.104	577
384.507	560.6
384.909	573
385.312	567.2
385.715	560.3
386.118	570.2
386.521	567.8
386.924	585.7
387.327	570.8
387.709	567.9
388.112	557.4
388.515	572.4
388.918	575.8
389.322	576.9
389.725	571.4
390.129	598.2
390.532	583.6
390.936	568.9
391.339	569.5
391.743	578.9
392.125	564.6
392.529	580.7
392.933	590.7
393.337	576.5
393.74	573.9
394.144	577.4
394.548	574.1
394.953	569.2
395.357	582.2
395.761	569.5
396.144	574.5
396.548	573.2
396.952	577.8
397.357	576.6
397.761	574.4
398.166	572
398.57	571.3
398.975	570
399.379	580.5
399.763	619.8
400.168	573.9
400.572	574.6
400.977	575.9
401.382	596.1
401.787	581.4
402.192	592.6
402.597	589.1
403.002	569.4
403.386	591.5
403.791	598.4
404.197	575.3
404.602	577.6
405.007	579.3
405.413	571
405.818	569.9
406.224	569
406.608	575.2
407.014	569.5
407.42	588.5
407.825	573.4
408.231	588.2
408.637	576.8
409.043	589.4
409.449	568.6
409.834	571.4
410.24	572.7
410.646	590
411.052	589.2
411.458	575
411.865	580.7
412.271	588
412.677	581.4
413.062	581.6
413.469	572
413.875	601.7
414.282	588.7
414.689	581.7
415.095	584.2
415.502	573.9
415.888	580.9
416.294	559.1
416.701	618.3
417.108	577.6
417.515	592
417.923	573.2
418.33	599.1
418.715	582.1
419.123	576.7
419.53	572.9
419.937	575.5
420.345	589.7
420.752	573.6
421.16	587.9
421.546	580.9
421.953	582.1
422.361	571.9
422.769	573.4
423.177	567.6
423.585	605.8
423.992	596.4
424.379	588.9
424.787	579.7
425.195	600.2
425.603	581.2
426.011	590.2
426.419	588.3
426.806	576.4
427.214	576.3
427.623	588.4
428.031	594.2
428.44	584.8
428.848	584.7
429.235	595
429.644	576
430.053	578.5
430.461	598.8
430.87	606.5
431.279	586.2
431.666	570.4
432.075	576.5
432.484	587
432.893	578.5
433.302	592.6
433.711	613.5
434.099	586.4
434.508	582.6
434.918	572.8
435.327	583.8
435.737	585.3
436.125	592.9
436.534	594.1
436.944	594.3
437.353	589.6
437.763	615.9
438.173	586.6
438.561	606.7
438.971	589
439.381	601
439.791	604
440.201	586.9
440.589	607
440.999	612.1
441.409	606.5
441.819	598.3
442.23	620.5
442.619	620.4
443.029	621.6
443.439	622.2
443.85	633.9
444.26	637.5
444.649	640.3
445.06	631.5
445.471	626.3
445.881	635.2
446.292	649.5
446.682	657.8
447.092	627.8
447.503	691.4
447.914	647
448.325	646.2
448.715	649
449.126	643.6
449.537	647.6
449.948	652.6
450.338	645.6
450.75	661
451.161	656.9
451.572	658.7
451.984	651.4
452.374	640
452.786	654.6
453.197	663.3
453.609	660.7
453.999	645.6
454.411	654.1
454.823	666.8
455.235	659.9
455.647	648.8
456.037	655.8
456.449	643.2
456.862	660.5
457.274	662.4
457.665	647.9
458.077	666.9
458.489	672.3
458.902	657.5
459.293	663.9
459.705	657.8
460.118	658.3
460.53	672.7
460.921	668.9
461.334	665.9
461.747	669.3
462.16	677.8
462.551	677.6
462.964	672.3
463.377	652
463.79	660.6
464.182	667.2
464.595	652
465.008	661.1
465.421	667.7
465.813	657.9
466.226	671.4
466.64	658.6
467.053	707.7
467.445	671.8
467.859	663
468.272	664.7
468.686	677.9
469.078	664.9
469.492	654.7
469.906	663.3
470.298	659.4
470.712	661.7
471.126	694.3
471.54	647.7
471.933	653.1
472.347	657.3
472.761	650.4
473.175	655.1
473.568	654.3
473.982	644.5
474.397	657
474.79	654.8
475.204	668
475.619	652
476.033	657.4
476.426	654
476.841	648.2
477.256	679.5
477.649	644.3
478.064	643.7
478.479	638.4
478.872	648.3
479.287	636.4
479.702	650.6
480.118	643.3
480.511	649.8
480.927	641.5
481.342	643.1
481.736	647.6
482.151	637.8
482.566	660.7
482.96	645.3
483.376	660.3
483.792	644.6
484.186	650.2
484.602	636.5
485.017	648.4
485.412	642.9
485.827	653.2
486.243	641.5
486.638	666
487.054	648.4
487.47	657.3
487.865	643.1
488.281	639.2
488.697	645.4
489.092	635.9
489.508	631.3
489.925	646.3
490.32	624.1
490.736	634.4
491.153	638.9
491.548	638
491.964	647
492.381	628.4
492.776	637.8
493.193	635.5
493.61	640.3
494.006	640.3
494.422	642.2
494.84	627.3
495.235	645.7
495.652	635.1
496.069	636.6
496.465	624.4
496.883	627.1
497.3	658.7
497.696	631.1
498.113	633.1
498.509	618
498.927	622
499.344	620.4
499.741	624.6
500.158	639
500.576	632.6
500.973	627.5
501.39	616.2
501.787	618.9
502.205	627.2
502.623	619.7
503.02	608.5
503.438	621.5
503.856	624.1
504.253	625.2
504.671	628.7
505.068	618.6
505.486	622.3
505.905	636.9
506.302	625.6
506.72	625.3
507.118	616.6
507.536	619.1
507.955	620.4
508.352	622.5
508.771	617.6
509.169	620.7
509.587	609.3
510.006	613
510.404	605.6
510.823	607.8
511.221	611
511.64	612.4
512.038	622.8
512.457	613.1
512.877	606.9
513.275	609
513.694	603
514.092	611.6
514.512	615.6
514.91	603.2
515.33	608.3
515.749	610.8
516.148	613.8
516.568	608.5
516.966	609.8
517.386	601
517.785	606.9
518.205	600.5
518.603	600.1
519.024	602.4
519.444	607.3
519.843	618.1
520.263	603.5
520.662	604.8
521.082	598.9
521.481	607.3
521.902	598.1
522.301	598.1
522.722	604.3
523.121	598.3
523.542	595.3
523.963	592.8
524.362	598.4
524.783	600.5
525.183	594.9
525.604	598.3
526.003	597.3
526.425	584.6
526.824	597.1
527.246	610.3
527.646	599
528.067	589.3
528.467	595
528.888	599.1
529.289	589.2
529.71	588.3
530.11	593.4
530.532	587
530.932	590.5
531.354	579.1
531.755	625.4
532.176	598.7
532.577	593.7
532.999	591.7
533.4	587.4
533.822	594.7
534.223	591
534.645	587.1
535.046	581
535.468	586.2
535.869	606.7
536.292	579.3
536.693	584
537.115	585.1
537.516	580.5
537.939	582
538.34	600.2
538.742	596.9
539.165	587
539.566	581.9
539.989	577.5
540.391	580.9
540.814	586.1
541.216	585.5
541.639	582.8
542.041	588.5
542.464	583.9
542.866	579.1
543.268	571.1
543.691	590.6
544.093	588
544.517	595.6
544.919	572.1
545.343	603.2
545.745	575.1
546.147	584.2
546.571	582.1
546.974	571.7
547.398	584.1
547.8	596.5
548.224	576.6
548.627	571.9
549.03	585.1
549.454	568.2
549.857	568.7
550.281	570.5
550.684	573.8
551.087	593.4
551.512	581.8
551.915	586.1
552.34	574.8
552.743	575.6
553.146	581.2
553.571	576.7
553.975	596
554.399	575.9
554.803	625
555.207	574.3
555.632	572.2
556.036	583.8
556.461	568.8
556.865	576.4
557.268	566.5
557.694	574.6
558.098	575.1
558.502	586.1
558.927	567.3
559.332	575.6
559.736	574.5
560.162	579.5
560.566	580.1
560.992	583.8
561.396	575.4
561.801	574.1
562.227	573.4
562.631	566.4
563.036	571.6
563.462	584.2
563.867	578
564.272	558.1
564.698	576.8
565.103	565.2
565.508	593.6
565.935	574.3
566.34	569.9
566.745	583.6
567.172	574.7
567.577	600.7
567.982	584.4
568.409	574.3
568.815	561.6
569.22	570.6
569.626	580.8
570.053	558.9
570.459	571.6
570.865	578.3
571.292	577.8
571.698	575.3
572.104	561.7
572.531	566.7
572.937	581.1
573.343	567.5
573.75	571.7
574.177	565.9
574.583	578.1
574.99	569.2
575.396	577.7
575.824	561.8
576.231	572.4
576.637	568.6
577.065	596.5
577.472	564.8
577.879	565.4
578.286	579.6
578.714	563.6
579.121	565.9
579.528	571.8
579.935	570.9
580.364	569
580.771	557.5
581.178	560.4
581.585	569
582.014	572.4
582.421	567.4
582.829	567.2
583.236	576.6
583.644	562
584.073	570.1
584.481	565.6
584.889	561
585.296	570.2
585.726	564.4
586.134	558.6
586.542	560.6
586.95	583.1
587.358	556.9
587.787	565.7
588.196	554.5
588.604	570.1
589.012	562.5
589.421	557.9
589.851	560.2
590.259	568.2
590.668	565.4
591.076	598.2
591.485	559.7
591.894	561.8
592.324	576.2
592.733	574.6
593.142	559.5
593.551	559.7
593.96	597
594.369	551.9
594.8	556.5
595.209	561.7
595.618	552.9
596.028	557.9
596.437	555.8
596.847	565.1
597.256	570.1
597.687	564
598.097	565.7
598.507	553.9
598.917	566.5
599.327	572.4
599.736	567.7
600.146	575.6
600.556	564.9
600.988	579
601.398	558.2
601.808	577
602.219	552.8
602.629	565.6
603.039	563.2
603.45	589.6
603.86	561.5
604.271	581
604.703	567.3
605.114	560.7
605.525	564.4
605.935	566.8
606.346	587.1
606.757	568.7
607.168	563.5
607.579	561.8
607.99	573.2
608.402	565.5
608.813	568.3
609.224	560.4
609.636	555.3
610.047	555.8
610.48	565.1
610.892	565.8
611.303	573.4
611.715	556.6
612.127	554.5
612.539	556.1
612.95	564.5
613.362	554.5
613.774	549
614.186	556.5
614.599	556.9
615.011	568
615.423	549.3
615.835	555.5
616.248	551.6
616.66	566
617.073	551.9
617.485	551.8
617.898	565.1
618.311	564.9
618.723	557.1
619.136	587
619.549	570
619.962	583.4
620.375	553.6
620.788	560.2
621.201	556.2
621.614	566.8
622.028	555.7
622.441	558.2
622.854	571.4
623.268	554.7
623.681	565.7
624.095	559.9
624.509	562.3
624.922	568.8
625.336	543.6
625.728	558.6
626.142	569.4
626.556	574.2
626.97	557.6
627.384	557.3
627.799	556.1
628.213	566.9
628.627	555.8
629.041	556
629.456	552
629.87	553.2
630.285	564.3
630.699	568.3
631.093	557.8
631.507	566.4
631.922	560.4
632.337	571.7
632.752	552.4
633.167	557.6
633.582	549.9
633.997	551.1
634.412	552.5
634.806	554.6
635.221	548.1
635.637	570.2
636.052	546
636.468	559.9
636.883	576.1
637.299	554.3
637.715	549.1
638.109	556.3
638.525	545.4
638.941	567.1
639.357	559.6
639.773	564.6
640.189	551.4
640.584	555.4
641	560.4
641.416	547.7
641.832	549.4
642.249	549.4
642.665	556.1
643.06	563.1
643.477	561.4
643.894	545.8
644.31	555.8
644.727	559
645.123	555.2
645.54	551.2
645.957	560.4
646.374	560.4
646.77	559.6
647.187	585.1
647.604	556.8
648.021	549.7
648.439	548.4
648.835	557
649.252	560.2
649.67	554.9
650.088	553.7
650.484	555.1
650.902	565
651.32	565.6
651.738	549.3
652.134	562.9
652.552	578.1
652.971	560.9
653.389	553.6
653.786	566.8
654.204	553.6
654.622	552.5
655.019	555
655.438	561.9
655.857	559.4
656.275	562.7
656.673	548.9
657.091	624.6
657.51	555
657.908	562.3
658.327	572.1
658.746	547
659.144	555.3
659.563	570.9
659.982	561.7
660.38	544.2
660.8	553.5
661.219	565.4
661.617	563.3
662.037	555.8
662.457	563.3
662.855	535
663.275	585.5
663.695	560.6
664.094	552.9
664.514	558.3
664.934	551.3
665.333	563.9
665.753	550.6
666.152	547.9
666.572	546.2
666.993	569.4
667.392	555.8
667.812	554.9
668.212	557.5
668.632	567.9
669.053	558
669.453	558.3
669.874	561.4
670.273	557.3
670.694	548.2
671.116	565.2
671.515	562.7
671.937	546.3
672.337	551.1
672.758	554.2
673.158	558.4
673.58	544.5
673.98	560.3
674.402	571.9
674.824	552.7
675.224	552.3
675.646	547.2
676.047	547.2
676.469	553.7
676.869	562
677.292	562
677.693	550.5
678.115	550.7
678.516	562
678.939	559.4
679.34	559.6
679.762	572.2
680.164	559.3
680.586	546.1
680.988	556.3
681.411	577.9
681.812	548
682.236	547.9
682.637	546
683.061	541.9
683.462	560.4
683.864	556.5
684.288	564.5
684.69	551.3
685.114	569.8
685.516	570.3
685.94	547.9
686.342	567.1
686.766	547.3
687.168	552.8
687.571	570.5
687.995	550
688.398	544.2
688.822	553.8
689.225	569.1
689.628	570.5
690.052	551.4
690.456	563.3
690.88	557.4
691.284	551.3
691.687	564
692.112	547.1
692.515	548.5
692.919	554.4
693.344	557.9
693.747	549.8
694.173	548.9
694.577	566.7
694.98	552.8
695.406	554.2
695.81	556.6
696.214	565.8
696.64	557.2
697.044	559.4
697.448	560.8
697.874	556.5
698.279	553.7
698.684	546
699.11	544.1
699.514	555.5
699.919	558.9
700.324	544.6
700.75	552.5
701.156	554.9
701.561	562.9
701.987	562.5
702.393	567
702.798	567.7
703.203	551.9
703.63	549.1
704.036	549.7
704.442	555.1
704.847	551.3
705.274	552.7
705.68	560.2
706.086	562.8
706.492	545.7
706.92	549.3
707.326	568.8
707.732	558
708.139	549.1
708.545	543.2
708.973	551.4
709.38	551.2
709.786	546.2
710.193	569.2
710.6	555.3
711.028	550.7
711.435	554.6
711.842	552.4
712.249	550.3
712.656	555.1
713.064	561.5
713.492	550.3
713.9	551.3
714.307	549.6
714.715	548.6
715.123	554.7
715.53	550.1
715.938	567.2
716.367	553.1
716.775	549.4
717.184	543.1
717.592	546.1
718	563.4
718.408	582.6
718.816	589.5
719.225	554.6
719.633	548.2
720.042	547.2
720.472	551.5
720.881	568.9
721.29	556.2
721.699	542.8
722.108	550.6
722.517	556.5
722.926	549.4
723.335	559.1
723.744	553.2
724.154	553.5
724.563	552.6
724.973	552.5
725.382	549.9
725.792	550.3
726.202	545
726.612	558.3
727.022	552
727.432	544.9
779.813	551.4
780.223	592.5
780.634	548.1
781.044	544.4
781.454	550.4
781.865	565.8
782.276	541.7
782.686	563.3
783.097	551.3
783.508	551.1
783.919	552.3
784.33	558.8
784.741	565
785.152	544.9
785.563	534.9
785.974	545.9
786.386	562.2
786.776	546.8
787.188	544.2
787.599	539
788.011	555.8
788.423	552
788.835	551.3
789.247	541.2
789.659	547.8
790.071	544.1
790.483	591.5
790.874	549
791.286	558.2
791.699	546.5
792.111	550.3
792.524	552.1
792.937	550.2
793.349	543.9
793.741	548.3
794.154	549.7
794.567	567
794.98	543
795.393	542.8
795.785	564
796.198	548.9
796.612	548.7
797.026	547.8
797.439	537.4
797.831	546.6
798.245	544.2
798.659	542.1
799.073	545.3
799.487	542.2
799.88	553
800.294	553.2
800.708	548.2
801.123	547.1
801.516	567.4
801.93	541.8
802.345	535.9
802.76	550.2
803.153	553.7
803.568	561.7
803.983	558.6
804.377	550.5
804.792	540.6
805.207	541.5
805.601	550.7
806.016	585.1
806.432	545.3
806.826	580.1
807.242	566.6
807.658	559.4
808.052	543.7
808.468	550.7
808.884	547.4
809.279	551.9
809.695	559.5
810.111	568.5
810.506	555.3
810.922	571.4
811.339	542.3
811.734	563.1
812.151	546.3
812.546	548.5
812.963	546.4
813.38	555.5
813.776	552.6
814.193	569.3
814.589	543.8
815.006	547.8
815.402	546.2
815.82	544.8
816.237	546.2
816.633	553.1
817.051	540.8
817.448	554.2
817.866	537.7
818.262	563.2
818.68	544.6
819.077	545.5
819.495	549.1
819.892	592.6
820.311	546.8
820.708	539.4
821.127	544.3
821.524	561.7
821.943	545.3
822.34	567.3
822.759	551.3
823.157	549.7
823.576	563.8
823.974	554.8
824.393	558.9
824.791	545.2
825.189	543.8
825.609	545.3
826.007	551.7
826.427	541.5
826.826	546.5
827.246	552.8
827.644	534.1
828.043	560.6
828.463	551.2
828.862	556
829.261	557.2
829.682	541.3
830.081	554.6
830.502	543
830.901	554.6
831.301	543.5
831.722	537
832.121	548.9
832.521	543.2
832.943	553.8
833.342	553.4
833.742	540.8
834.164	543.6
834.564	536.4
834.965	557
835.386	550.4
835.787	545.3
836.188	548.3
836.588	549.5
837.01	546.3
837.411	536.4
837.812	552
838.213	552.9
838.636	544.2
839.037	617.2
839.438	549.8
839.84	553.2
840.263	553.2
840.664	555.2
841.066	548.7
841.468	558.9
841.891	543.6
842.293	559.7
842.695	551.5
843.098	566.2
843.5	546.5
843.902	549.7
844.326	551.7
844.729	553.4
845.131	563.8
845.534	549.1
845.937	563.3
846.34	563.4
846.764	543.6
847.167	551.6
847.571	538.3
