#lambda/nm	C1
208.295	471.2
208.67	436.1
209.045	405.1
209.419	406.1
209.794	566.7
210.169	545.7
210.544	658.1
210.919	567
211.295	556.7
211.67	561.6
212.045	552.7
212.421	560.9
212.796	588
213.172	554.1
213.547	556.6
213.923	558
214.299	554.4
214.675	569.2
215.051	560.3
215.427	566.3
215.803	574
216.179	559.9
216.555	555.9
216.932	566.7
217.308	561.8
217.684	563.9
218.061	569.1
218.438	565.6
218.814	558.3
219.191	566.1
219.568	558.4
219.945	553.5
220.322	570.3
220.699	565.7
221.076	568.6
221.453	566.2
221.83	556.4
222.208	558.6
222.585	556.2
222.962	563.8
223.34	567.5
223.717	565.3
224.095	554.7
224.473	564
224.851	557
225.229	551.5
225.607	579.9
225.985	551.5
226.363	566.7
226.741	562.8
227.119	559.9
227.497	578.1
227.876	551.8
228.254	569.2
228.633	570
229.011	562.5
229.39	568.5
229.769	560.7
230.148	571.2
230.527	578.4
230.905	562.4
231.284	567
231.664	557.9
232.043	577.7
232.422	567.9
232.801	556.8
233.181	562
233.56	556.3
233.94	562.2
234.319	553.2
234.699	555.5
235.079	590.5
235.458	598.6
235.838	575.9
236.218	553.8
236.598	547.7
236.978	555.9
237.358	551.4
237.738	552
238.119	564.8
238.499	549.1
238.88	558.2
239.26	573.4
239.641	551.9
240.021	557.3
240.402	560.5
240.783	556.5
241.163	565.4
241.544	559.8
241.925	562.5
242.306	576.1
242.687	560.7
243.069	564.8
243.45	567.1
243.831	557.9
244.212	557.8
244.594	594.1
244.975	568.9
245.357	566.7
245.739	554.9
246.12	561.4
246.502	571.8
246.884	564.6
247.266	559.2
247.648	565.7
248.03	586.1
248.412	559.7
248.794	567.6
249.176	555.6
249.559	569.3
249.941	561.6
250.323	551.7
250.706	555.3
251.089	560.6
251.471	562.4
251.854	564.8
252.237	561.6
252.62	571.3
253.002	561.5
253.385	564.8
253.769	574.8
254.152	564.8
254.535	570.6
254.918	550.3
255.301	559.3
255.685	559.4
256.068	552.7
256.452	582.2
256.835	572.8
257.219	569.9
257.603	575.1
257.986	552.2
258.37	568.3
258.754	553.4
259.138	567.4
259.522	570.4
259.906	560.6
260.29	565.7
260.675	561.3
261.059	563.1
261.443	548.9
261.828	564.2
262.212	568.7
262.597	547.1
262.981	558.6
263.366	563.2
263.751	561.8
264.136	559.8
264.521	564.5
264.906	556.6
265.291	564.6
265.676	555.1
266.061	565.3
266.446	580.2
266.831	561.7
267.217	581.7
267.602	565.1
267.987	562.9
268.373	560.8
268.759	560.7
269.144	567.3
269.53	557.5
269.916	557.5
270.302	558.6
270.688	568
271.074	567.2
271.46	572.1
271.846	590.8
272.232	562.8
272.618	558.4
273.004	555.1
273.391	568.2
273.777	570.9
274.164	562
274.55	574.4
274.937	561.3
275.324	560.6
275.71	567.5
276.097	567.5
276.484	558.3
276.871	568.4
277.258	570.6
277.645	556.1
278.032	561
278.419	557.8
278.807	567
279.194	557.4
279.581	553.6
279.969	571
280.356	559.6
280.744	561.2
281.131	578.4
281.519	572.8
281.907	563.5
282.295	562.3
282.682	570.9
283.07	567
283.458	574.5
283.846	568.1
284.235	569.4
284.623	564.4
285.011	554.3
285.399	559.5
285.788	561.6
286.176	555.2
286.565	569.5
286.953	560.7
287.342	561.3
287.731	557.2
288.119	550.6
288.508	561.7
288.897	562.4
289.286	552
289.675	558.1
290.064	570.9
290.453	564.5
290.821	562
291.21	577.6
291.599	558
291.989	565
292.378	570.7
292.768	581.8
293.157	569.3
293.547	571.6
293.936	561.8
294.326	558.7
294.716	562.9
295.106	558.9
295.496	566.9
295.886	567.2
296.276	560.4
296.666	557.4
297.056	561
297.446	552.9
297.836	578.2
298.227	560.8
298.617	557.9
299.008	573.2
299.398	561.4
299.789	554.9
300.179	565.9
300.57	574.1
300.961	562.6
301.352	562.6
301.742	568.4
302.133	563.2
302.524	562.2
302.915	564.3
303.307	558.5
303.698	575.9
304.089	566.4
304.48	561.9
304.872	575.2
305.263	561.2
305.655	555.2
306.046	565.5
306.438	573.1
306.829	560.6
307.221	577.6
307.613	564.8
308.005	568.9
308.397	579
308.789	581.5
309.181	584.9
309.573	577.9
309.965	579.8
310.357	562.6
310.749	571.8
311.142	558.1
311.534	557.6
311.926	569.7
312.319	560.3
312.711	557.3
313.104	570.8
313.497	562.6
313.889	600.8
314.282	575.3
314.675	583.3
315.068	567.2
315.461	568.2
315.854	590.6
316.247	569.3
316.64	567.1
317.033	560.9
317.405	574.5
317.798	565.4
318.192	567
318.585	553.1
318.979	573.4
319.372	556.3
319.766	569.2
320.16	575.2
320.553	573.5
320.947	580.5
321.341	558.6
321.735	558.9
322.129	549
322.523	588.4
322.917	552.6
323.311	567.4
323.705	566.7
324.099	569.1
324.494	580.2
324.888	576.9
325.282	563
325.677	563.5
326.071	569
326.466	578.2
326.861	568.3
327.255	577.5
327.65	579.6
328.045	581.7
328.44	565.5
328.835	565.1
329.23	556
329.625	587.2
330.02	557.2
330.415	583.3
330.81	564.1
331.206	567.3
331.601	560.5
331.996	577.6
332.37	576.3
332.766	555.4
333.161	579.3
333.557	561.8
333.953	562.4
334.348	916.7
334.744	565
335.14	559.4
335.536	563.9
335.932	576.4
336.328	555.6
336.724	571.6
337.12	560.9
337.516	561.8
337.913	564.8
338.309	571.4
338.705	562.5
339.102	571.8
339.498	557.4
339.895	575.4
340.291	559.9
340.688	572.2
341.085	560.5
341.481	563.8
341.878	562.5
342.275	576.1
342.672	557
343.069	563.5
343.466	554.3
343.842	571.9
344.239	560.7
344.636	562.2
345.033	557
345.431	555.5
345.828	561.3
346.225	558.1
346.623	570.6
347.02	558.9
347.418	576.1
347.816	575.5
348.213	553.5
348.611	566.3
349.009	555.7
349.407	568.8
349.805	553.3
350.203	547.1
350.601	567.4
350.999	555.5
351.397	549.9
351.795	562.6
352.193	564.8
352.57	568.9
352.969	569.1
353.367	552.2
353.766	556.9
354.164	554.6
354.563	567.9
354.961	562.1
355.36	555.5
355.759	555.5
356.158	545.3
356.557	552.7
356.956	550
357.355	544.9
357.754	564.9
358.153	562.1
358.552	580
358.951	562
359.35	565.9
359.75	555.4
360.149	551.4
360.527	546.7
360.926	554.2
361.326	556.3
361.726	557.6
362.125	553
362.525	563.2
362.925	556.6
363.325	557.6
363.724	565.6
364.124	553.6
364.524	548.2
364.924	556.4
365.324	567
365.725	545
366.125	560.7
366.525	552
366.904	550.9
367.304	538.8
367.705	568.6
368.105	572.2
368.506	556.8
368.906	554.5
369.307	551.3
369.708	562.8
370.108	545.6
370.509	561.9
370.91	549.4
371.311	559.8
371.712	555.8
372.113	549.5
372.514	547
372.894	550.2
373.295	552.5
373.696	572.5
374.097	562.7
374.499	577.1
374.9	558.4
375.301	545.3
375.703	554.6
376.105	551.5
376.506	554.6
376.908	562.7
377.309	554.7
377.711	557.7
378.113	549.5
378.493	555.4
378.895	545
379.297	563.7
379.699	543.4
380.102	559.8
380.504	555.7
380.906	552.8
381.308	577.6
381.71	549.7
382.113	563.2
382.515	550.9
382.918	557.7
383.299	561.6
383.701	564.4
384.104	566
384.507	542.6
384.909	554.5
385.312	545.7
385.715	548.1
386.118	552.9
386.521	544.2
386.924	561.7
387.327	555.2
387.709	543.5
388.112	542.1
388.515	548.6
388.918	550.2
389.322	561.3
389.725	547.3
390.129	575.1
390.532	560.3
390.936	549.5
391.339	546.5
391.743	552.2
392.125	552.2
392.529	561.8
392.933	566.4
393.337	558.1
393.74	555.2
394.144	557.2
394.548	546
394.953	552.1
395.357	560.4
395.761	554.7
396.144	557.2
396.548	555.4
396.952	552.5
397.357	556.7
397.761	554.2
398.166	550.1
398.57	545.4
398.975	546.2
399.379	551.7
399.763	602.9
400.168	552.9
400.572	560.3
400.977	552.3
401.382	574.4
401.787	562.5
402.192	566.9
402.597	569.4
403.002	541.1
403.386	569.5
403.791	570.4
404.197	545.8
404.602	562.3
405.007	555.9
405.413	549.7
405.818	548.4
406.224	545.9
406.608	545.2
407.014	549.9
407.42	570
407.825	548.1
408.231	562.6
408.637	556.3
409.043	564.4
409.449	551.4
409.834	550.3
410.24	555.3
410.646	573.8
411.052	564.9
411.458	556.4
411.865	564.7
412.271	565.6
412.677	555.4
413.062	560
413.469	552.9
413.875	580.9
414.282	572.3
414.689	563.1
415.095	560.5
415.502	552
415.888	560.4
416.294	546.5
416.701	595
417.108	551.8
417.515	566.8
417.923	556.3
418.33	578.2
418.715	566.6
419.123	550.7
419.53	546.5
419.937	559.2
420.345	561.4
420.752	553.5
421.16	572.9
421.546	558.2
421.953	563.6
422.361	544.5
422.769	556.2
423.177	556.2
423.585	578.5
423.992	573.2
424.379	567.1
424.787	567.8
425.195	573.2
425.603	560
426.011	570.7
426.419	573.1
426.806	561.4
427.214	559.4
427.623	571.2
428.031	570.5
428.44	565
428.848	570.2
429.235	573.1
429.644	569.8
430.053	561.9
430.461	586.3
430.87	598
431.279	594
431.666	587.3
432.075	598.1
432.484	604.5
432.893	614.5
433.302	642.5
433.711	669.4
434.099	658.8
434.508	666.7
434.918	674.8
435.327	705.8
435.737	720.9
436.125	739.6
436.534	758.7
436.944	790.6
437.353	810.2
437.763	849.1
438.173	842
438.561	876.2
438.971	878.1
439.381	913.1
439.791	942.5
440.201	948.4
440.589	991.5
440.999	1012.6
441.409	1036.5
441.819	1044.2
442.23	1078.2
442.619	1099.3
443.029	1117.8
443.439	1136.1
443.85	1165.2
444.26	1188.1
444.649	1188.5
445.06	1192.4
445.471	1197.6
445.881	1219.8
446.292	1262.5
446.682	1280.1
447.092	1265.7
447.503	1339.8
447.914	1288.7
448.325	1310.1
448.715	1317.6
449.126	1324.5
449.537	1330.1
449.948	1337.2
450.338	1350.7
450.75	1358.5
451.161	1357.4
451.572	1369.2
451.984	1382.5
452.374	1370
452.786	1384.2
453.197	1404.4
453.609	1412.4
453.999	1408.7
454.411	1405.5
454.823	1436
455.235	1421.4
455.647	1428.7
456.037	1435.5
456.449	1416.5
456.862	1441
457.274	1451.5
457.665	1459.7
458.077	1451.7
458.489	1468
458.902	1452.8
459.293	1440
459.705	1452.1
460.118	1443.6
460.53	1453.7
460.921	1440.7
461.334	1434.2
461.747	1445.1
462.16	1448.1
462.551	1451.1
462.964	1442.3
463.377	1426.1
463.79	1433.5
464.182	1436.9
464.595	1422.3
465.008	1421.7
465.421	1422.4
465.813	1416
466.226	1425
466.64	1410.8
467.053	1454.9
467.445	1406.2
467.859	1401.2
468.272	1406.6
468.686	1413.5
469.078	1416.5
469.492	1396.2
469.906	1413
470.298	1408.1
470.712	1383
471.126	1415
471.54	1378.5
471.933	1386.7
472.347	1379
472.761	1378.8
473.175	1371
473.568	1385.8
473.982	1375.4
474.397	1368
474.79	1376.3
475.204	1369.8
475.619	1363.5
476.033	1361.3
476.426	1361.4
476.841	1331.4
477.256	1357.1
477.649	1321.7
478.064	1320.7
478.479	1315.1
478.872	1319.6
479.287	1304.9
479.702	1308.1
480.118	1314.2
480.511	1314.2
480.927	1293.7
481.342	1301.1
481.736	1295.9
482.151	1289.1
482.566	1294.4
482.96	1293.6
483.376	1285.5
483.792	1289.3
484.186	1287.9
484.602	1277.6
485.017	1281.3
485.412	1262.9
485.827	1273.5
486.243	1250.3
486.638	1279
487.054	1257.1
487.47	1257.2
487.865	1242.1
488.281	1241.3
488.697	1230.5
489.092	1225.3
489.508	1218.6
489.925	1234.6
490.32	1196
490.736	1208.5
491.153	1197.9
491.548	1201.3
491.964	1188.9
492.381	1172.1
492.776	1176.1
493.193	1170.2
493.61	1175.4
494.006	1170.1
494.422	1171
494.84	1149.8
495.235	1156
495.652	1141.9
496.069	1145.4
496.465	1123.5
496.883	1140.9
497.3	1154.8
497.696	1118
498.113	1128.3
498.509	1101.1
498.927	1089.6
499.344	1086.2
499.741	1082.7
500.158	1096.3
500.576	1090.8
500.973	1088.9
501.39	1063.1
501.787	1070.9
502.205	1065
502.623	1059.6
503.02	1035.3
503.438	1039.9
503.856	1042.8
504.253	1036.1
504.671	1042.2
505.068	1019.1
505.486	1019.9
505.905	1030.7
506.302	1019.6
506.72	1026.5
507.118	993
507.536	998.6
507.955	992.9
508.352	1003.6
508.771	991.4
509.169	986.3
509.587	970.3
510.006	975.4
510.404	959.8
510.823	963
511.221	956.2
511.64	955.3
512.038	954.1
512.457	944.5
512.877	948.9
513.275	939.7
513.694	935.2
514.092	937.2
514.512	926
514.91	919.9
515.33	920.4
515.749	908.9
516.148	916.4
516.568	923.7
516.966	904.8
517.386	900.7
517.785	904.4
518.205	890.4
518.603	889.6
519.024	884.8
519.444	878.8
519.843	882.5
520.263	878
520.662	876.3
521.082	866.2
521.481	869.6
521.902	867.9
522.301	865.5
522.722	857
523.121	853.6
523.542	843.7
523.963	840.4
524.362	837.1
524.783	827.8
525.183	826.4
525.604	829.2
526.003	814.6
526.425	817.3
526.824	818.2
527.246	814.4
527.646	824.7
528.067	810.1
528.467	818.8
528.888	810.4
529.289	795.2
529.71	791.6
530.11	791
530.532	797.4
530.932	777.4
531.354	777.2
531.755	814.3
532.176	783.8
532.577	775.5
532.999	772.1
533.4	761.4
533.822	774.9
534.223	758.7
534.645	763.5
535.046	758.5
535.468	760.8
535.869	771.2
536.292	748.9
536.693	750.1
537.115	755.7
537.516	741.7
537.939	754.2
538.34	767.8
538.742	762
539.165	743.5
539.566	736.8
539.989	735.2
540.391	739.4
540.814	739.1
541.216	734.3
541.639	732.5
542.041	743.9
542.464	719.9
542.866	719.5
543.268	718.1
543.691	729
544.093	726.5
544.517	742.1
544.919	710.7
545.343	735
545.745	709.9
546.147	713.3
546.571	698.9
546.974	703
547.398	710.8
547.8	718.9
548.224	696.7
548.627	690.8
549.03	706.7
549.454	684.8
549.857	679.7
550.281	683.5
550.684	682.4
551.087	700.8
551.512	688.9
551.915	695
552.34	684.4
552.743	678.1
553.146	682.1
553.571	682.9
553.975	692
554.399	668.5
554.803	709.4
555.207	668.2
555.632	662.5
556.036	672.7
556.461	660.1
556.865	667
557.268	654.9
557.694	657.8
558.098	670.4
558.502	660.9
558.927	656.4
559.332	648.8
559.736	649.8
560.162	650.4
560.566	651.8
560.992	656.9
561.396	656.8
561.801	645.9
562.227	647.6
562.631	646.5
563.036	643.8
563.462	650.1
563.867	641.5
564.272	638.3
564.698	642.8
565.103	630
565.508	651.6
565.935	637.1
566.34	628.7
566.745	644.1
567.172	631.8
567.577	649.6
567.982	639.1
568.409	631.7
568.815	619.5
569.22	628
569.626	632.9
570.053	610.4
570.459	619.6
570.865	633.9
571.292	629.2
571.698	621.7
572.104	612.7
572.531	621.5
572.937	626.5
573.343	621.8
573.75	611.3
574.177	617.9
574.583	619.6
574.99	614.3
575.396	618.9
575.824	606.4
576.231	613.9
576.637	605.1
577.065	631.3
577.472	605.5
577.879	606.4
578.286	625.1
578.714	604
579.121	599.2
579.528	608.4
579.935	613
580.364	599.9
580.771	591.2
581.178	593.9
581.585	604.4
582.014	610.2
582.421	596.7
582.829	595.1
583.236	599.7
583.644	593.3
584.073	595.1
584.481	594.9
584.889	588
585.296	602.1
585.726	598.4
586.134	589.5
586.542	587.5
586.95	605.7
587.358	583.3
587.787	592.8
588.196	583.9
588.604	587.2
589.012	587.9
589.421	584.9
589.851	577.9
590.259	588.7
590.668	581.4
591.076	617
591.485	582.2
591.894	577.5
592.324	589.4
592.733	593.9
593.142	571.3
593.551	579.1
593.96	609.8
594.369	569.7
594.8	570
595.209	570.6
595.618	559.5
596.028	567.5
596.437	563.2
596.847	572.6
597.256	574.8
597.687	573.7
598.097	573.8
598.507	562.1
598.917	571.3
599.327	574.9
599.736	579
600.146	576.5
600.556	573.2
600.988	581.5
601.398	567.5
601.808	572.6
602.219	559.1
602.629	566.3
603.039	566
603.45	587.1
603.86	565.4
604.271	573.8
604.703	565.8
605.114	562.3
605.525	560.7
605.935	567.8
606.346	576.9
606.757	568.4
607.168	560
607.579	558.1
607.99	568.7
608.402	556.2
608.813	565.2
609.224	553.3
609.636	555
610.047	552.4
610.48	553.8
610.892	566.2
611.303	568.1
611.715	557.4
612.127	548.1
612.539	556.4
612.95	564.5
613.362	550.9
613.774	554.8
614.186	558.6
614.599	556.6
615.011	571.7
615.423	550.1
615.835	552.2
616.248	556.9
616.66	560
617.073	549.4
617.485	558.7
617.898	562.5
618.311	556.6
618.723	550
619.136	579.2
619.549	563.6
619.962	573.6
620.375	556.5
620.788	556.2
621.201	549.2
621.614	554.8
622.028	554.1
622.441	561.1
622.854	570
623.268	552
623.681	555.3
624.095	553.3
624.509	560.2
624.922	557.1
625.336	545.6
625.728	554.2
626.142	557.6
626.556	569.3
626.97	554.4
627.384	546
627.799	549.3
628.213	561.4
628.627	551
629.041	549
629.456	549.2
629.87	548.7
630.285	560.7
630.699	556.2
631.093	550
631.507	553
631.922	557.7
632.337	565.5
632.752	545.2
633.167	552.9
633.582	544.2
633.997	547.6
634.412	543
634.806	554
635.221	539.6
635.637	555.8
636.052	541.8
636.468	551
636.883	561.6
637.299	540.2
637.715	535.3
638.109	546.7
638.525	535.6
638.941	560.1
639.357	548.9
639.773	560.3
640.189	539.9
640.584	549.4
641	550.2
641.416	537.7
641.832	545.9
642.249	543.6
642.665	541.7
643.06	553.1
643.477	555.1
643.894	533.2
644.31	547
644.727	544.3
645.123	541.5
645.54	539.8
645.957	546.9
646.374	550.6
646.77	545.2
647.187	571.5
647.604	543.3
648.021	530.7
648.439	538.1
648.835	547.7
649.252	548
649.67	549.4
650.088	546.4
650.484	544.3
650.902	547.1
651.32	552.8
651.738	538.4
652.134	541.3
652.552	560.9
652.971	547.2
653.389	540.9
653.786	554.4
654.204	546.9
654.622	535.8
655.019	542.8
655.438	546
655.857	547.1
656.275	543.3
656.673	531.6
657.091	602.5
657.51	540.2
657.908	544.5
658.327	561.6
658.746	533.2
659.144	543.8
659.563	552.9
659.982	540.9
660.38	533
660.8	548.3
661.219	552.3
661.617	543.9
662.037	539.4
662.457	550.6
662.855	530.5
663.275	564.6
663.695	545
664.094	534.4
664.514	543.6
664.934	536.7
665.333	548.2
665.753	539
666.152	528.7
666.572	529.7
666.993	551.6
667.392	534.3
667.812	536.2
668.212	536.5
668.632	548.6
669.053	542.5
669.453	543.8
669.874	542.5
670.273	537.7
670.694	538.1
671.116	550.6
671.515	549.4
671.937	534.9
672.337	537
672.758	532.7
673.158	545.6
673.58	532.8
673.98	540.6
674.402	549.7
674.824	536.6
675.224	534.3
675.646	534.2
676.047	533.2
676.469	537.1
676.869	542.8
677.292	539.2
677.693	530.4
678.115	534.9
678.516	544.5
678.939	540.6
679.34	534
679.762	546.2
680.164	537.9
680.586	531.7
680.988	544.9
681.411	558.1
681.812	531.4
682.236	532.2
682.637	533.4
683.061	529
683.462	537.5
683.864	529.6
684.288	548.1
684.69	533.9
685.114	549.4
685.516	543.5
685.94	527.9
686.342	543.8
686.766	536.4
687.168	532.1
687.571	548.6
687.995	542.2
688.398	528.5
688.822	532.1
689.225	546.6
689.628	547.5
690.052	532.8
690.456	542.1
690.88	531.5
691.284	525.3
691.687	541.7
692.112	528.7
692.515	529.1
692.919	532.8
693.344	537
693.747	536.2
694.173	531.5
694.577	540.6
694.98	536.9
695.406	530.3
695.81	535.6
696.214	538.3
696.64	537.7
697.044	538.5
697.448	544.6
697.874	532.3
698.279	535.1
698.684	530
699.11	533.7
699.514	532.8
699.919	534.7
700.324	531.5
700.75	542.2
701.156	536.2
701.561	544.2
701.987	534.2
702.393	540.6
702.798	545.1
703.203	542.8
703.63	536.4
704.036	527.5
704.442	539.7
704.847	527.6
705.274	532.8
705.68	539.2
706.086	541.2
706.492	527.9
706.92	537
707.326	539
707.732	528.2
708.139	527.9
708.545	523.8
708.973	533.4
709.38	534.8
709.786	523.6
710.193	547.6
710.6	535.6
711.028	528.5
711.435	534.2
711.842	532.2
712.249	531.3
712.656	531
713.064	541.5
713.492	526.3
713.9	526.4
714.307	530.9
714.715	532.4
715.123	534.4
715.53	530
715.938	540.4
716.367	532.4
716.775	528.9
717.184	525
717.592	530.1
718	537.3
718.408	567.4
718.816	571.5
719.225	544.8
719.633	535.6
720.042	526.4
720.472	535.2
720.881	551.1
721.29	536.9
721.699	531.7
722.108	534.6
722.517	541.2
722.926	532.1
723.335	544.1
723.744	530
724.154	532.3
724.563	536
724.973	537.1
725.382	527.4
725.792	531.9
726.202	527.8
726.612	542.3
727.022	531
727.432	526.6
779.813	532.3
780.223	577.2
780.634	532.3
781.044	528.3
781.454	537.3
781.865	545.1
782.276	522.3
782.686	539.2
783.097	535.5
783.508	526.9
783.919	539.6
784.33	543
784.741	541.9
785.152	526.6
785.563	519.5
785.974	527.6
786.386	537.9
786.776	532.5
787.188	532.4
787.599	523.2
788.011	535.7
788.423	536.7
788.835	532.1
789.247	530.5
789.659	532.1
790.071	530.4
790.483	567.5
790.874	525.6
791.286	536.6
791.699	526
792.111	529.8
792.524	534
792.937	528.5
793.349	523.2
793.741	524.8
794.154	528.3
794.567	542.3
794.98	529.8
795.393	518.9
795.785	539.5
796.198	525.9
796.612	531.5
797.026	527.8
797.439	516.1
797.831	530.7
798.245	521.6
798.659	526.7
799.073	518.5
799.487	529.3
799.88	535.7
800.294	530.4
800.708	529.3
801.123	529.6
801.516	548.4
801.93	516.6
802.345	517.7
802.76	530
803.153	537.9
803.568	543.1
803.983	539.8
804.377	533.7
804.792	520.1
805.207	514.1
805.601	529.9
806.016	561.5
806.432	528.3
806.826	557.7
807.242	540.6
807.658	531.8
808.052	527.6
808.468	523.2
808.884	524.8
809.279	538.5
809.695	542.6
810.111	551.9
810.506	532.6
810.922	545.2
811.339	521
811.734	537.5
812.151	528.8
812.546	527.9
812.963	528.1
813.38	536.5
813.776	532.8
814.193	545.5
814.589	524.2
815.006	529.1
815.402	524.8
815.82	528.3
816.237	534
816.633	536.5
817.051	518.4
817.448	533.8
817.866	522.7
818.262	548.8
818.68	525.7
819.077	522.4
819.495	529
819.892	561.2
820.311	523.9
820.708	526.7
821.127	528.7
821.524	535.8
821.943	531.2
822.34	548
822.759	534.5
823.157	529.9
823.576	543.5
823.974	531.4
824.393	540.1
824.791	522.9
825.189	522.5
825.609	529.3
826.007	530.6
826.427	521.2
826.826	524.9
827.246	528.3
827.644	512.2
828.043	538.1
828.463	526.7
828.862	532.9
829.261	536.5
829.682	518.6
830.081	538.3
830.502	521.2
830.901	531.7
831.301	520.3
831.722	519.7
832.121	530.3
832.521	528.4
832.943	525.6
833.342	527.6
833.742	516
834.164	529
834.564	513.5
834.965	524.4
835.386	527
835.787	528.9
836.188	525.1
836.588	526.1
837.01	523.5
837.411	522.3
837.812	526.3
838.213	526.6
838.636	521.2
839.037	591.5
839.438	531.5
839.84	533.5
840.263	536.5
840.664	527
841.066	528
841.468	531.4
841.891	529
842.293	536.4
842.695	535.5
