#lambda/nm	C1
208.295	467.9
208.67	435.4
209.045	399.3
209.419	406.1
209.794	589.3
210.169	564.8
210.544	685.4
210.919	584.3
211.295	570.5
211.67	580.8
212.045	580.8
212.421	580.4
212.796	619
213.172	571.6
213.547	572.1
213.923	575
214.299	579.2
214.675	587.8
215.051	577.5
215.427	585.7
215.803	598.6
216.179	582.5
216.555	579.3
216.932	589.9
217.308	580.6
217.684	578.1
218.061	584.6
218.438	579.4
218.814	573.6
219.191	588.3
219.568	572.1
219.945	577.6
220.322	588.9
220.699	585.6
221.076	586
221.453	589.7
221.83	574.6
222.208	576.3
222.585	575.9
222.962	583.5
223.34	587.4
223.717	581.6
224.095	579.9
224.473	581.2
224.851	573.8
225.229	570.1
225.607	590.3
225.985	568.3
226.363	576.7
226.741	579.6
227.119	584.9
227.497	596.5
227.876	563.7
228.254	584
228.633	586.5
229.011	580.6
229.39	586.2
229.769	579.4
230.148	589.4
230.527	599
230.905	578
231.284	576.6
231.664	577.5
232.043	588.7
232.422	584
232.801	580.7
233.181	589.6
233.56	576.1
233.94	580.3
234.319	569.7
234.699	580.6
235.079	623.3
235.458	615.3
235.838	595.1
236.218	574.3
236.598	568.5
236.978	573
237.358	576.8
237.738	572.3
238.119	586.1
238.499	572.1
238.88	583.6
239.26	597.8
239.641	571.6
240.021	580.8
240.402	580.5
240.783	574.9
241.163	584
241.544	583.1
241.925	582.7
242.306	596.5
242.687	577.4
243.069	581.8
243.45	584.7
243.831	579.1
244.212	576.9
244.594	619.5
244.975	594.3
245.357	582.4
245.739	573.3
246.12	581.4
246.502	593.7
246.884	583
247.266	578.4
247.648	584.3
248.03	606.1
248.412	583.8
248.794	588.5
249.176	575.2
249.559	582.1
249.941	572.6
250.323	574.1
250.706	573.5
251.089	580.5
251.471	576.9
251.854	581.4
252.237	585.1
252.62	589.8
253.002	578.1
253.385	579.5
253.769	592.4
254.152	580.4
254.535	591.6
254.918	571.6
255.301	577.4
255.685	579
256.068	575.2
256.452	601.7
256.835	590.2
257.219	591
257.603	587.1
257.986	569.2
258.37	584.5
258.754	569.3
259.138	583.2
259.522	592.8
259.906	578.4
260.29	587.6
260.675	577.7
261.059	582.1
261.443	574.1
261.828	588.6
262.212	589.4
262.597	568
262.981	584.1
263.366	589.3
263.751	581.5
264.136	577.3
264.521	580.2
264.906	575.3
265.291	591.7
265.676	582.2
266.061	587.9
266.446	599.6
266.831	579.7
267.217	603.4
267.602	581.8
267.987	583.7
268.373	575.8
268.759	594.7
269.144	582.6
269.53	576.9
269.916	583.6
270.302	576.6
270.688	584.9
271.074	585
271.46	588.3
271.846	605.1
272.232	582.1
272.618	577.1
273.004	577
273.391	590.2
273.777	590.5
274.164	584.4
274.55	597.9
274.937	585.3
275.324	575.8
275.71	587.8
276.097	588.6
276.484	572.6
276.871	581.4
277.258	586.2
277.645	572.8
278.032	583.6
278.419	575.3
278.807	586
279.194	575.2
279.581	572.1
279.969	587.5
280.356	577.1
280.744	580.3
281.131	610.1
281.519	587.2
281.907	580.5
282.295	580.6
282.682	589.3
283.07	586.1
283.458	590.4
283.846	594.8
284.235	595.1
284.623	587.9
285.011	574.3
285.399	584.1
285.788	576.9
286.176	572.3
286.565	587.3
286.953	577
287.342	576.9
287.731	577.9
288.119	574
288.508	575.5
288.897	582.7
289.286	568.6
289.675	583.5
290.064	589.1
290.453	580.9
290.821	582.7
291.21	596.4
291.599	575.9
291.989	582.6
292.378	593.2
292.768	597.9
293.157	586.6
293.547	594.4
293.936	576.2
294.326	575.9
294.716	591.8
295.106	580.9
295.496	592.7
295.886	586.4
296.276	582.3
296.666	577.4
297.056	572.2
297.446	573.2
297.836	604.9
298.227	579.8
298.617	579.7
299.008	598.7
299.398	584.1
299.789	580.3
300.179	584.4
300.57	598.3
300.961	572.9
301.352	578.3
301.742	595.6
302.133	585.9
302.524	576.1
302.915	583.4
303.307	578.2
303.698	586.6
304.089	583.3
304.48	579
304.872	588
305.263	581.8
305.655	574.8
306.046	585.4
306.438	584.8
306.829	576.3
307.221	600.3
307.613	583.1
308.005	587.2
308.397	596.5
308.789	596.5
309.181	609.1
309.573	598.2
309.965	592
310.357	582.2
310.749	582.4
311.142	578.6
311.534	572.8
311.926	586.7
312.319	587
312.711	574
313.104	590.1
313.497	579
313.889	619.8
314.282	602
314.675	606.6
315.068	590.3
315.461	590
315.854	614.7
316.247	588.9
316.64	580.9
317.033	580.8
317.405	592.7
317.798	579.6
318.192	589.6
318.585	575.9
318.979	585.5
319.372	576.1
319.766	582.9
320.16	589.9
320.553	593.1
320.947	596
321.341	580.8
321.735	580.9
322.129	565.3
322.523	598.7
322.917	565.4
323.311	582
323.705	585.5
324.099	580.1
324.494	597.9
324.888	589.8
325.282	585.2
325.677	586.6
326.071	585.1
326.466	589.5
326.861	586
327.255	595
327.65	592
328.045	593.9
328.44	588.3
328.835	582.7
329.23	577.9
329.625	602.4
330.02	579.6
330.415	606
330.81	586.5
331.206	587.6
331.601	580.1
331.996	592.9
332.37	592.9
332.766	575.3
333.161	608.4
333.557	583.1
333.953	580.9
334.348	909.8
334.744	583
335.14	580.6
335.536	580.7
335.932	598.3
336.328	582
336.724	591.2
337.12	590.3
337.516	591
337.913	578.6
338.309	597.1
338.705	583.8
339.102	597.8
339.498	580.9
339.895	594
340.291	573.9
340.688	589
341.085	572.9
341.481	584
341.878	581.4
342.275	599.8
342.672	570.6
343.069	580.1
343.466	570.5
343.842	595.2
344.239	572.3
344.636	584.3
345.033	575.1
345.431	572.3
345.828	584.7
346.225	577.3
346.623	591.3
347.02	585.7
347.418	591.2
347.816	598.2
348.213	573.5
348.611	577.8
349.009	579.6
349.407	594.2
349.805	571.5
350.203	568.3
350.601	589.2
350.999	578.2
351.397	569.3
351.795	580.5
352.193	586.8
352.57	590.2
352.969	589
353.367	569.7
353.766	574.9
354.164	573.2
354.563	593
354.961	577.4
355.36	570.9
355.759	580.3
356.158	568.8
356.557	575.8
356.956	569.8
357.355	565.7
357.754	577.2
358.153	585
358.552	603
358.951	579.3
359.35	583.1
359.75	576.3
360.149	567.9
360.527	570.7
360.926	571.4
361.326	575.3
361.726	575.1
362.125	570.5
362.525	582.8
362.925	579.7
363.325	582.1
363.724	576.6
364.124	573.4
364.524	568.8
364.924	577.1
365.324	589.4
365.725	561.1
366.125	580.1
366.525	571.1
366.904	568.4
367.304	563.1
367.705	590.7
368.105	587
368.506	574.9
368.906	577.9
369.307	573.1
369.708	584.7
370.108	562.6
370.509	581.2
370.91	574.8
371.311	576.5
371.712	574
372.113	575.1
372.514	568.6
372.894	564.7
373.295	571.5
373.696	583.4
374.097	580.8
374.499	599.3
374.9	572
375.301	566.3
375.703	573.1
376.105	569.1
376.506	579.3
376.908	580.8
377.309	576.5
377.711	576.2
378.113	568.6
378.493	570.8
378.895	569.1
379.297	583.7
379.699	566
380.102	577.5
380.504	573.1
380.906	572.8
381.308	594.7
381.71	566.2
382.113	580.2
382.515	571.4
382.918	576.5
383.299	575.1
383.701	580.5
384.104	576.1
384.507	553.9
384.909	567.8
385.312	555.9
385.715	563.8
386.118	569.1
386.521	561.3
386.924	582.5
387.327	566.6
387.709	565.5
388.112	562
388.515	575.1
388.918	577.6
389.322	569.7
389.725	569.6
390.129	594
390.532	581.2
390.936	575.9
391.339	566.3
391.743	579.4
392.125	570.5
392.529	582.9
392.933	587.2
393.337	578.7
393.74	572.7
394.144	571.1
394.548	567.4
394.953	566.2
395.357	579.5
395.761	567.5
396.144	571.7
396.548	568.9
396.952	572.6
397.357	576.1
397.761	565.9
398.166	569.8
398.57	575.5
398.975	568.8
399.379	573.7
399.763	619.9
400.168	575
400.572	571.4
400.977	568.3
401.382	585.5
401.787	579.3
402.192	591.8
402.597	586.9
403.002	565.5
403.386	587.3
403.791	592.9
404.197	564.4
404.602	574.1
405.007	571
405.413	571
405.818	568
406.224	563.7
406.608	569.7
407.014	565.9
407.42	591.8
407.825	569.1
408.231	585.2
408.637	576.9
409.043	587.6
409.449	565.8
409.834	565.5
410.24	573.8
410.646	585
411.052	584.5
411.458	576.9
411.865	581.2
412.271	584.9
412.677	573
413.062	577
413.469	571.1
413.875	601.9
414.282	587.1
414.689	579.1
415.095	587.8
415.502	572.9
415.888	574.9
416.294	558.5
416.701	608.8
417.108	566.5
417.515	579.1
417.923	571.3
418.33	589.9
418.715	584.3
419.123	572
419.53	573.3
419.937	576.6
420.345	589.3
420.752	569.2
421.16	588.6
421.546	575.6
421.953	582.6
422.361	567.5
422.769	575.8
423.177	566.3
423.585	602.3
423.992	597.5
424.379	585.6
424.787	585.9
425.195	594.5
425.603	576.8
426.011	589.1
426.419	592.7
426.806	577.6
427.214	581.5
427.623	586
428.031	591.9
428.44	577.1
428.848	590
429.235	591.9
429.644	580
430.053	580.6
430.461	593.7
430.87	601.7
431.279	596.5
431.666	575.9
432.075	588.7
432.484	590.9
432.893	588.8
433.302	609.8
433.711	638.5
434.099	606.9
434.508	599.9
434.918	607.2
435.327	624.2
435.737	625.6
436.125	637.3
436.534	641.7
436.944	654.3
437.353	667.2
437.763	688.9
438.173	665
438.561	693.9
438.971	691.9
439.381	707.3
439.791	721.4
440.201	710.4
440.589	748.5
440.999	757.7
441.409	766
441.819	763.7
442.23	784.9
442.619	790.2
443.029	801.6
443.439	813.8
443.85	829.6
444.26	839.5
444.649	847
445.06	854.8
445.471	849.9
445.881	864.4
446.292	878.9
446.682	902
447.092	872.7
447.503	937.8
447.914	902.3
448.325	897.7
448.715	908.1
449.126	904
449.537	913.3
449.948	926
450.338	931.4
450.75	940
451.161	940.6
451.572	957.2
451.984	949
452.374	937.8
452.786	959.3
453.197	957.8
453.609	962.3
453.999	949
454.411	956.2
454.823	973.8
455.235	981.9
455.647	975.4
456.037	969
456.449	953.3
456.862	969.1
457.274	976.3
457.665	970.2
458.077	978.4
458.489	987.2
458.902	976.2
459.293	983.9
459.705	982.6
460.118	972.3
460.53	990.9
460.921	992.4
461.334	990.9
461.747	993.1
462.16	1004.3
462.551	1002.4
462.964	1000.4
463.377	976.1
463.79	988
464.182	998.8
464.595	980.3
465.008	987.1
465.421	992.5
465.813	995.9
466.226	995.1
466.64	985.1
467.053	1026.9
467.445	991.6
467.859	974
468.272	983.5
468.686	991
469.078	976.8
469.492	977.8
469.906	976
470.298	980.1
470.712	965.3
471.126	996.6
471.54	962
471.933	972.3
472.347	968.7
472.761	966.2
473.175	959.2
473.568	958.1
473.982	955.1
474.397	969.7
474.79	965.1
475.204	964.2
475.619	954.8
476.033	960.2
476.426	961.6
476.841	944.2
477.256	981.9
477.649	935.1
478.064	941.9
478.479	938.5
478.872	945.3
479.287	927.7
479.702	936.5
480.118	942.8
480.511	942
480.927	935.2
481.342	928.3
481.736	933.7
482.151	923.8
482.566	936.1
482.96	929.6
483.376	933.4
483.792	913.6
484.186	922.9
484.602	920.6
485.017	919.7
485.412	916.6
485.827	921.4
486.243	914.2
486.638	937.3
487.054	917.2
487.47	927.7
487.865	900.1
488.281	905.8
488.697	892.9
489.092	897.6
489.508	887.7
489.925	903.7
490.32	880.7
490.736	882.1
491.153	894.3
491.548	886.4
491.964	890.4
492.381	865.1
492.776	883.8
493.193	886.7
493.61	882.6
494.006	872.6
494.422	882.7
494.84	866.4
495.235	884.6
495.652	858.8
496.069	856.9
496.465	851.2
496.883	856.2
497.3	881
497.696	853.5
498.113	859.3
498.509	836.8
498.927	835.2
499.344	834.9
499.741	831
500.158	844.3
500.576	848.2
500.973	840.8
501.39	825.4
501.787	828.9
502.205	837.4
502.623	822.7
503.02	816.3
503.438	810.2
503.856	814.9
504.253	820.4
504.671	817.6
505.068	814.4
505.486	807.8
505.905	827.8
506.302	802.7
506.72	812.5
507.118	787.4
507.536	795.8
507.955	792.7
508.352	806.8
508.771	798.7
509.169	801.4
509.587	778.4
510.006	791.6
510.404	773
510.823	776.8
511.221	769.4
511.64	772.8
512.038	784.4
512.457	764.6
512.877	769.2
513.275	763.1
513.694	763.4
514.092	754.9
514.512	765.1
514.91	758.3
515.33	756
515.749	759.2
516.148	754.7
516.568	748.7
516.966	745.5
517.386	743.4
517.785	748.1
518.205	740.6
518.603	741.3
519.024	740.6
519.444	744.8
519.843	744.6
520.263	739.4
520.662	739.8
521.082	729.6
521.481	735.3
521.902	726.7
522.301	728.8
522.722	723.8
523.121	721.5
523.542	717
523.963	721.8
524.362	720.2
524.783	720.9
525.183	714.1
525.604	717.4
526.003	710.9
526.425	704.5
526.824	718.2
527.246	719.5
527.646	718.8
528.067	706.9
528.467	703.7
528.888	698.9
529.289	697.1
529.71	702.6
530.11	700.3
530.532	691.2
530.932	684
531.354	684
531.755	720.2
532.176	689.9
532.577	687.7
532.999	686.4
533.4	682.2
533.822	688.3
534.223	681.4
534.645	680.5
535.046	672.2
535.468	680.4
535.869	691.4
536.292	664.2
536.693	670.9
537.115	671.4
537.516	662.2
537.939	664
538.34	692.6
538.742	673.4
539.165	666.9
539.566	669.2
539.989	663.9
540.391	661.6
540.814	666.3
541.216	667.7
541.639	663.1
542.041	667.5
542.464	660
542.866	659.7
543.268	654.8
543.691	657.9
544.093	661.5
544.517	670.1
544.919	645.2
545.343	674
545.745	653.6
546.147	654.4
546.571	643.3
546.974	642.3
547.398	658.3
547.8	661
548.224	643.8
548.627	639.8
549.03	654.9
549.454	643.5
549.857	632.4
550.281	633.7
550.684	632.9
551.087	654.6
551.512	642.8
551.915	645.2
552.34	640.8
552.743	633.1
553.146	636.5
553.571	637.3
553.975	648.2
554.399	625.1
554.803	682.3
555.207	628.3
555.632	626.2
556.036	630.7
556.461	613.4
556.865	628.3
557.268	620.1
557.694	626
558.098	628.4
558.502	631.5
558.927	621.2
559.332	618.9
559.736	621.2
560.162	631
560.566	616.6
560.992	623.1
561.396	617.3
561.801	612.5
562.227	614.6
562.631	615.7
563.036	619
563.462	623.2
563.867	612.5
564.272	599
564.698	615.4
565.103	605
565.508	621.9
565.935	617.1
566.34	613.3
566.745	618.7
567.172	608.4
567.577	628.4
567.982	620.1
568.409	614.2
568.815	604.3
569.22	606.9
569.626	610.6
570.053	591.5
570.459	613.1
570.865	606.6
571.292	609.2
571.698	611.1
572.104	587.4
572.531	594.8
572.937	609.7
573.343	602.6
573.75	594.2
574.177	600.1
574.583	606
574.99	595.8
575.396	606.1
575.824	592.9
576.231	602.1
576.637	594.4
577.065	624.3
577.472	590.6
577.879	594.3
578.286	606.6
578.714	588.6
579.121	596.2
579.528	599.7
579.935	600
580.364	590.6
580.771	577.5
581.178	589.4
581.585	592.1
582.014	600.4
582.421	590.3
582.829	587.4
583.236	597.6
583.644	587.2
584.073	592.8
584.481	591.4
584.889	585
585.296	587.1
585.726	587.4
586.134	578.4
586.542	579.3
586.95	607.4
587.358	576.9
587.787	587.2
588.196	575.1
588.604	582.4
589.012	583.9
589.421	570.6
589.851	572.8
590.259	587.8
590.668	581.2
591.076	617.4
591.485	577.6
591.894	578.3
592.324	593.6
592.733	586.5
593.142	565.6
593.551	577.7
593.96	613.9
594.369	567.8
594.8	572.8
595.209	574.4
595.618	563.3
596.028	571.4
596.437	570.4
596.847	575.6
597.256	582.6
597.687	584.3
598.097	573.3
598.507	563.8
598.917	584.3
599.327	589.5
599.736	585.1
600.146	584
600.556	575.3
600.988	579.2
601.398	577.5
601.808	583.8
602.219	558.7
602.629	576.8
603.039	573.6
603.45	604.8
603.86	576.3
604.271	588.5
604.703	574.7
605.114	568.7
605.525	569.1
605.935	572
606.346	588.5
606.757	576.2
607.168	569.8
607.579	566.5
607.99	578.2
608.402	569.7
608.813	572.2
609.224	570.6
609.636	557.9
610.047	558.2
610.48	574.4
610.892	573.3
611.303	574.7
611.715	559.5
612.127	560.8
612.539	562.1
612.95	570.1
613.362	558
613.774	557.4
614.186	559.9
614.599	562.2
615.011	569.7
615.423	559.1
615.835	563
616.248	559.1
616.66	571.9
617.073	555.3
617.485	562.4
617.898	575.5
618.311	569.7
618.723	565.9
619.136	599.4
619.549	577.2
619.962	586.6
620.375	565.2
620.788	573.2
621.201	559.5
621.614	570.3
622.028	558.4
622.441	571.3
622.854	579.8
623.268	564
623.681	569.9
624.095	566.8
624.509	571.1
624.922	574.1
625.336	552.2
625.728	567.1
626.142	575.9
626.556	584
626.97	571.1
627.384	556.4
627.799	566.5
628.213	575.9
628.627	564
629.041	563.1
629.456	570.8
629.87	566.9
630.285	571.5
630.699	574.2
631.093	564.7
631.507	570.9
631.922	572.3
632.337	573
632.752	552.6
633.167	564.4
633.582	560.2
633.997	558
634.412	554.8
634.806	558.9
635.221	553.6
635.637	566.5
636.052	547.8
636.468	562.7
636.883	580.2
637.299	564.4
637.715	549.1
638.109	556.9
638.525	553.4
638.941	578
639.357	562.6
639.773	570.5
640.189	557.6
640.584	563.1
641	558.2
641.416	549.6
641.832	561.1
642.249	561.4
642.665	556.1
643.06	565.4
643.477	570.5
643.894	547.1
644.31	559.8
644.727	556.1
645.123	560.4
645.54	558
645.957	558.4
646.374	566.8
646.77	559.9
647.187	588.2
647.604	563.1
648.021	540.8
648.439	556
648.835	551.3
649.252	561.8
649.67	551.7
650.088	557.2
650.484	563.6
650.902	563.6
651.32	563.3
651.738	552.1
652.134	559.2
652.552	572.6
652.971	567
653.389	556.3
653.786	580.2
654.204	556.5
654.622	557
655.019	555.9
655.438	565.6
655.857	558.2
656.275	556.4
656.673	551.1
657.091	624.6
657.51	552.6
657.908	564.1
658.327	573
658.746	550.8
659.144	556
659.563	567.9
659.982	558.7
660.38	550.5
660.8	564.6
661.219	569.7
661.617	563.4
662.037	562.5
662.457	569.4
662.855	539.7
663.275	584.6
663.695	552.5
664.094	559.7
664.514	558.2
664.934	548.3
665.333	565.6
665.753	550.1
666.152	550.1
666.572	554
666.993	569.2
667.392	550.1
667.812	550.1
668.212	552.2
668.632	566.5
669.053	550
669.453	557.2
669.874	561.8
670.273	558.9
670.694	552.9
671.116	567.4
671.515	562.9
671.937	553.4
672.337	548.7
672.758	557.6
673.158	562.4
673.58	549.3
673.98	560.8
674.402	567.6
674.824	556.3
675.224	552
675.646	551.9
676.047	555.9
676.469	557.4
676.869	561
677.292	556.7
677.693	554.4
678.115	556
678.516	562
678.939	554.6
679.34	556.9
679.762	566.6
680.164	556.4
680.586	544.6
680.988	552.2
681.411	578
681.812	554.8
682.236	549.1
682.637	548.4
683.061	538.4
683.462	558
683.864	552.4
684.288	560.2
684.69	544
685.114	564.5
685.516	561.3
685.94	549.4
686.342	558.6
686.766	549.2
687.168	549.5
687.571	566.3
687.995	550.1
688.398	547
688.822	552.8
689.225	568.6
689.628	573.4
690.052	553.3
690.456	561
690.88	554.3
691.284	547.6
691.687	558.5
692.112	542.2
692.515	544.5
692.919	553.2
693.344	555.2
693.747	551.5
694.173	542.5
694.577	562.2
694.98	558.3
695.406	550.6
695.81	557.9
696.214	556.8
696.64	557.6
697.044	554.1
697.448	563
697.874	552.4
698.279	555.2
698.684	548.7
699.11	545.3
699.514	556.9
699.919	547
700.324	543.5
700.75	554.5
701.156	554.1
701.561	560.1
701.987	558.7
702.393	560.6
702.798	557.3
703.203	560
703.63	547.5
704.036	547.9
704.442	548.5
704.847	543.4
705.274	554.2
705.68	553.1
706.086	564.5
706.492	539.6
706.92	552.3
707.326	556.1
707.732	546.4
708.139	541.7
708.545	545.4
708.973	547.2
709.38	548.9
709.786	541.7
710.193	564.6
710.6	554.5
711.028	546.1
711.435	548.6
711.842	556.8
712.249	545.6
712.656	551.2
713.064	561.3
713.492	544.2
713.9	547.8
714.307	558.7
714.715	553.9
715.123	554
715.53	552.4
715.938	561.2
716.367	553
716.775	553
717.184	547.4
717.592	547.1
718	556.9
718.408	582.9
718.816	597.1
719.225	558.8
719.633	551.7
720.042	547.8
720.472	553
720.881	573.4
721.29	548.2
721.699	541.6
722.108	553.8
722.517	555.8
722.926	547.1
723.335	564.5
723.744	559.3
724.154	550.4
724.563	554
724.973	551.6
725.382	549.6
725.792	548.6
726.202	545.2
726.612	560.4
727.022	552.7
727.432	549.4
779.813	548.9
780.223	593.4
780.634	546.9
781.044	543.1
781.454	549.4
781.865	563.4
782.276	544.8
782.686	562.1
783.097	548.3
783.508	542.7
783.919	552.8
784.33	560.1
784.741	561.7
785.152	542.3
785.563	543.5
785.974	546.5
786.386	562.3
786.776	546.6
787.188	553.2
787.599	546.7
788.011	557.9
788.423	554.6
788.835	543.9
789.247	540.7
789.659	543.2
790.071	549.6
790.483	591
790.874	551
791.286	560.3
791.699	545.8
792.111	546.4
792.524	557.2
792.937	550.8
793.349	544.1
793.741	548.2
794.154	550.5
794.567	570.1
794.98	550.7
795.393	538.5
795.785	565
796.198	544.3
796.612	554
797.026	539.6
797.439	531.5
797.831	550.5
798.245	541.6
798.659	551.3
799.073	542.7
799.487	548.7
799.88	551.6
800.294	547.8
800.708	550.9
801.123	552
801.516	563.8
801.93	538.3
802.345	532
802.76	550.7
803.153	558.4
803.568	561.6
803.983	556.6
804.377	547.5
804.792	532.3
805.207	531.6
805.601	543.8
806.016	580.2
806.432	542.9
806.826	579.7
807.242	562.2
807.658	548.4
808.052	541.2
808.468	549
808.884	541.8
809.279	550.3
809.695	557.1
810.111	567.5
810.506	552.1
810.922	570.4
811.339	542.7
811.734	554.2
812.151	544.5
812.546	542.8
812.963	538.5
813.38	548.7
813.776	548.4
814.193	570.5
814.589	538.8
815.006	544.4
815.402	546.1
815.82	542.7
816.237	544.2
816.633	546.8
817.051	542.2
817.448	550.1
817.866	532.6
818.262	563.9
818.68	542.2
819.077	543.6
819.495	544.9
819.892	585.4
820.311	540.9
820.708	545.5
821.127	546.4
821.524	556.6
821.943	549.7
822.34	562.2
822.759	549.7
823.157	552.6
823.576	557.6
823.974	554.9
824.393	557
824.791	542.5
825.189	543.2
825.609	545.3
826.007	548.7
826.427	542.2
826.826	542.6
827.246	552.6
827.644	541
828.043	556.9
828.463	546.6
828.862	550.1
829.261	556.4
829.682	542.5
830.081	556.4
830.502	539.9
830.901	548.8
831.301	538.8
831.722	537.1
832.121	544.9
832.521	539.7
832.943	541.4
833.342	546.3
833.742	542.2
834.164	547.2
834.564	538.9
834.965	544
835.386	543.3
835.787	543.5
836.188	548.6
836.588	541.4
837.01	544.1
837.411	537.5
837.812	556.3
838.213	545.1
838.636	545.4
839.037	613.3
839.438	553.4
839.84	543.7
840.263	550.6
840.664	550.3
841.066	542.8
841.468	545.9
841.891	535
842.293	554
842.695	548.3
843.098	553.8
843.5	544.9
843.902	554.6
844.326	553
844.729	546.5
845.131	560.2
845.534	546
845.937	557.1
846.34	555
846.764	536.8
847.167	544.4
847.571	536.8
