#lambda/nm	C1
208.295	469.5
208.67	438.7
209.045	399.7
209.419	405.6
209.794	583
210.169	566.1
210.544	679.4
210.919	582.5
211.295	574.6
211.67	579
212.045	575.4
212.421	575.8
212.796	613
213.172	576.4
213.547	576.1
213.923	577.5
214.299	575.2
214.675	582.5
215.051	584.3
215.427	577.3
215.803	594.3
216.179	583.2
216.555	568.4
216.932	582.5
217.308	580.6
217.684	580.8
218.061	586.1
218.438	579.7
218.814	580.9
219.191	579.3
219.568	570.8
219.945	568.5
220.322	583.8
220.699	581.2
221.076	590.3
221.453	583.2
221.83	570.5
222.208	573.8
222.585	574.3
222.962	573.3
223.34	583.2
223.717	581.5
224.095	575.1
224.473	577.8
224.851	577.6
225.229	570.4
225.607	592.6
225.985	565
226.363	577.8
226.741	578.7
227.119	576.3
227.497	586.1
227.876	565.5
228.254	582.9
228.633	580.3
229.011	583.7
229.39	583.4
229.769	577.8
230.148	584.6
230.527	591.5
230.905	575.9
231.284	585.4
231.664	571
232.043	594.3
232.422	584.1
232.801	570.6
233.181	586.9
233.56	570.7
233.94	577.9
234.319	561
234.699	573.6
235.079	617.4
235.458	617.3
235.838	593.9
236.218	571.1
236.598	564.8
236.978	571.6
237.358	575.5
237.738	576.8
238.119	584.1
238.499	575.7
238.88	583.2
239.26	597.5
239.641	570.7
240.021	573.1
240.402	579.5
240.783	576.9
241.163	576.4
241.544	578.4
241.925	579.7
242.306	589.2
242.687	575.5
243.069	579.6
243.45	582.3
243.831	567.1
244.212	572.7
244.594	617
244.975	587.1
245.357	588.8
245.739	575.4
246.12	582.4
246.502	586.5
246.884	577.3
247.266	576.7
247.648	583.6
248.03	606.5
248.412	575.4
248.794	586.8
249.176	575.5
249.559	587.5
249.941	577.5
250.323	578.7
250.706	572.5
251.089	580.6
251.471	581.1
251.854	580.3
252.237	580
252.62	593.1
253.002	583.4
253.385	581.3
253.769	591.8
254.152	578
254.535	588.8
254.918	568.5
255.301	577.3
255.685	574.4
256.068	574.2
256.452	603.7
256.835	585.6
257.219	590
257.603	592.5
257.986	572.6
258.37	580.4
258.754	572.1
259.138	585.4
259.522	585.6
259.906	575.2
260.29	577.4
260.675	571.5
261.059	584.9
261.443	573.7
261.828	581.9
262.212	581.3
262.597	565.3
262.981	577.3
263.366	585.6
263.751	582.6
264.136	573.8
264.521	574.3
264.906	576.1
265.291	587.8
265.676	571.8
266.061	587.6
266.446	592.2
266.831	574.6
267.217	594.7
267.602	582
267.987	583.2
268.373	574.9
268.759	584.6
269.144	584.7
269.53	579
269.916	571.6
270.302	574.1
270.688	581
271.074	580.7
271.46	590.3
271.846	607.2
272.232	583.1
272.618	571.1
273.004	579.1
273.391	586
273.777	587.8
274.164	580.8
274.55	589.3
274.937	583.2
275.324	575.7
275.71	582.9
276.097	579.7
276.484	570.5
276.871	584
277.258	587.2
277.645	563.8
278.032	575.2
278.419	580.2
278.807	586.5
279.194	574.4
279.581	573.1
279.969	583.7
280.356	583.9
280.744	582.1
281.131	609.4
281.519	592.8
281.907	573.6
282.295	575.4
282.682	589.4
283.07	583.4
283.458	588.4
283.846	591.4
284.235	592
284.623	589.5
285.011	570.9
285.399	578.4
285.788	576.5
286.176	577.5
286.565	589.4
286.953	579.7
287.342	577.9
287.731	571.2
288.119	575.1
288.508	575.2
288.897	575.3
289.286	566.8
289.675	583.1
290.064	593.2
290.453	581.1
290.821	580.6
291.21	599
291.599	573.8
291.989	584.5
292.378	591.8
292.768	601.4
293.157	584.5
293.547	591
293.936	579.9
294.326	581.3
294.716	578
295.106	575.7
295.496	584.1
295.886	585.3
296.276	577.8
296.666	573.2
297.056	573.9
297.446	575.9
297.836	596.3
298.227	578.1
298.617	576.3
299.008	587.5
299.398	578.6
299.789	575.8
300.179	581
300.57	594.2
300.961	577
301.352	575.9
301.742	588.3
302.133	580.7
302.524	578.8
302.915	583.9
303.307	568.8
303.698	588.8
304.089	584.6
304.48	578.3
304.872	581.7
305.263	577.7
305.655	576.7
306.046	588.3
306.438	584.7
306.829	576.8
307.221	595.6
307.613	584.8
308.005	591.3
308.397	597.2
308.789	604.6
309.181	602.3
309.573	599.9
309.965	589.9
310.357	582.3
310.749	587.4
311.142	568.7
311.534	576.8
311.926	586.2
312.319	580.9
312.711	568.4
313.104	594
313.497	576.7
313.889	616.6
314.282	593.8
314.675	601.5
315.068	575
315.461	588
315.854	611.2
316.247	582.2
316.64	582.5
317.033	578.4
317.405	581.3
317.798	578.7
318.192	584.5
318.585	572.5
318.979	585
319.372	571
319.766	578.3
320.16	593.2
320.553	601.3
320.947	600
321.341	581.9
321.735	582.4
322.129	569.3
322.523	607.4
322.917	573.8
323.311	593.4
323.705	583.2
324.099	585.9
324.494	595
324.888	590.7
325.282	580.3
325.677	584.7
326.071	583.1
326.466	592.8
326.861	587.9
327.255	594.6
327.65	595.3
328.045	596.9
328.44	580.7
328.835	583.1
329.23	570.3
329.625	605.7
330.02	573.2
330.415	604.6
330.81	580.2
331.206	580.2
331.601	576.4
331.996	595.6
332.37	593.1
332.766	568.2
333.161	609.1
333.557	577.9
333.953	583.5
334.348	956.2
334.744	586.6
335.14	581.3
335.536	578.4
335.932	598.3
336.328	584.4
336.724	589.7
337.12	583.6
337.516	583.2
337.913	582.8
338.309	592.2
338.705	575.4
339.102	594.8
339.498	573.4
339.895	594.7
340.291	579.7
340.688	590.2
341.085	576
341.481	584
341.878	575.6
342.275	601.9
342.672	577.4
343.069	575.4
343.466	566.1
343.842	587.8
344.239	573.8
344.636	578
345.033	571.3
345.431	575
345.828	576.1
346.225	577
346.623	589.1
347.02	584.6
347.418	586.3
347.816	592.4
348.213	573.7
348.611	585.4
349.009	575.3
349.407	591.2
349.805	574.1
350.203	568.1
350.601	588.4
350.999	575.6
351.397	571.5
351.795	588.5
352.193	588.4
352.57	585.3
352.969	585.6
353.367	567.2
353.766	572.7
354.164	581.3
354.563	589.9
354.961	578.7
355.36	575.7
355.759	580.3
356.158	570.6
356.557	570
356.956	567.4
357.355	568.3
357.754	581
358.153	582.2
358.552	600.2
358.951	576.8
359.35	588.4
359.75	574.8
360.149	568
360.527	558.9
360.926	563.7
361.326	574.7
361.726	574.6
362.125	568.7
362.525	584.5
362.925	568.1
363.325	575.6
363.724	571.8
364.124	570.8
364.524	568.4
364.924	575.2
365.324	583.7
365.725	560.9
366.125	582.2
366.525	577
366.904	571.9
367.304	560.8
367.705	593.1
368.105	586
368.506	576.9
368.906	574
369.307	574.4
369.708	577
370.108	568.3
370.509	585.6
370.91	565.6
371.311	573.5
371.712	577.6
372.113	574.6
372.514	565.2
372.894	572.6
373.295	571.8
373.696	583.6
374.097	582.1
374.499	601.9
374.9	579.1
375.301	566.6
375.703	580.3
376.105	569.9
376.506	578.8
376.908	575.3
377.309	572.2
377.711	578.2
378.113	572.8
378.493	576.2
378.895	569.9
379.297	580.6
379.699	562.5
380.102	577
380.504	569.5
380.906	568.6
381.308	600.5
381.71	575.4
382.113	580
382.515	572.7
382.918	578
383.299	578.1
383.701	582.9
384.104	578.7
384.507	559.3
384.909	574.9
385.312	560.6
385.715	562.5
386.118	570.2
386.521	567.9
386.924	580.9
387.327	566.1
387.709	558.2
388.112	556.1
388.515	567.9
388.918	572.4
389.322	573
389.725	566.9
390.129	588.1
390.532	579.5
390.936	570.7
391.339	563.1
391.743	576.4
392.125	563.6
392.529	580.6
392.933	579.6
393.337	568.4
393.74	574
394.144	572
394.548	567.2
394.953	569.3
395.357	576.6
395.761	563
396.144	574.6
396.548	566
396.952	570.1
397.357	574.7
397.761	564.6
398.166	565.4
398.57	567.3
398.975	562.4
399.379	576.2
399.763	614.1
400.168	574
400.572	573.9
400.977	569.7
401.382	589
401.787	579.8
402.192	588.8
402.597	586.5
403.002	556.1
403.386	584
403.791	590.6
404.197	565.4
404.602	571.1
405.007	573
405.413	575.7
405.818	561
406.224	568.1
406.608	570.3
407.014	566.6
407.42	590
407.825	573.6
408.231	582
408.637	565.5
409.043	580
409.449	564.5
409.834	566.2
410.24	567.9
410.646	585.3
411.052	584.4
411.458	571.5
411.865	577.4
412.271	579.3
412.677	576.4
413.062	580.1
413.469	568.4
413.875	594.4
414.282	586.2
414.689	576.9
415.095	583.7
415.502	566.9
415.888	573.8
416.294	560.5
416.701	612.4
417.108	565.5
417.515	581
417.923	569.3
418.33	592.8
418.715	576.4
419.123	571.4
419.53	571.6
419.937	571.2
420.345	586.7
420.752	570.2
421.16	587.4
421.546	572.2
421.953	581.5
422.361	565.1
422.769	573.6
423.177	564.6
423.585	594.9
423.992	590.9
424.379	588.8
424.787	582.3
425.195	594.4
425.603	572.1
426.011	581
426.419	584.2
426.806	575
427.214	580.8
427.623	582.8
428.031	588.2
428.44	576.1
428.848	590
429.235	598.3
429.644	585.2
430.053	581.7
430.461	600
430.87	611.7
431.279	595.1
431.666	589.5
432.075	597
432.484	611.8
432.893	605.5
433.302	638.7
433.711	668.8
434.099	642.4
434.508	650.3
434.918	656.1
435.327	684
435.737	697
436.125	707.3
436.534	720.8
436.944	739.9
437.353	751.9
437.763	782.5
438.173	775.2
438.561	804.6
438.971	799.4
439.381	831.8
439.791	859.4
440.201	851.7
440.589	890.2
440.999	905.9
441.409	921.8
441.819	924.1
442.23	958
442.619	966
443.029	986.8
443.439	995
443.85	1009.2
444.26	1029.9
444.649	1037.1
445.06	1054.4
445.471	1056.7
445.881	1072.7
446.292	1112
446.682	1122.8
447.092	1094.4
447.503	1172.6
447.914	1132.6
448.325	1137.5
448.715	1142.6
449.126	1147.4
449.537	1151.8
449.948	1166
450.338	1164.3
450.75	1179.8
451.161	1184.3
451.572	1195.1
451.984	1190.1
452.374	1185.9
452.786	1207.8
453.197	1201.1
453.609	1216.1
453.999	1206.8
454.411	1202.6
454.823	1215.6
455.235	1223.5
455.647	1225.3
456.037	1229.5
456.449	1216.1
456.862	1238.9
457.274	1237.1
457.665	1221.2
458.077	1237.1
458.489	1242.2
458.902	1233.3
459.293	1231.4
459.705	1238.6
460.118	1228.6
460.53	1237.5
460.921	1243.7
461.334	1244.9
461.747	1249.5
462.16	1263.3
462.551	1261.9
462.964	1249.7
463.377	1235.4
463.79	1250
464.182	1243.9
464.595	1242.3
465.008	1242.4
465.421	1240.8
465.813	1232.3
466.226	1246.2
466.64	1229.5
467.053	1267
467.445	1245.6
467.859	1233.4
468.272	1228.4
468.686	1234.8
469.078	1220.8
469.492	1205.3
469.906	1219.9
470.298	1215.3
470.712	1211.9
471.126	1239.8
471.54	1199.5
471.933	1205.1
472.347	1193.4
472.761	1198.3
473.175	1187
473.568	1186.7
473.982	1193.9
474.397	1192.5
474.79	1188.1
475.204	1191.9
475.619	1185.9
476.033	1178.3
476.426	1173.9
476.841	1166.5
477.256	1190
477.649	1161.4
478.064	1155.1
478.479	1161.9
478.872	1155.4
479.287	1148.9
479.702	1141
480.118	1158.3
480.511	1139.2
480.927	1130.7
481.342	1142.4
481.736	1148.7
482.151	1145.5
482.566	1142.4
482.96	1133.2
483.376	1140.4
483.792	1123.2
484.186	1123.6
484.602	1109.8
485.017	1114.5
485.412	1115.9
485.827	1107.6
486.243	1105.4
486.638	1118.2
487.054	1106.9
487.47	1110.1
487.865	1092.2
488.281	1084.4
488.697	1080.5
489.092	1083.4
489.508	1069.9
489.925	1082.8
490.32	1077.4
490.736	1078.1
491.153	1076.3
491.548	1057.9
491.964	1068.4
492.381	1037.7
492.776	1051.6
493.193	1050
493.61	1051.9
494.006	1036
494.422	1042.8
494.84	1022.7
495.235	1034.6
495.652	1029.1
496.069	1016.3
496.465	1006.3
496.883	1008.9
497.3	1029.9
497.696	1000.1
498.113	1009.8
498.509	1003.3
498.927	993.8
499.344	983.4
499.741	982.8
500.158	1002.4
500.576	988.5
500.973	987.8
501.39	968.1
501.787	969.4
502.205	965.5
502.623	953.8
503.02	948.5
503.438	948.2
503.856	940.8
504.253	941.1
504.671	936.5
505.068	926.5
505.486	933
505.905	946.5
506.302	927.1
506.72	940.3
507.118	916.6
507.536	924.1
507.955	911.8
508.352	913.7
508.771	915.9
509.169	907.8
509.587	889.2
510.006	899.3
510.404	885.9
510.823	887.7
511.221	890.3
511.64	880.3
512.038	885
512.457	870.4
512.877	871.8
513.275	865.8
513.694	870.5
514.092	864
514.512	867.8
514.91	854.6
515.33	857.6
515.749	856.9
516.148	853.5
516.568	846.9
516.966	839.9
517.386	841.9
517.785	835.6
518.205	830.2
518.603	832.4
519.024	819.9
519.444	824.2
519.843	839.1
520.263	819.6
520.662	825.6
521.082	814.1
521.481	815.9
521.902	809.9
522.301	806.2
522.722	804.4
523.121	799.1
523.542	796.7
523.963	788.7
524.362	798.5
524.783	796.1
525.183	792.1
525.604	796.1
526.003	787
526.425	777.1
526.824	785.1
527.246	786.9
527.646	790.3
528.067	769.9
528.467	771
528.888	777
529.289	767
529.71	763
530.11	748
530.532	753.1
530.932	743.7
531.354	747.7
531.755	774.5
532.176	751.8
532.577	740.1
532.999	748.2
533.4	736.6
533.822	747.3
534.223	734.4
534.645	738.6
535.046	729.7
535.468	737.8
535.869	740.4
536.292	720.6
536.693	722.5
537.115	722.6
537.516	723.6
537.939	729.7
538.34	736.1
538.742	735
539.165	715.1
539.566	716.7
539.989	708.8
540.391	708.2
540.814	715.9
541.216	717.7
541.639	712.5
542.041	717.3
542.464	713.1
542.866	709.8
543.268	698
543.691	708.9
544.093	710
544.517	724.7
544.919	691.5
545.343	719.8
545.745	694.3
546.147	700
546.571	692.9
546.974	691.7
547.398	693.2
547.8	702.1
548.224	684.4
548.627	680.4
549.03	687.4
549.454	680
549.857	669.6
550.281	677.8
550.684	674.3
551.087	687.6
551.512	685.5
551.915	679.8
552.34	675.2
552.743	669.7
553.146	667.2
553.571	670.2
553.975	683.9
554.399	660.8
554.803	710.4
555.207	660.8
555.632	656.2
556.036	665.1
556.461	653.7
556.865	659.7
557.268	643.1
557.694	653.8
558.098	655.7
558.502	660.2
558.927	656.3
559.332	649.8
559.736	650.3
560.162	655.1
560.566	651.6
560.992	651.4
561.396	645.6
561.801	643.6
562.227	643.1
562.631	639.4
563.036	639
563.462	651.5
563.867	642.9
564.272	621.9
564.698	641.5
565.103	621.8
565.508	652.1
565.935	632.1
566.34	633.4
566.745	645
567.172	625
567.577	648.5
567.982	640.4
568.409	632.2
568.815	625.4
569.22	624.3
569.626	628.4
570.053	613.2
570.459	622.2
570.865	636
571.292	631
571.698	622.4
572.104	612.5
572.531	615.1
572.937	633.6
573.343	619
573.75	616.8
574.177	615
574.583	622.7
574.99	616.3
575.396	626.5
575.824	613.5
576.231	623.7
576.637	612.1
577.065	632.7
577.472	611.3
577.879	608.2
578.286	626.3
578.714	604.9
579.121	608.1
579.528	612.9
579.935	617.2
580.364	606
580.771	595.4
581.178	597.6
581.585	611.5
582.014	609.2
582.421	599.1
582.829	599.9
583.236	612.2
583.644	598.2
584.073	601.9
584.481	601.6
584.889	594.4
585.296	601.4
585.726	596.5
586.134	587.5
586.542	590.4
586.95	615.4
587.358	582.5
587.787	596.5
588.196	586.6
588.604	595.8
589.012	593.2
589.421	587.2
589.851	585.2
590.259	594.4
590.668	592.4
591.076	628.2
591.485	586
591.894	593
592.324	601.2
592.733	601.9
593.142	577.4
593.551	587.1
593.96	624.5
594.369	576.4
594.8	580.3
595.209	585.7
595.618	576.1
596.028	581.7
596.437	576.5
596.847	581.6
597.256	579.1
597.687	582.5
598.097	582.2
598.507	571
598.917	586.9
599.327	585.4
599.736	585.6
600.146	589
600.556	582.6
600.988	583.5
601.398	579.7
601.808	590.1
602.219	568.9
602.629	579.8
603.039	584.7
603.45	597.5
603.86	577
604.271	596.7
604.703	576.4
605.114	577.5
605.525	581.5
605.935	576.3
606.346	589.3
606.757	582.4
607.168	575.7
607.579	563.8
607.99	584.1
608.402	575.3
608.813	580
609.224	568.4
609.636	562.9
610.047	564.6
610.48	573
610.892	575.9
611.303	582.8
611.715	573
612.127	566.5
612.539	567.2
612.95	568.6
613.362	561.2
613.774	557.5
614.186	567.9
614.599	569
615.011	579.9
615.423	556.6
615.835	566.5
616.248	559.3
616.66	568.8
617.073	565.6
617.485	568.1
617.898	580.4
618.311	578
618.723	567.6
619.136	594.7
619.549	580.2
619.962	590.2
620.375	569
620.788	571.4
621.201	562.8
621.614	574.5
622.028	567.2
622.441	570.4
622.854	589.2
623.268	560.2
623.681	566.8
624.095	569.4
624.509	579.8
624.922	574.9
625.336	557.5
625.728	568.7
626.142	578.6
626.556	584.5
626.97	578.8
627.384	561.3
627.799	567.9
628.213	579.8
628.627	566.8
629.041	563.4
629.456	567.7
629.87	573
630.285	573.3
630.699	573.8
631.093	563.6
631.507	572.1
631.922	573.8
632.337	581.7
632.752	561.2
633.167	563.5
633.582	565.2
633.997	563.2
634.412	553.9
634.806	563.7
635.221	557.3
635.637	570.6
636.052	553.9
636.468	563.6
636.883	582.6
637.299	568.4
637.715	557.8
638.109	563.7
638.525	552.2
638.941	576.4
639.357	566.5
639.773	575.1
640.189	555.8
640.584	560.7
641	565.4
641.416	550.7
641.832	559.9
642.249	558.7
642.665	564.1
643.06	568.7
643.477	571.4
643.894	551.6
644.31	562.1
644.727	562.3
645.123	559
645.54	557.9
645.957	563.2
646.374	573
646.77	562.5
647.187	588.7
647.604	559.3
648.021	552.8
648.439	558.7
648.835	567.4
649.252	563.4
649.67	554.7
650.088	556.1
650.484	560.5
650.902	566.5
651.32	564.5
651.738	556.5
652.134	561.6
652.552	575.8
652.971	566.6
653.389	558.4
653.786	568.2
654.204	566.9
654.622	549.2
655.019	558.9
655.438	562.8
655.857	561.2
656.275	560.9
656.673	550.6
657.091	628.6
657.51	554.4
657.908	570
658.327	576.3
658.746	551.4
659.144	557
659.563	567
659.982	559.8
660.38	557.6
660.8	560.8
661.219	569.1
661.617	561.7
662.037	558.6
662.457	565.8
662.855	547.8
663.275	587.1
663.695	557.5
664.094	553.8
664.514	563.5
664.934	551.8
665.333	567.6
665.753	549.5
666.152	553.8
666.572	549.2
666.993	567.1
667.392	552.8
667.812	558.5
668.212	551.3
668.632	562.8
669.053	553.1
669.453	559.3
669.874	558.2
670.273	559.9
670.694	551.9
671.116	571.4
671.515	568.6
671.937	548.7
672.337	549.1
672.758	554
673.158	561.5
673.58	546.9
673.98	559.5
674.402	564.6
674.824	555.4
675.224	547.4
675.646	545.6
676.047	548
676.469	549.7
676.869	563
677.292	553.7
677.693	542.3
678.115	548.9
678.516	556.5
678.939	556.7
679.34	545.3
679.762	563
680.164	557.9
680.586	545.9
680.988	554.1
681.411	582.9
681.812	547.7
682.236	545.5
682.637	544
683.061	540.8
683.462	558.4
683.864	548.5
684.288	563.4
684.69	552.1
685.114	558.2
685.516	556.5
685.94	540.7
686.342	560.3
686.766	548.3
687.168	549.1
687.571	570
687.995	553.1
688.398	540.9
688.822	550.8
689.225	569.6
689.628	567.9
690.052	555.3
690.456	555.2
690.88	549.5
691.284	542.7
691.687	560.8
692.112	540.2
692.515	545.1
692.919	551.1
693.344	553.1
693.747	547.2
694.173	542.9
694.577	556
694.98	548.3
695.406	550.5
695.81	552.9
696.214	559.9
696.64	552.4
697.044	556.2
697.448	560
697.874	552.3
698.279	550.7
698.684	538.1
699.11	546.4
699.514	552
699.919	550.4
700.324	541.8
700.75	555.9
701.156	551.3
701.561	562.2
701.987	555.6
702.393	561.7
702.798	560.7
703.203	554.5
703.63	547.2
704.036	548.5
704.442	551.4
704.847	544.6
705.274	547.5
705.68	553.9
706.086	556.7
706.492	547
706.92	548.9
707.326	559.6
707.732	543.8
708.139	543
708.545	546.5
708.973	541.9
709.38	550.1
709.786	538.4
710.193	563.3
710.6	551.3
711.028	542.1
711.435	545.6
711.842	553.5
712.249	543.1
712.656	544.9
713.064	559.3
713.492	545
713.9	540.5
714.307	552.8
714.715	551.1
715.123	550.7
715.53	551.5
715.938	554.1
716.367	549.5
716.775	552
717.184	542.2
717.592	547.4
718	555.2
718.408	583.1
718.816	592.5
719.225	557.5
719.633	558.4
720.042	540.6
720.472	552.5
720.881	573.5
721.29	548.5
721.699	540.5
722.108	552.9
722.517	553.2
722.926	547.3
723.335	557.6
723.744	547.7
724.154	551.4
724.563	547.3
724.973	551.1
725.382	552.2
725.792	546.5
726.202	548.2
726.612	559.3
727.022	550.4
727.432	550
779.813	549.3
780.223	591.9
780.634	545.2
781.044	540.6
781.454	552.2
781.865	558.9
782.276	547.2
782.686	558
783.097	549.1
783.508	549.5
783.919	553
784.33	565.1
784.741	560.6
785.152	545.3
785.563	540.9
785.974	549.1
786.386	557.6
786.776	553.5
787.188	545.7
787.599	541.8
788.011	551.1
788.423	552.6
788.835	540.2
789.247	537
789.659	545.7
790.071	552.7
790.483	587.7
790.874	541.3
791.286	560.2
791.699	542.6
792.111	546.7
792.524	558.8
792.937	545.5
793.349	539.1
793.741	540.6
794.154	543.9
794.567	568
794.98	550.1
795.393	536.9
795.785	558.9
796.198	540.1
796.612	542.2
797.026	546.9
797.439	536
797.831	548.8
798.245	533.1
798.659	539.8
799.073	543.2
799.487	538.4
799.88	547.5
800.294	546.1
800.708	550
801.123	544.9
801.516	567.7
801.93	535
802.345	534.1
802.76	543.3
803.153	552.9
803.568	556.4
803.983	552.8
804.377	549.7
804.792	537.5
805.207	532.4
805.601	547.8
806.016	578.7
806.432	538.6
806.826	576.6
807.242	560.8
807.658	553.1
808.052	544.3
808.468	545.4
808.884	539
809.279	548.2
809.695	557.7
810.111	566.1
810.506	549.3
810.922	561.7
811.339	541.1
811.734	556
812.151	543
812.546	540.7
812.963	544.1
813.38	551.7
813.776	545.5
814.193	571.1
814.589	535.7
815.006	543.6
815.402	540.9
815.82	542.2
816.237	546.7
816.633	550
817.051	540.6
817.448	550.9
817.866	543.1
818.262	563.3
818.68	550.3
819.077	544.3
819.495	547.9
819.892	583
820.311	539.9
820.708	544.3
821.127	540.7
821.524	558.7
821.943	546.2
822.34	566.4
822.759	551
823.157	545
823.576	558.2
823.974	553.1
824.393	556
824.791	537.5
825.189	534.4
825.609	540.9
826.007	541.1
826.427	533.3
826.826	542.2
827.246	547
827.644	531.3
828.043	549.3
828.463	539.6
828.862	554.9
829.261	551.5
829.682	537.4
830.081	554.3
830.502	539.8
830.901	547.3
831.301	535.9
831.722	533.1
832.121	547.2
832.521	542.1
832.943	551
833.342	544.2
833.742	536.4
834.164	544.4
834.564	531.8
834.965	546.6
835.386	545.1
835.787	537.3
836.188	540
836.588	543.7
837.01	546.4
837.411	536.5
837.812	545.4
838.213	543.3
838.636	544.6
839.037	606.5
839.438	543.4
839.84	545.8
840.263	555.5
840.664	547.4
841.066	535.6
841.468	542.3
841.891	535.3
842.293	555.2
842.695	543.4
843.098	558
843.5	541
843.902	548.3
844.326	556.1
