#lambda/nm	C1
208.295	471.8
208.67	441.1
209.045	400.7
209.419	408.9
209.794	582.9
210.169	566.1
210.544	675.5
210.919	578.9
211.295	561.7
211.67	575.5
212.045	576.6
212.421	573.6
212.796	606.9
213.172	566.2
213.547	571
213.923	574.5
214.299	569.6
214.675	580.6
215.051	571.3
215.427	576.4
215.803	587.3
216.179	578.8
216.555	567.8
216.932	582
217.308	571.6
217.684	571.7
218.061	579.9
218.438	583
218.814	567.3
219.191	581.7
219.568	568.4
219.945	572.4
220.322	583.3
220.699	574.8
221.076	581.5
221.453	572.6
221.83	561.6
222.208	566.6
222.585	561.8
222.962	576.4
223.34	578.5
223.717	575.5
224.095	571.3
224.473	573.9
224.851	570.4
225.229	560.8
225.607	586.1
225.985	565.9
226.363	576.4
226.741	575
227.119	576.4
227.497	580.6
227.876	565.3
228.254	582.4
228.633	582.2
229.011	571.6
229.39	581.3
229.769	574.4
230.148	576.3
230.527	593.1
230.905	575.8
231.284	578.9
231.664	571.6
232.043	586.7
232.422	582.8
232.801	567.6
233.181	583
233.56	570.9
233.94	577.7
234.319	565.2
234.699	573.3
235.079	607.9
235.458	609
235.838	593.3
236.218	568.5
236.598	560.6
236.978	572.2
237.358	569.6
237.738	573
238.119	581.8
238.499	563
238.88	575.6
239.26	589.4
239.641	568.4
240.021	573
240.402	570.9
240.783	572.8
241.163	572.7
241.544	580.2
241.925	579.1
242.306	584.7
242.687	569.6
243.069	578.6
243.45	582.6
243.831	569.5
244.212	566.8
244.594	604.7
244.975	580
245.357	583.3
245.739	568.3
246.12	577.3
246.502	588
246.884	569.9
247.266	574.4
247.648	577.5
248.03	588.6
248.412	575.2
248.794	580.6
249.176	571.8
249.559	584.3
249.941	566.3
250.323	569
250.706	566.2
251.089	574.9
251.471	581.2
251.854	570.8
252.237	573.7
252.62	581.1
253.002	571.9
253.385	574.4
253.769	591.9
254.152	575.4
254.535	586.1
254.918	573
255.301	576.4
255.685	575.6
256.068	568.1
256.452	598.2
256.835	582.5
257.219	582.2
257.603	589.7
257.986	573.6
258.37	582.3
258.754	568.6
259.138	576.7
259.522	583.5
259.906	572.6
260.29	577.1
260.675	577.2
261.059	576.3
261.443	570.2
261.828	578.2
262.212	580.9
262.597	569.3
262.981	573.7
263.366	588.6
263.751	577.7
264.136	575.4
264.521	573.9
264.906	570.2
265.291	576.5
265.676	571.3
266.061	580.8
266.446	584.3
266.831	576
267.217	590.5
267.602	575.6
267.987	575.7
268.373	570.6
268.759	580.4
269.144	577.8
269.53	580.4
269.916	573.6
270.302	568.1
270.688	582.1
271.074	577
271.46	588
271.846	605.3
272.232	573.7
272.618	577
273.004	578.1
273.391	582.6
273.777	582.6
274.164	579.4
274.55	589.4
274.937	577.1
275.324	572.6
275.71	577.1
276.097	586.6
276.484	570.9
276.871	580.4
277.258	581.5
277.645	569.6
278.032	577.8
278.419	578.6
278.807	580.1
279.194	572.5
279.581	573.3
279.969	580.3
280.356	577.4
280.744	580.4
281.131	600.6
281.519	584.4
281.907	569.5
282.295	572.4
282.682	590.3
283.07	577
283.458	580.2
283.846	584.9
284.235	587.7
284.623	581.8
285.011	565
285.399	576.4
285.788	577.3
286.176	567.4
286.565	588.5
286.953	571.6
287.342	575.3
287.731	572.9
288.119	569
288.508	578.2
288.897	580.7
289.286	565.8
289.675	576.9
290.064	583.4
290.453	569.7
290.821	576.1
291.21	583.4
291.599	566.3
291.989	579.1
292.378	579.5
292.768	595.2
293.157	584.8
293.547	580.9
293.936	576.7
294.326	572.2
294.716	576.2
295.106	572.1
295.496	583.5
295.886	584.3
296.276	578.9
296.666	571.4
297.056	570.4
297.446	565.1
297.836	593.6
298.227	568.2
298.617	579.5
299.008	594.9
299.398	572.9
299.789	572.2
300.179	586.6
300.57	592.8
300.961	571.3
301.352	567.4
301.742	582.6
302.133	576.1
302.524	578.9
302.915	576.9
303.307	572.2
303.698	586.4
304.089	577.2
304.48	576.1
304.872	586.1
305.263	573.2
305.655	572.6
306.046	577
306.438	584.5
306.829	574.6
307.221	600.1
307.613	586.3
308.005	587.7
308.397	589
308.789	602.6
309.181	603.4
309.573	595.6
309.965	591
310.357	575.2
310.749	576.2
311.142	568.7
311.534	571.6
311.926	576.1
312.319	582
312.711	566.6
313.104	586.8
313.497	571.6
313.889	614.6
314.282	590.1
314.675	600.2
315.068	577.1
315.461	583.6
315.854	604.4
316.247	580.2
316.64	576
317.033	578.4
317.405	586.1
317.798	576.8
318.192	577.8
318.585	570.2
318.979	581.1
319.372	562.5
319.766	573.7
320.16	584.8
320.553	587.1
320.947	595.6
321.341	567.1
321.735	575.1
322.129	562.9
322.523	599.4
322.917	567.6
323.311	583.2
323.705	579.7
324.099	578.8
324.494	595.9
324.888	585.9
325.282	576.2
325.677	583.8
326.071	585.3
326.466	586.4
326.861	576.8
327.255	590.6
327.65	587
328.045	596.7
328.44	583.8
328.835	576.3
329.23	571.2
329.625	600.6
330.02	572.1
330.415	601.7
330.81	578.8
331.206	584.9
331.601	571.5
331.996	584.4
332.37	593.2
332.766	568.1
333.161	598.5
333.557	578.6
333.953	575.6
334.348	953.9
334.744	575.7
335.14	573.1
335.536	573.6
335.932	587.3
336.328	577.4
336.724	586.6
337.12	574.7
337.516	580.2
337.913	576.9
338.309	588
338.705	578.5
339.102	578.8
339.498	569.2
339.895	589.5
340.291	569.7
340.688	586.3
341.085	571.6
341.481	569.7
341.878	573.2
342.275	592.7
342.672	570.5
343.069	569.3
343.466	565
343.842	587.3
344.239	572.7
344.636	578
345.033	568.2
345.431	566.7
345.828	572.7
346.225	569.1
346.623	580
347.02	575.7
347.418	582.7
347.816	588.4
348.213	564.1
348.611	577.6
349.009	570.9
349.407	584.2
349.805	564.9
350.203	568
350.601	586.1
350.999	577
351.397	562.2
351.795	573.7
352.193	581.8
352.57	578.4
352.969	589.2
353.367	569.1
353.766	566
354.164	573
354.563	582.7
354.961	571.4
355.36	572.3
355.759	570.4
356.158	572.7
356.557	571.9
356.956	568.9
357.355	561.3
357.754	582.5
358.153	582.3
358.552	599.5
358.951	568.5
359.35	581.1
359.75	567.1
360.149	562.4
360.527	560.2
360.926	564.5
361.326	568.6
361.726	576.6
362.125	569.3
362.525	575.8
362.925	567.5
363.325	571.1
363.724	571.1
364.124	564.4
364.524	563.8
364.924	573.7
365.324	582.3
365.725	557.6
366.125	578.8
366.525	567.9
366.904	567.9
367.304	553.9
367.705	591.7
368.105	581.3
368.506	569.4
368.906	568.8
369.307	560.9
369.708	576.7
370.108	561.6
370.509	577.2
370.91	561.6
371.311	573
371.712	567.8
372.113	570.3
372.514	556.3
372.894	565.9
373.295	563.7
373.696	582.2
374.097	584
374.499	598
374.9	568.8
375.301	565.2
375.703	571.9
376.105	561.4
376.506	575.9
376.908	576.1
377.309	574.1
377.711	573.1
378.113	568
378.493	570.3
378.895	566.9
379.297	580
379.699	557.9
380.102	575.1
380.504	571.2
380.906	565
381.308	596.9
381.71	564.2
382.113	580.3
382.515	570.6
382.918	570.7
383.299	563
383.701	574.5
384.104	569.8
384.507	550.3
384.909	566.6
385.312	556.9
385.715	562.8
386.118	562.8
386.521	559.2
386.924	578.9
387.327	565.9
387.709	557
388.112	556.3
388.515	567.9
388.918	571
389.322	573.4
389.725	561.4
390.129	584.4
390.532	572
390.936	568.1
391.339	562.5
391.743	571.5
392.125	559.6
392.529	579.7
392.933	573.3
393.337	573.2
393.74	562.8
394.144	569.2
394.548	560.3
394.953	562.3
395.357	572.8
395.761	564.8
396.144	573.1
396.548	568.9
396.952	571.3
397.357	571.2
397.761	563.1
398.166	563.8
398.57	564.5
398.975	562.2
399.379	574.7
399.763	615.2
400.168	570.6
400.572	563.4
400.977	560.4
401.382	584.7
401.787	577.5
402.192	582.6
402.597	582.5
403.002	554.5
403.386	584.5
403.791	583
404.197	562.9
404.602	569.7
405.007	572.2
405.413	567.6
405.818	558.8
406.224	561.9
406.608	568.1
407.014	561.6
407.42	584.6
407.825	559.6
408.231	578.7
408.637	570.2
409.043	578.6
409.449	564.6
409.834	560.5
410.24	561.6
410.646	579.2
411.052	578.3
411.458	567.8
411.865	580.3
412.271	577.7
412.677	567.4
413.062	577.1
413.469	558.6
413.875	591.6
414.282	581.7
414.689	567.9
415.095	579.9
415.502	562.2
415.888	566.3
416.294	557.7
416.701	607.6
417.108	568
417.515	576.1
417.923	566.4
418.33	590.3
418.715	582.7
419.123	568.8
419.53	566.7
419.937	571.6
420.345	580.2
420.752	564.3
421.16	580.2
421.546	573.4
421.953	578.3
422.361	567.1
422.769	570.5
423.177	559.8
423.585	597.6
423.992	590
424.379	583.3
424.787	580.9
425.195	590
425.603	569.4
426.011	584.5
426.419	587.8
426.806	578.4
427.214	580.4
427.623	583.4
428.031	588.1
428.44	580.5
428.848	583.6
429.235	592.7
429.644	583.6
430.053	581.3
430.461	597.3
430.87	610.1
431.279	597.3
431.666	590.9
432.075	606.3
432.484	621.2
432.893	620.2
433.302	652.1
433.711	683.8
434.099	668.9
434.508	669
434.918	672.6
435.327	706.9
435.737	719.6
436.125	732.2
436.534	751.1
436.944	776.3
437.353	793
437.763	827.2
438.173	831.4
438.561	864.7
438.971	861.7
439.381	893.5
439.791	911.5
440.201	901
440.589	936.7
440.999	966.3
441.409	978.7
441.819	994.9
442.23	1031.7
442.619	1038.9
443.029	1064.7
443.439	1072.1
443.85	1102
444.26	1124.7
444.649	1128.7
445.06	1127.1
445.471	1141.3
445.881	1151.7
446.292	1176.3
446.682	1204.7
447.092	1182.2
447.503	1251.7
447.914	1216.5
448.325	1224.6
448.715	1238.3
449.126	1234.4
449.537	1258.8
449.948	1252
450.338	1259.9
450.75	1282.8
451.161	1275.9
451.572	1291.5
451.984	1282.3
452.374	1283.1
452.786	1305.5
453.197	1307.4
453.609	1318.6
453.999	1303.1
454.411	1315.4
454.823	1326.8
455.235	1322
455.647	1315.6
456.037	1324.7
456.449	1309.5
456.862	1324.8
457.274	1337
457.665	1333.3
458.077	1348.7
458.489	1337.3
458.902	1332.5
459.293	1350.5
459.705	1330.7
460.118	1329.3
460.53	1340.2
460.921	1332.4
461.334	1337
461.747	1338.7
462.16	1329
462.551	1328.9
462.964	1337.8
463.377	1323
463.79	1324.9
464.182	1340.6
464.595	1332.8
465.008	1341.6
465.421	1341.9
465.813	1332.9
466.226	1347.4
466.64	1331.7
467.053	1373.6
467.445	1319.6
467.859	1323.1
468.272	1314.3
468.686	1320.3
469.078	1314.5
469.492	1304.8
469.906	1318.7
470.298	1321.6
470.712	1306.1
471.126	1335.3
471.54	1288.7
471.933	1294.3
472.347	1285.4
472.761	1280.8
473.175	1270.8
473.568	1273.8
473.982	1267.2
474.397	1278.7
474.79	1281.6
475.204	1277
475.619	1266.9
476.033	1277.4
476.426	1265.3
476.841	1246.3
477.256	1274.8
477.649	1246.1
478.064	1251.6
478.479	1236.8
478.872	1226.7
479.287	1226.3
479.702	1222.2
480.118	1228
480.511	1218.6
480.927	1210.3
481.342	1215.3
481.736	1222.8
482.151	1203.7
482.566	1210.6
482.96	1204.5
483.376	1211.5
483.792	1198.3
484.186	1203.7
484.602	1191.4
485.017	1197
485.412	1183.4
485.827	1181.3
486.243	1181.4
486.638	1202.5
487.054	1180.3
487.47	1178
487.865	1169
488.281	1164.2
488.697	1153.8
489.092	1151.8
489.508	1134.1
489.925	1151.3
490.32	1135.6
490.736	1140.5
491.153	1132.5
491.548	1129.5
491.964	1137.3
492.381	1108
492.776	1104.4
493.193	1110.5
493.61	1107.9
494.006	1095.7
494.422	1099.2
494.84	1078.9
495.235	1089.1
495.652	1083
496.069	1079.2
496.465	1064.6
496.883	1058.7
497.3	1090
497.696	1056.6
498.113	1067.6
498.509	1044.7
498.927	1044.2
499.344	1033.9
499.741	1036.1
500.158	1037.9
500.576	1034.3
500.973	1023.1
501.39	1012.9
501.787	1006.1
502.205	1019.1
502.623	1005.5
503.02	994.5
503.438	993.1
503.856	999
504.253	999.6
504.671	991.5
505.068	973
505.486	975.9
505.905	1000
506.302	962.2
506.72	982.6
507.118	957.5
507.536	956.4
507.955	952.4
508.352	962
508.771	951
509.169	954.3
509.587	939
510.006	928.8
510.404	912.7
510.823	921.7
511.221	920
511.64	922.4
512.038	937.2
512.457	918.7
512.877	905.2
513.275	906.9
513.694	904.1
514.092	891.5
514.512	894.1
514.91	893.8
515.33	884.7
515.749	880
516.148	888.5
516.568	890.3
516.966	876.1
517.386	875.4
517.785	867.6
518.205	871.8
518.603	858
519.024	847
519.444	853.3
519.843	860.4
520.263	857.8
520.662	850.2
521.082	845.9
521.481	837
521.902	838.8
522.301	839.9
522.722	835.8
523.121	825.5
523.542	822.2
523.963	823.4
524.362	817.9
524.783	827.3
525.183	811
525.604	809.8
526.003	806.9
526.425	807.3
526.824	805.3
527.246	804.3
527.646	802.6
528.067	793.1
528.467	789.5
528.888	789.1
529.289	783.4
529.71	786.6
530.11	772.8
530.532	778.3
530.932	766.9
531.354	763.5
531.755	804.9
532.176	774.8
532.577	766.6
532.999	761.9
533.4	761.8
533.822	760.1
534.223	754.6
534.645	745
535.046	749.9
535.468	752.6
535.869	756.3
536.292	742.1
536.693	739.2
537.115	749.3
537.516	739.9
537.939	733.5
538.34	747.4
538.742	740.2
539.165	743.4
539.566	735.3
539.989	737.4
540.391	724.1
540.814	730.1
541.216	728.6
541.639	732.4
542.041	737
542.464	725.1
542.866	716.2
543.268	712.4
543.691	720.7
544.093	722.7
544.517	737.3
544.919	700
545.343	732.2
545.745	705.8
546.147	710
546.571	701.3
546.974	700.9
547.398	700.2
547.8	716.3
548.224	697
548.627	695.6
549.03	704.7
549.454	691.4
549.857	684.9
550.281	688.8
550.684	682.4
551.087	694.1
551.512	693
551.915	693.8
552.34	678.7
552.743	669.7
553.146	675.9
553.571	676.8
553.975	692.4
554.399	667.1
554.803	721.3
555.207	666.3
555.632	670.5
556.036	679.6
556.461	660.8
556.865	670.7
557.268	656.3
557.694	665
558.098	667
558.502	665.1
558.927	651
559.332	651.8
559.736	661.2
560.162	666.1
560.566	656.3
560.992	658.6
561.396	654.7
561.801	652.1
562.227	652.7
562.631	652.4
563.036	644.7
563.462	652.2
563.867	641.2
564.272	630.8
564.698	650.2
565.103	635.9
565.508	659.5
565.935	639.7
566.34	644.7
566.745	647.3
567.172	636.3
567.577	653.5
567.982	650.7
568.409	634.8
568.815	620.5
569.22	631.9
569.626	638.7
570.053	621.2
570.459	630.3
570.865	641.7
571.292	635.6
571.698	630.4
572.104	610.4
572.531	618.4
572.937	630.7
573.343	623.5
573.75	623.3
574.177	625.9
574.583	627
574.99	617.8
575.396	626.6
575.824	619.1
576.231	620.9
576.637	613.9
577.065	641.8
577.472	608.8
577.879	611.1
578.286	630
578.714	603.6
579.121	612.6
579.528	612.5
579.935	619.2
580.364	606
580.771	595.7
581.178	599.9
581.585	611.9
582.014	613.2
582.421	602.9
582.829	601.7
583.236	606.2
583.644	598.1
584.073	601.3
584.481	602.2
584.889	598.3
585.296	608.6
585.726	598.1
586.134	591
586.542	592.6
586.95	616.9
587.358	592.4
587.787	593.7
588.196	586.3
588.604	596
589.012	603.8
589.421	580.4
589.851	588.2
590.259	594.3
590.668	590.7
591.076	631.3
591.485	587.8
591.894	590.2
592.324	596.8
592.733	601.9
593.142	576.4
593.551	583.5
593.96	593.1
594.369	576.5
594.8	579.3
595.209	583.7
595.618	568.1
596.028	579.7
596.437	578.2
596.847	582.9
597.256	582.8
597.687	586.9
598.097	582.2
598.507	571.5
598.917	582.1
599.327	589.4
599.736	580.7
600.146	588.8
600.556	580.9
600.988	592.3
601.398	567.5
601.808	584.6
602.219	563.4
602.629	572.4
603.039	575.3
603.45	600.2
603.86	578.4
604.271	587.8
604.703	576.4
605.114	571.1
605.525	575.4
605.935	581.8
606.346	592.6
606.757	573.3
607.168	570.5
607.579	573.1
607.99	578.7
608.402	574.4
608.813	570.2
609.224	566.7
609.636	564.7
610.047	562.7
610.48	571.1
610.892	579.3
611.303	576.2
611.715	569.8
612.127	562.1
612.539	568.8
612.95	567.3
613.362	566.8
613.774	559
614.186	564.8
614.599	564.8
615.011	577.2
615.423	560.9
615.835	569.6
616.248	560.4
616.66	579.9
617.073	562.5
617.485	567.7
617.898	578.9
618.311	572.4
618.723	568
619.136	596.1
619.549	576.9
619.962	597.8
620.375	566
620.788	569.8
621.201	565.1
621.614	575.4
622.028	568.3
622.441	568.4
622.854	576.1
623.268	565.9
623.681	567.7
624.095	569.2
624.509	577.8
624.922	569.3
625.336	554.7
625.728	565
626.142	581
626.556	591.1
626.97	571.7
627.384	556.3
627.799	557.6
628.213	574.9
628.627	562.9
629.041	562.4
629.456	560.8
629.87	560.6
630.285	569.9
630.699	572.5
631.093	565.6
631.507	562.2
631.922	563.7
632.337	576.9
632.752	555.6
633.167	559
633.582	560.2
633.997	558.6
634.412	555
634.806	557.3
635.221	553.2
635.637	571.4
636.052	550.4
636.468	562.9
636.883	577.6
637.299	556
637.715	547
638.109	560.9
638.525	551
638.941	569.9
639.357	565.9
639.773	572.8
640.189	555.9
640.584	554.5
641	562.2
641.416	550.4
641.832	554.2
642.249	555.1
642.665	556.1
643.06	565.3
643.477	573.8
643.894	548
644.31	558.1
644.727	554.3
645.123	556.5
645.54	547.6
645.957	558
646.374	558.6
646.77	557.6
647.187	587.4
647.604	556.3
648.021	541.2
648.439	551.9
648.835	559.2
649.252	554.1
649.67	555.8
650.088	555.4
650.484	560.6
650.902	560.1
651.32	557.1
651.738	553.9
652.134	556.9
652.552	574.4
652.971	562.2
653.389	561.2
653.786	572.6
654.204	557.2
654.622	548.8
655.019	556.8
655.438	559.1
655.857	556
656.275	558.6
656.673	550.7
657.091	623.7
657.51	551
657.908	559.5
658.327	569.1
658.746	540.3
659.144	548
659.563	566.2
659.982	555.6
660.38	550.9
660.8	556
661.219	566.5
661.617	561.5
662.037	561.6
662.457	563.2
662.855	542.1
663.275	582.4
663.695	559.2
664.094	553.9
664.514	559.1
664.934	550.2
665.333	557.8
665.753	554.9
666.152	540.3
666.572	549.9
666.993	560.6
667.392	554.9
667.812	554.5
668.212	542.5
668.632	562.4
669.053	548.3
669.453	554
669.874	559.4
670.273	556.1
670.694	547.3
671.116	561.6
671.515	561.3
671.937	553.9
672.337	546.6
672.758	548.3
673.158	561.3
673.58	544.9
673.98	552.6
674.402	567.8
674.824	552.6
675.224	545.8
675.646	547.7
676.047	546.9
676.469	553.7
676.869	559.5
677.292	551.1
677.693	550
678.115	542.2
678.516	559.4
678.939	554.1
679.34	550.1
679.762	558.9
680.164	552
680.586	542.9
680.988	553.2
681.411	576.9
681.812	551.5
682.236	541.8
682.637	543.7
683.061	538.5
683.462	553.4
683.864	548.9
684.288	556.2
684.69	540.6
685.114	556.3
685.516	562
685.94	540.1
686.342	559.2
686.766	544.6
687.168	547.8
687.571	568.8
687.995	557
688.398	539.6
688.822	548.7
689.225	567.2
689.628	574.4
690.052	547.3
690.456	560.3
690.88	545.9
691.284	543.5
691.687	556.5
692.112	539.4
692.515	544.7
692.919	548.7
693.344	552.8
693.747	548.3
694.173	544.3
694.577	555.7
694.98	543.6
695.406	545.4
695.81	553.2
696.214	550.1
696.64	556.2
697.044	552.3
697.448	557.4
697.874	544.3
698.279	543.3
698.684	533.7
699.11	545.5
699.514	548.6
699.919	544.8
700.324	533.4
700.75	546.2
701.156	547.2
701.561	558.2
701.987	550.3
702.393	557.3
702.798	559.3
703.203	549.3
703.63	538.8
704.036	544
704.442	551.6
704.847	541.7
705.274	546.6
705.68	545.9
706.086	553.5
706.492	540.7
706.92	545.2
707.326	556.6
707.732	546.4
708.139	541.9
708.545	537.8
708.973	543.4
709.38	548
709.786	539.4
710.193	564
710.6	545.5
711.028	543.4
711.435	545.4
711.842	547.2
712.249	537.3
712.656	549.8
713.064	559.7
713.492	538
713.9	539.6
714.307	542.1
714.715	540.9
715.123	553.2
715.53	549
715.938	554.1
716.367	545.3
716.775	544.2
717.184	539.2
717.592	543
718	555.9
718.408	577
718.816	587.5
719.225	553
719.633	551.3
720.042	538
720.472	546
720.881	567.4
721.29	548.5
721.699	537.9
722.108	546.6
722.517	548.6
722.926	545.3
723.335	554.1
723.744	540.8
724.154	546.8
724.563	541.7
724.973	547
725.382	546.4
725.792	543.8
726.202	538.9
726.612	558
727.022	542.7
727.432	534.5
779.813	544.9
780.223	581.6
780.634	545.7
781.044	543.8
781.454	542.9
781.865	557.4
782.276	535.6
782.686	555.5
783.097	541.6
783.508	544.3
783.919	545.7
784.33	554.6
784.741	554.1
785.152	537.8
785.563	532.4
785.974	543
786.386	556.8
786.776	542.7
787.188	548
787.599	537
788.011	553.1
788.423	550.4
788.835	542.9
789.247	537.3
789.659	538.2
790.071	544.6
790.483	582.8
790.874	544.9
791.286	552.7
791.699	540
792.111	547.8
792.524	550.7
792.937	543.4
793.349	537
793.741	536
794.154	539.3
794.567	557.3
794.98	541.7
795.393	529
795.785	563.2
796.198	536.7
796.612	538.7
797.026	546.8
797.439	529.1
797.831	542.8
798.245	536.8
798.659	547.3
799.073	539.9
799.487	542.3
799.88	544.5
800.294	545.6
800.708	550.6
801.123	543
801.516	562.4
801.93	535.4
802.345	529.8
802.76	547.3
803.153	561.4
803.568	552.5
803.983	559.4
804.377	545
804.792	538.1
805.207	536.5
805.601	541.8
806.016	571.2
806.432	540.6
806.826	569.4
807.242	557.6
807.658	545.2
808.052	540.9
808.468	545.3
808.884	537.2
809.279	545.6
809.695	558.5
810.111	564.6
810.506	551.6
810.922	557.5
811.339	538.8
811.734	545.6
812.151	541.4
812.546	539.4
812.963	540.9
813.38	545.8
813.776	546.6
814.193	567.6
814.589	539.5
815.006	539.6
815.402	538
815.82	540.6
816.237	547
816.633	542.9
817.051	540.8
817.448	546.1
817.866	534.2
818.262	561
818.68	535.3
819.077	541.5
819.495	543
819.892	581.2
820.311	536.6
820.708	538.3
821.127	536
821.524	554.1
821.943	544.7
822.34	564.1
822.759	541.3
823.157	543.1
823.576	554.8
823.974	550.5
824.393	553.3
824.791	539
825.189	533.4
825.609	537.4
826.007	538.5
826.427	534.4
826.826	533.6
827.246	546
827.644	528.5
828.043	550.5
828.463	543.6
828.862	546.2
829.261	548.3
829.682	534.6
830.081	547.1
830.502	535.7
830.901	550.1
831.301	536.1
831.722	532.6
832.121	545.9
832.521	534.7
832.943	548.5
833.342	545.9
833.742	533.3
834.164	535.8
834.564	532.8
834.965	540.4
835.386	541.4
835.787	543.3
836.188	537.6
836.588	541.5
837.01	545
837.411	537.2
837.812	543.7
838.213	538.2
838.636	534.6
839.037	605
839.438	544
839.84	539.7
840.263	550.5
840.664	540.4
841.066	540.4
841.468	542.2
841.891	541.4
842.293	553.5
842.695	542.8
843.098	546.1
843.5	535.2
