#lambda/nm	C1
208.295	473.3
208.67	440.2
209.045	401.8
209.419	406.8
209.794	583.6
210.169	560.1
210.544	674.2
210.919	579.8
211.295	571
211.67	573.4
212.045	565.4
212.421	573.7
212.796	606
213.172	568.7
213.547	570
213.923	571.7
214.299	571.7
214.675	581.3
215.051	576.6
215.427	580.9
215.803	591
216.179	578.8
216.555	568.2
216.932	582.3
217.308	576.1
217.684	571.4
218.061	579.5
218.438	574.5
218.814	567.9
219.191	578.7
219.568	569.1
219.945	572.8
220.322	582.5
220.699	577.6
221.076	583
221.453	577.7
221.83	571.8
222.208	568.4
222.585	565.9
222.962	577.1
223.34	578.4
223.717	574.4
224.095	573.3
224.473	577.5
224.851	563.8
225.229	568.3
225.607	586.9
225.985	564.4
226.363	577.9
226.741	575.7
227.119	575.5
227.497	588.8
227.876	563.6
228.254	582.5
228.633	582.1
229.011	575.1
229.39	581.7
229.769	581
230.148	581.9
230.527	592.9
230.905	575.7
231.284	576.5
231.664	567.1
232.043	587.1
232.422	583.5
232.801	571.9
233.181	580.6
233.56	569
233.94	574
234.319	563.8
234.699	572.2
235.079	610.4
235.458	605.2
235.838	582.6
236.218	566
236.598	560.8
236.978	572.1
237.358	568.5
237.738	567.1
238.119	579.8
238.499	564.7
238.88	571.8
239.26	591.5
239.641	562
240.021	571
240.402	574.1
240.783	575.3
241.163	576.8
241.544	577.4
241.925	572.7
242.306	587.6
242.687	569.2
243.069	580.4
243.45	579.4
243.831	573.3
244.212	570.6
244.594	607.3
244.975	581.4
245.357	574.1
245.739	569.4
246.12	575
246.502	583.1
246.884	571.7
247.266	569.3
247.648	578.3
248.03	595.1
248.412	574.4
248.794	580.2
249.176	565.1
249.559	587.2
249.941	569.9
250.323	569.5
250.706	570
251.089	571.8
251.471	576.4
251.854	581.8
252.237	578.1
252.62	586.9
253.002	578.4
253.385	575.4
253.769	589.7
254.152	579.9
254.535	583.3
254.918	576.5
255.301	576.1
255.685	570.4
256.068	566.7
256.452	596
256.835	581.8
257.219	574.9
257.603	583.6
257.986	569.5
258.37	580.6
258.754	569
259.138	582.5
259.522	586.5
259.906	572.2
260.29	573.4
260.675	570.1
261.059	584.5
261.443	564.9
261.828	577.1
262.212	583.2
262.597	570.7
262.981	576.4
263.366	583.9
263.751	579.9
264.136	570.2
264.521	571.8
264.906	560.9
265.291	588
265.676	575.3
266.061	580.9
266.446	587.3
266.831	572.7
267.217	593.4
267.602	570.8
267.987	575.9
268.373	571.3
268.759	586.7
269.144	576.2
269.53	576.8
269.916	570
270.302	566.7
270.688	580.3
271.074	576.6
271.46	585.1
271.846	606.4
272.232	568
272.618	575.1
273.004	570.7
273.391	590.5
273.777	584.7
274.164	579.4
274.55	587.4
274.937	574.9
275.324	573.7
275.71	581.7
276.097	582.5
276.484	569.5
276.871	581.1
277.258	588.6
277.645	566.1
278.032	562.5
278.419	576.3
278.807	577.9
279.194	569.7
279.581	567.3
279.969	582.2
280.356	576
280.744	575.6
281.131	602.1
281.519	591.3
281.907	571.9
282.295	575.7
282.682	585.2
283.07	579.8
283.458	581.9
283.846	583.2
284.235	586
284.623	585
285.011	566.3
285.399	577.4
285.788	574.1
286.176	565.3
286.565	586.5
286.953	574
287.342	572.5
287.731	565.4
288.119	563.7
288.508	568.5
288.897	576.9
289.286	564
289.675	574.2
290.064	584.6
290.453	571.1
290.821	575.2
291.21	586.9
291.599	569.5
291.989	575.3
292.378	586.2
292.768	590.1
293.157	581.9
293.547	579.8
293.936	573.4
294.326	572.6
294.716	583.3
295.106	569.6
295.496	576.7
295.886	585
296.276	575.7
296.666	567
297.056	572.7
297.446	562.8
297.836	595.4
298.227	571.1
298.617	575.7
299.008	590.1
299.398	576.3
299.789	582.4
300.179	582.6
300.57	588.1
300.961	567.8
301.352	577.1
301.742	588
302.133	580.9
302.524	573.3
302.915	573.6
303.307	573
303.698	579.1
304.089	580.5
304.48	577
304.872	578.7
305.263	580
305.655	575.1
306.046	580.2
306.438	582.7
306.829	573.1
307.221	588.2
307.613	580.6
308.005	589
308.397	589.6
308.789	594.6
309.181	601.3
309.573	596
309.965	590.9
310.357	572
310.749	584.1
311.142	566.7
311.534	571.9
311.926	584
312.319	581.9
312.711	572
313.104	587.7
313.497	577.7
313.889	619.5
314.282	590.5
314.675	604.2
315.068	584.2
315.461	586.8
315.854	606.5
316.247	583
316.64	575.2
317.033	578.4
317.405	590.7
317.798	577.4
318.192	582.9
318.585	572.5
318.979	588.7
319.372	565.7
319.766	579.6
320.16	587.9
320.553	595.6
320.947	597
321.341	575.2
321.735	577.4
322.129	563.2
322.523	599
322.917	572.9
323.311	580.6
323.705	578.8
324.099	581.8
324.494	588.1
324.888	585.4
325.282	575.8
325.677	575.9
326.071	581.2
326.466	587.4
326.861	580.5
327.255	590.1
327.65	588.5
328.045	596.5
328.44	579.9
328.835	577.1
329.23	569.8
329.625	601.9
330.02	571.8
330.415	598.7
330.81	581.7
331.206	578.5
331.601	569
331.996	584.2
332.37	591.9
332.766	569.8
333.161	598
333.557	569.8
333.953	568.6
334.348	944.7
334.744	581.4
335.14	571.1
335.536	571.8
335.932	591.1
336.328	574.5
336.724	579.9
337.12	576.7
337.516	582.4
337.913	578.2
338.309	586.8
338.705	576.2
339.102	588.4
339.498	572.1
339.895	583.8
340.291	573.4
340.688	581.4
341.085	566.4
341.481	576.5
341.878	574.7
342.275	595.9
342.672	572.9
343.069	572.4
343.466	566.5
343.842	584.1
344.239	572.8
344.636	576
345.033	566.9
345.431	570
345.828	576.1
346.225	569.5
346.623	583.8
347.02	577
347.418	581.8
347.816	589.4
348.213	566.2
348.611	577.2
349.009	574.2
349.407	581.1
349.805	568.2
350.203	564.6
350.601	588.7
350.999	567.4
351.397	567.6
351.795	575
352.193	587.1
352.57	580.7
352.969	583.3
353.367	566.7
353.766	563.5
354.164	570.6
354.563	583.6
354.961	577.1
355.36	569.9
355.759	572.4
356.158	565.9
356.557	568.3
356.956	565.9
357.355	561
357.754	572.4
358.153	577.2
358.552	595.3
358.951	572.4
359.35	583.7
359.75	566.5
360.149	564.5
360.527	557.3
360.926	560.9
361.326	572.7
361.726	568
362.125	560.1
362.525	574.4
362.925	573.1
363.325	568
363.724	571.2
364.124	569
364.524	557.4
364.924	567
365.324	579.5
365.725	553.9
366.125	574.1
366.525	569.1
366.904	560.1
367.304	557
367.705	581.3
368.105	584
368.506	567.3
368.906	572.4
369.307	569.9
369.708	577.7
370.108	555.4
370.509	580.1
370.91	567.1
371.311	570.7
371.712	571.8
372.113	563.7
372.514	561.2
372.894	569.2
373.295	565.5
373.696	583
374.097	580.9
374.499	600.8
374.9	575.3
375.301	563.1
375.703	572.7
376.105	562.4
376.506	573.6
376.908	573.6
377.309	565.8
377.711	573.9
378.113	568.2
378.493	570.5
378.895	560.6
379.297	575.8
379.699	556.5
380.102	573
380.504	567.4
380.906	564.6
381.308	593.9
381.71	564.8
382.113	577.4
382.515	562.5
382.918	574.3
383.299	567.4
383.701	571.3
384.104	568
384.507	553
384.909	568.6
385.312	561.7
385.715	559.7
386.118	563.4
386.521	560.2
386.924	569.6
387.327	558.3
387.709	553.7
388.112	553.6
388.515	562.1
388.918	563.4
389.322	569.9
389.725	560.9
390.129	584.2
390.532	569.3
390.936	559.8
391.339	562.8
391.743	570.8
392.125	561.5
392.529	578.4
392.933	578.1
393.337	567.7
393.74	571
394.144	568.8
394.548	557
394.953	565
395.357	575.7
395.761	563.6
396.144	561
396.548	566.3
396.952	568.6
397.357	569
397.761	565.9
398.166	563
398.57	566.4
398.975	558.4
399.379	564.4
399.763	613.4
400.168	570.2
400.572	562.7
400.977	564.4
401.382	581.3
401.787	579.9
402.192	582.7
402.597	583.8
403.002	556
403.386	580.1
403.791	583
404.197	559.9
404.602	566.7
405.007	567.8
405.413	559.2
405.818	561.1
406.224	564.4
406.608	558.9
407.014	564.1
407.42	585.6
407.825	567.3
408.231	579.5
408.637	571.5
409.043	581.2
409.449	564.1
409.834	567.2
410.24	565.8
410.646	582.3
411.052	579.8
411.458	570.2
411.865	576.1
412.271	581.7
412.677	566.6
413.062	583
413.469	558.5
413.875	589.7
414.282	583.5
414.689	574
415.095	575.7
415.502	567.3
415.888	567.8
416.294	558.5
416.701	609.1
417.108	569.3
417.515	575.9
417.923	566.3
418.33	588
418.715	576.3
419.123	569.5
419.53	566.1
419.937	571.1
420.345	586.9
420.752	563.3
421.16	580.6
421.546	571.2
421.953	577.5
422.361	563
422.769	572.2
423.177	560.1
423.585	592.4
423.992	592.6
424.379	583.4
424.787	577.5
425.195	588.8
425.603	566.4
426.011	580
426.419	582.8
426.806	571.2
427.214	576.7
427.623	580.8
428.031	585.1
428.44	580.1
428.848	580.5
429.235	590.9
429.644	577.4
430.053	582
430.461	599.8
430.87	615.3
431.279	605.3
431.666	595.2
432.075	606.7
432.484	615.8
432.893	618
433.302	653.6
433.711	677.5
434.099	657.9
434.508	665.3
434.918	671.6
435.327	708.7
435.737	721.3
436.125	742.4
436.534	752.7
436.944	771.9
437.353	791.1
437.763	823.4
438.173	823.9
438.561	856.3
438.971	851.1
439.381	887.8
439.791	901.6
440.201	902.6
440.589	941.9
440.999	964.6
441.409	974.4
441.819	986.2
442.23	1023.7
442.619	1029.9
443.029	1045.3
443.439	1069.7
443.85	1089.7
444.26	1108.6
444.649	1119.1
445.06	1128.3
445.471	1126.7
445.881	1138
446.292	1171.5
446.682	1193.7
447.092	1182.8
447.503	1249
447.914	1216.8
448.325	1217.5
448.715	1229.7
449.126	1227.7
449.537	1243.1
449.948	1251.8
450.338	1265.9
450.75	1265.1
451.161	1273.8
451.572	1280
451.984	1276.1
452.374	1266.4
452.786	1287.9
453.197	1300.6
453.609	1303.3
453.999	1291
454.411	1289.5
454.823	1319.1
455.235	1318.5
455.647	1313.1
456.037	1312.4
456.449	1303.4
456.862	1320.8
457.274	1319.6
457.665	1314.6
458.077	1335.6
458.489	1338.3
458.902	1325.1
459.293	1336.7
459.705	1326.8
460.118	1334.6
460.53	1332.5
460.921	1321
461.334	1329
461.747	1324.2
462.16	1330.6
462.551	1332.7
462.964	1331.3
463.377	1306.5
463.79	1317.2
464.182	1343.9
464.595	1329
465.008	1326.7
465.421	1330.1
465.813	1317.5
466.226	1328.6
466.64	1317.8
467.053	1362
467.445	1319.5
467.859	1308.8
468.272	1310.3
468.686	1312.7
469.078	1314.3
469.492	1301
469.906	1296.7
470.298	1297
470.712	1287.4
471.126	1325.3
471.54	1277.1
471.933	1278
472.347	1284.8
472.761	1267.8
473.175	1265.9
473.568	1264.3
473.982	1248.4
474.397	1264.9
474.79	1260.7
475.204	1261.9
475.619	1259.5
476.033	1248.9
476.426	1249.6
476.841	1242.4
477.256	1269.7
477.649	1225.6
478.064	1230.8
478.479	1225
478.872	1223.5
479.287	1216.1
479.702	1215.1
480.118	1217.5
480.511	1210.7
480.927	1197.9
481.342	1208.3
481.736	1205.4
482.151	1196.4
482.566	1206.9
482.96	1199
483.376	1190.1
483.792	1186.5
484.186	1191.8
484.602	1184.9
485.017	1180.1
485.412	1177.2
485.827	1175.8
486.243	1170.9
486.638	1185.2
487.054	1169.8
487.47	1174
487.865	1165.6
488.281	1154
488.697	1144.8
489.092	1138.9
489.508	1131.2
489.925	1148.8
490.32	1131.3
490.736	1136.1
491.153	1128.4
491.548	1117.2
491.964	1131
492.381	1093.9
492.776	1119.4
493.193	1101.4
493.61	1106.1
494.006	1084.8
494.422	1095.2
494.84	1069.1
495.235	1085.3
495.652	1071.6
496.069	1062.5
496.465	1054.6
496.883	1058
497.3	1083.7
497.696	1051.4
498.113	1057.2
498.509	1041.8
498.927	1034.9
499.344	1032.2
499.741	1027.3
500.158	1029.1
500.576	1032.4
500.973	1035.4
501.39	1009.2
501.787	1012
502.205	1009.2
502.623	999.1
503.02	989.4
503.438	994.5
503.856	995
504.253	984.6
504.671	975.4
505.068	977.5
505.486	960.8
505.905	987.7
506.302	972.1
506.72	967.4
507.118	951
507.536	956.8
507.955	953.4
508.352	950.3
508.771	942.4
509.169	946.6
509.587	928.7
510.006	932.7
510.404	917.1
510.823	910.1
511.221	925.5
511.64	915
512.038	925.8
512.457	908.1
512.877	896.4
513.275	893.9
513.694	895.5
514.092	896.9
514.512	884.2
514.91	873.3
515.33	875.4
515.749	883.4
516.148	882.3
516.568	883.2
516.966	873.5
517.386	868.3
517.785	871.2
518.205	858.1
518.603	849.8
519.024	851
519.444	857.8
519.843	854.8
520.263	853.1
520.662	846.5
521.082	833.9
521.481	833.2
521.902	833
522.301	836
522.722	823.1
523.121	822.6
523.542	819.5
523.963	819
524.362	818.4
524.783	819.2
525.183	807.6
525.604	810.8
526.003	798.6
526.425	799.9
526.824	801.8
527.246	804.5
527.646	798.3
528.067	791.3
528.467	789.7
528.888	789.3
529.289	775.5
529.71	777
530.11	774.4
530.532	765.6
530.932	766.9
531.354	761.9
531.755	799.8
532.176	769.3
532.577	759.3
532.999	768.4
533.4	750.5
533.822	762.1
534.223	749.6
534.645	749.4
535.046	747.1
535.468	748.2
535.869	753.4
536.292	742.3
536.693	735.8
537.115	743.1
537.516	734.2
537.939	730.7
538.34	755.5
538.742	739.7
539.165	736.6
539.566	737.9
539.989	728.7
540.391	728
540.814	726.9
541.216	727.8
541.639	727.1
542.041	727.4
542.464	718.4
542.866	721.1
543.268	713.6
543.691	723.7
544.093	719.4
544.517	729.1
544.919	704.2
545.343	733.3
545.745	698.9
546.147	706.3
546.571	703.8
546.974	688
547.398	700
547.8	708.5
548.224	691.6
548.627	694.7
549.03	693.4
549.454	690.1
549.857	679.6
550.281	681.1
550.684	677.4
551.087	690.5
551.512	679.6
551.915	684.7
552.34	678.5
552.743	674
553.146	681.1
553.571	671.7
553.975	687.6
554.399	661.5
554.803	708.7
555.207	664
555.632	662.1
556.036	673.7
556.461	661.1
556.865	668.7
557.268	657.1
557.694	662.2
558.098	663.1
558.502	657.7
558.927	647.4
559.332	653.4
559.736	659.3
560.162	661.6
560.566	647.4
560.992	659.3
561.396	650.4
561.801	650
562.227	647.1
562.631	644.9
563.036	642.5
563.462	652.8
563.867	636.7
564.272	638.9
564.698	645.9
565.103	630.4
565.508	660.8
565.935	633.2
566.34	637.6
566.745	648.4
567.172	630.9
567.577	657.8
567.982	650.1
568.409	633.1
568.815	621.4
569.22	632.2
569.626	632.7
570.053	621.8
570.459	631.2
570.865	634.4
571.292	636.8
571.698	631.1
572.104	615.3
572.531	622.1
572.937	634.1
573.343	617.8
573.75	610.9
574.177	618.7
574.583	629.3
574.99	617.2
575.396	621.5
575.824	615.2
576.231	619.3
576.637	612.1
577.065	636.5
577.472	605.3
577.879	605.8
578.286	627.9
578.714	598.6
579.121	610.1
579.528	615.4
579.935	612.3
580.364	605.8
580.771	595.2
581.178	596.1
581.585	612.5
582.014	607.3
582.421	604.4
582.829	603.4
583.236	609.8
583.644	599.1
584.073	598.5
584.481	601.7
584.889	597.3
585.296	604
585.726	599.9
586.134	592.6
586.542	596.7
586.95	616.6
587.358	587.5
587.787	597.9
588.196	587.9
588.604	590.8
589.012	596.3
589.421	585.3
589.851	588.2
590.259	592.8
590.668	586.1
591.076	627.2
591.485	583.8
591.894	592.9
592.324	612.9
592.733	598.4
593.142	579.4
593.551	580.7
593.96	593.3
594.369	577.9
594.8	578.7
595.209	582.8
595.618	568.4
596.028	579.1
596.437	574.1
596.847	585.1
597.256	585.2
597.687	582.3
598.097	583.1
598.507	574.9
598.917	577.5
599.327	586.7
599.736	576.3
600.146	586.2
600.556	581.8
600.988	590.8
601.398	581.5
601.808	582.6
602.219	571
602.629	578.2
603.039	579.2
603.45	601.4
603.86	580.2
604.271	592.4
604.703	573.7
605.114	567.7
605.525	579.9
605.935	575.2
606.346	590
606.757	570.9
607.168	573.6
607.579	564.7
607.99	576.5
608.402	570.8
608.813	573.9
609.224	566.9
609.636	564.6
610.047	561.6
610.48	572.7
610.892	575
611.303	579.2
611.715	568.6
612.127	562.5
612.539	566.1
612.95	568.8
613.362	557.9
613.774	561
614.186	561.3
614.599	563.6
615.011	574.2
615.423	562
615.835	563.9
616.248	560.6
616.66	572.3
617.073	561.6
617.485	566.2
617.898	578.9
618.311	566.1
618.723	565.3
619.136	594
619.549	581.8
619.962	585.1
620.375	569.1
620.788	578.2
621.201	563.9
621.614	575.3
622.028	564
622.441	573.9
622.854	582.8
623.268	562.9
623.681	572.1
624.095	561.9
624.509	575.9
624.922	568.9
625.336	561
625.728	568.1
626.142	568.7
626.556	582.1
626.97	572.7
627.384	562.9
627.799	561.7
628.213	574.6
628.627	559.6
629.041	558.4
629.456	561
629.87	565.2
630.285	573.2
630.699	575
631.093	568.3
631.507	568.1
631.922	565.4
632.337	577.1
632.752	553.7
633.167	563.6
633.582	557
633.997	559.3
634.412	556.7
634.806	567.6
635.221	554.1
635.637	565.5
636.052	550.4
636.468	563.8
636.883	584.4
637.299	561.5
637.715	550.6
638.109	560.4
638.525	553.3
638.941	573.1
639.357	566.3
639.773	570.6
640.189	550.4
640.584	561.1
641	563.8
641.416	547.4
641.832	556.4
642.249	554.7
642.665	559.4
643.06	564
643.477	562.5
643.894	543.7
644.31	552.9
644.727	561.5
645.123	555.4
645.54	550.8
645.957	560
646.374	557.3
646.77	557
647.187	586.8
647.604	558.5
648.021	539.6
648.439	548.9
648.835	561.9
649.252	553.8
649.67	553.2
650.088	556.8
650.484	560.4
650.902	562
651.32	558.3
651.738	555.2
652.134	557.1
652.552	573.3
652.971	563
653.389	551.7
653.786	569
654.204	556.5
654.622	551.4
655.019	560.2
655.438	563.1
655.857	557.5
656.275	557.1
656.673	551.1
657.091	618
657.51	551.5
657.908	559.1
658.327	567.5
658.746	542.6
659.144	554.6
659.563	565.8
659.982	555
660.38	541.7
660.8	552.6
661.219	565.7
661.617	560
662.037	549.7
662.457	562.9
662.855	539.7
663.275	578.2
663.695	556.7
664.094	551.9
664.514	552.4
664.934	549.3
665.333	561.2
665.753	548.8
666.152	545.3
666.572	544.5
666.993	565.5
667.392	545
667.812	552.8
668.212	548.2
668.632	563.1
669.053	548.5
669.453	557.7
669.874	552.1
670.273	551
670.694	546.3
671.116	565.2
671.515	563.1
671.937	549.8
672.337	541.9
672.758	544.7
673.158	558.4
673.58	545.8
673.98	553.9
674.402	559.8
674.824	548.7
675.224	545.3
675.646	550.4
676.047	548
676.469	552.3
676.869	563.4
677.292	548.8
677.693	545.5
678.115	550.6
678.516	549.5
678.939	559.2
679.34	549.6
679.762	561.1
680.164	548.8
680.586	542
680.988	551.4
681.411	576.2
681.812	549.9
682.236	541.5
682.637	545.4
683.061	538.9
683.462	548.2
683.864	541.1
684.288	557.2
684.69	540.4
685.114	561.2
685.516	563.3
685.94	543
686.342	557
686.766	543
687.168	547.1
687.571	568.3
687.995	551.2
688.398	541.8
688.822	546.5
689.225	560.9
689.628	563.1
690.052	545.3
690.456	550.4
690.88	554.4
691.284	542.8
691.687	559.7
692.112	540.9
692.515	542.9
692.919	550.6
693.344	558.8
693.747	548.6
694.173	539.3
694.577	561.9
694.98	545.6
695.406	544
695.81	547.8
696.214	557
696.64	553
697.044	551
697.448	555.2
697.874	545.5
698.279	549.2
698.684	536.6
699.11	549.7
699.514	546.3
699.919	544.4
700.324	542.2
700.75	548.1
701.156	550.1
701.561	558.9
701.987	552.5
702.393	552.8
702.798	556.2
703.203	554.3
703.63	541.5
704.036	543.8
704.442	556.2
704.847	543.6
705.274	542.3
705.68	554.3
706.086	557.8
706.492	541.5
706.92	546.1
707.326	555.1
707.732	546.7
708.139	540.5
708.545	540.2
708.973	545
709.38	543.6
709.786	536.4
710.193	562.8
710.6	550
711.028	539.2
711.435	540.9
711.842	539.4
712.249	543.5
712.656	546.3
713.064	548.6
713.492	538.8
713.9	545.7
714.307	555.8
714.715	549.5
715.123	545.4
715.53	543.1
715.938	554.9
716.367	547.1
716.775	545.7
717.184	538.7
717.592	547.7
718	553.8
718.408	586.8
718.816	588.7
719.225	548.1
719.633	543
720.042	540.4
720.472	544.5
720.881	562.9
721.29	551.1
721.699	542
722.108	547.3
722.517	548.5
722.926	544.7
723.335	558
723.744	547.2
724.154	546.8
724.563	548.8
724.973	545.1
725.382	549.5
725.792	543.5
726.202	540.6
726.612	554.7
727.022	546.1
727.432	540.3
779.813	546.1
780.223	589.2
780.634	540.8
781.044	538.9
781.454	547.7
781.865	553.1
782.276	538.2
782.686	555.4
783.097	543
783.508	549.4
783.919	546.5
784.33	551.4
784.741	559.8
785.152	538.3
785.563	533.9
785.974	542.6
786.386	552.6
786.776	538
787.188	546.1
787.599	543
788.011	550.2
788.423	551.9
788.835	542.1
789.247	536.5
789.659	543.5
790.071	535.9
790.483	578.5
790.874	544.2
791.286	545.8
791.699	537
792.111	547.7
792.524	547.8
792.937	543.9
793.349	532.2
793.741	538.4
794.154	535.3
794.567	558.7
794.98	544.4
795.393	533.4
795.785	561.7
796.198	541.3
796.612	543.3
797.026	542.4
797.439	528.6
797.831	547.1
798.245	536.1
798.659	542.8
799.073	542.9
799.487	542.5
799.88	546.4
800.294	543.2
800.708	550.6
801.123	553.6
801.516	564.7
801.93	536.7
802.345	534.1
802.76	543.9
803.153	557.6
803.568	556.5
803.983	549.2
804.377	551.2
804.792	539
805.207	537.1
805.601	549.5
806.016	573.1
806.432	540.9
806.826	569.4
807.242	555.4
807.658	551.5
808.052	542.1
808.468	537.6
808.884	534.5
809.279	545.3
809.695	554.5
810.111	560.4
810.506	548.2
810.922	565.5
811.339	538.8
811.734	551.5
812.151	537.9
812.546	542.3
812.963	536.4
813.38	542.1
813.776	541.6
814.193	561.6
814.589	539.2
815.006	542.9
815.402	535.4
815.82	538.4
816.237	538.3
816.633	539.3
817.051	537
817.448	539.3
817.866	533
818.262	557.9
818.68	539.4
819.077	542.7
819.495	536.6
819.892	575.5
820.311	533
820.708	535.8
821.127	537.9
821.524	553.5
821.943	546
822.34	559.1
822.759	545.7
823.157	544.2
823.576	553.6
823.974	547
824.393	549.5
824.791	535.5
825.189	536.4
825.609	542.2
826.007	544
826.427	528.3
826.826	543.6
827.246	545
827.644	528.2
828.043	552.8
828.463	538.9
828.862	552.4
829.261	546.7
829.682	527.3
830.081	544.5
830.502	538.3
830.901	544.6
831.301	536.9
831.722	535.4
832.121	542.3
832.521	541
832.943	543.5
833.342	538.6
833.742	539.1
834.164	538.6
834.564	537.4
834.965	542.4
835.386	542.3
835.787	541
836.188	536.9
836.588	546.5
837.01	537.7
837.411	534.1
837.812	541.5
838.213	546.2
838.636	534.2
839.037	606.9
839.438	543
839.84	545.2
840.263	552.7
840.664	546.1
841.066	542.2
841.468	545.8
841.891	541.2
842.293	547.6
842.695	550.3
843.098	549.4
843.5	537.8
843.902	550.4
