#lambda/nm	C1
208.295	467.7
208.67	436.1
209.045	399.3
209.419	403.1
209.794	586.1
210.169	564.9
210.544	683.1
210.919	581.8
211.295	570.9
211.67	586.7
212.045	575.2
212.421	579.1
212.796	611.5
213.172	567.6
213.547	571.2
213.923	576.7
214.299	575.3
214.675	583.7
215.051	580
215.427	588
215.803	596.6
216.179	584.3
216.555	574.3
216.932	581.4
217.308	575.3
217.684	577.7
218.061	584.5
218.438	581.6
218.814	576.6
219.191	586.2
219.568	573.9
219.945	579.3
220.322	583.6
220.699	577.7
221.076	585.5
221.453	582.7
221.83	573
222.208	571.7
222.585	568.1
222.962	578.6
223.34	583
223.717	583.7
224.095	580.1
224.473	584.9
224.851	573.4
225.229	571
225.607	600.9
225.985	567.2
226.363	581.6
226.741	584.4
227.119	579.2
227.497	595.9
227.876	572.7
228.254	586.2
228.633	588.4
229.011	581
229.39	587
229.769	583.8
230.148	590.4
230.527	606.7
230.905	580.7
231.284	585.5
231.664	575.9
232.043	596.9
232.422	591.4
232.801	575.1
233.181	587.4
233.56	578.1
233.94	580.6
234.319	563.4
234.699	581
235.079	618.8
235.458	618.5
235.838	595.9
236.218	574.6
236.598	568.1
236.978	572.5
237.358	576.8
237.738	571.5
238.119	588.3
238.499	572.2
238.88	583.6
239.26	594.3
239.641	568
240.021	576.3
240.402	575.9
240.783	576.4
241.163	576.8
241.544	586.6
241.925	576.6
242.306	591.4
242.687	573.5
243.069	579.5
243.45	586.7
243.831	576.9
244.212	573.5
244.594	615.9
244.975	590.8
245.357	580.2
245.739	571
246.12	581.5
246.502	590
246.884	579.2
247.266	574.8
247.648	580.6
248.03	599.9
248.412	579.2
248.794	579.2
249.176	571.5
249.559	591
249.941	568
250.323	569.7
250.706	570.6
251.089	581.2
251.471	578.4
251.854	581.5
252.237	574.8
252.62	589.2
253.002	580.3
253.385	576.1
253.769	593.1
254.152	580.7
254.535	593.5
254.918	572.5
255.301	578.8
255.685	575.1
256.068	570.6
256.452	598
256.835	586.5
257.219	585.6
257.603	590.3
257.986	572.2
258.37	581.5
258.754	570
259.138	586.6
259.522	584.6
259.906	576.6
260.29	580
260.675	574.5
261.059	577.9
261.443	570.5
261.828	587.3
262.212	581.1
262.597	570.4
262.981	575.8
263.366	586.3
263.751	583.3
264.136	572.9
264.521	578.1
264.906	576.1
265.291	587.1
265.676	575.2
266.061	588.2
266.446	593.6
266.831	580.4
267.217	599.4
267.602	578.6
267.987	577.8
268.373	579.7
268.759	590.5
269.144	580.6
269.53	580.8
269.916	574.2
270.302	577.5
270.688	587
271.074	587.5
271.46	590.5
271.846	610.4
272.232	584.1
272.618	577.2
273.004	576
273.391	585.9
273.777	591.7
274.164	585.3
274.55	593.9
274.937	583.2
275.324	577.4
275.71	584.3
276.097	583.3
276.484	576
276.871	585.2
277.258	585.6
277.645	577
278.032	582.3
278.419	577.6
278.807	590.3
279.194	573.1
279.581	578.9
279.969	590.4
280.356	582.3
280.744	589.5
281.131	608.1
281.519	586
281.907	575
282.295	576.4
282.682	592.3
283.07	587.5
283.458	587.4
283.846	593.1
284.235	588.4
284.623	592.8
285.011	574.4
285.399	578.2
285.788	580.5
286.176	567.6
286.565	594
286.953	581
287.342	578.1
287.731	570.8
288.119	573.6
288.508	578.7
288.897	581.5
289.286	566.9
289.675	580.6
290.064	595.4
290.453	572
290.821	584.2
291.21	595.1
291.599	582.7
291.989	581.8
292.378	589.9
292.768	602.1
293.157	588
293.547	589.7
293.936	579.4
294.326	580.9
294.716	588.3
295.106	580.8
295.496	595.7
295.886	595.2
296.276	572
296.666	575.4
297.056	575.5
297.446	567
297.836	602.8
298.227	575.7
298.617	584.5
299.008	593.1
299.398	578.5
299.789	579.4
300.179	586.5
300.57	594.8
300.961	575.5
301.352	585.2
301.742	595.7
302.133	584.4
302.524	583.3
302.915	584.4
303.307	576.8
303.698	591.9
304.089	586.2
304.48	580.8
304.872	590.1
305.263	584
305.655	572.6
306.046	590.3
306.438	581.2
306.829	575.2
307.221	597.4
307.613	586
308.005	589.4
308.397	594.8
308.789	606.4
309.181	610.4
309.573	600.3
309.965	597
310.357	579.2
310.749	585.2
311.142	580.2
311.534	579.3
311.926	587.2
312.319	583.3
312.711	574.9
313.104	595.5
313.497	575.8
313.889	616.5
314.282	596
314.675	607
315.068	583.1
315.461	581.8
315.854	615.7
316.247	589.4
316.64	582.5
317.033	583.7
317.405	598
317.798	575.5
318.192	583.4
318.585	574.9
318.979	589.3
319.372	576
319.766	577.5
320.16	589.2
320.553	595.6
320.947	606.4
321.341	581.4
321.735	583.4
322.129	571.3
322.523	607.5
322.917	572.7
323.311	593.8
323.705	591.6
324.099	589.6
324.494	600.6
324.888	588.9
325.282	584
325.677	589.4
326.071	589.6
326.466	594
326.861	591.2
327.255	598.5
327.65	594.8
328.045	597.4
328.44	586.6
328.835	585.1
329.23	575.5
329.625	607.7
330.02	573.4
330.415	605.7
330.81	588.4
331.206	588.4
331.601	580.3
331.996	588.8
332.37	597.5
332.766	575.7
333.161	608.8
333.557	580.7
333.953	589.4
334.348	870.7
334.744	585.9
335.14	575.9
335.536	577.2
335.932	584.8
336.328	575.6
336.724	591.1
337.12	582.1
337.516	584.9
337.913	579.5
338.309	591.9
338.705	579.8
339.102	590.2
339.498	574.1
339.895	594.7
340.291	581.5
340.688	591.2
341.085	573.7
341.481	577.7
341.878	584.7
342.275	600.4
342.672	572.2
343.069	577.5
343.466	568.1
343.842	588.6
344.239	574.9
344.636	582.6
345.033	574.6
345.431	568.8
345.828	580.5
346.225	574.2
346.623	584.5
347.02	575
347.418	587.8
347.816	593.6
348.213	573.5
348.611	585.7
349.009	578.1
349.407	594
349.805	569.9
350.203	569.5
350.601	592.2
350.999	573.5
351.397	573.2
351.795	573.3
352.193	590.7
352.57	588.1
352.969	588.6
353.367	573.1
353.766	566.4
354.164	573
354.563	585.4
354.961	576.4
355.36	577.7
355.759	571.5
356.158	569.4
356.557	575.1
356.956	567.3
357.355	565.9
357.754	579.3
358.153	585.3
358.552	602
358.951	574.8
359.35	584.4
359.75	574.2
360.149	571.6
360.527	562.9
360.926	566.1
361.326	581.7
361.726	574.9
362.125	566.5
362.525	586.1
362.925	577.3
363.325	576.8
363.724	576.7
364.124	578.1
364.524	567.5
364.924	574.4
365.324	585
365.725	559.7
366.125	576.8
366.525	579.3
366.904	571.6
367.304	557.5
367.705	592.8
368.105	590.8
368.506	569.9
368.906	580.3
369.307	567.2
369.708	581.3
370.108	560.4
370.509	591
370.91	569.1
371.311	580
371.712	574.9
372.113	570.5
372.514	565.2
372.894	574.4
373.295	572.5
373.696	586.6
374.097	579.8
374.499	603.6
374.9	578
375.301	567.3
375.703	578.3
376.105	568.5
376.506	574.5
376.908	575.9
377.309	578.7
377.711	578.4
378.113	574.4
378.493	571.6
378.895	573.5
379.297	580.3
379.699	560.1
380.102	580.6
380.504	576.1
380.906	570.1
381.308	597.8
381.71	575.8
382.113	584.3
382.515	573.2
382.918	579.8
383.299	572.8
383.701	586.6
384.104	579
384.507	557.6
384.909	572.2
385.312	561
385.715	563.7
386.118	572
386.521	564.7
386.924	580.9
387.327	568.8
387.709	563.1
388.112	557.9
388.515	573.7
388.918	566.5
389.322	575.4
389.725	571.5
390.129	589
390.532	577.5
390.936	569.1
391.339	563.8
391.743	580.2
392.125	571.1
392.529	577.7
392.933	584.4
393.337	581.3
393.74	571.1
394.144	578.5
394.548	575
394.953	569.7
395.357	579.2
395.761	573.5
396.144	575.1
396.548	577.2
396.952	578
397.357	569.9
397.761	572.7
398.166	571.8
398.57	570.6
398.975	562.9
399.379	570.9
399.763	617.7
400.168	570.3
400.572	573.8
400.977	569.1
401.382	591.4
401.787	578
402.192	588
402.597	587
403.002	565.7
403.386	582.9
403.791	589.8
404.197	566.5
404.602	573.1
405.007	571.7
405.413	566.6
405.818	568.2
406.224	564.1
406.608	569.4
407.014	562.5
407.42	590.6
407.825	570.4
408.231	579.1
408.637	579.3
409.043	587.6
409.449	570.5
409.834	567
410.24	575.1
410.646	580.9
411.052	583.6
411.458	573.9
411.865	575.7
412.271	585.4
412.677	576
413.062	578.7
413.469	564.5
413.875	596.3
414.282	593.2
414.689	573
415.095	579.9
415.502	573.2
415.888	577.1
416.294	558.4
416.701	613
417.108	575.4
417.515	589.1
417.923	570.4
418.33	593.8
418.715	587.2
419.123	574.7
419.53	571.7
419.937	574.6
420.345	586.6
420.752	574
421.16	591.2
421.546	579.7
421.953	587.2
422.361	569.1
422.769	575.4
423.177	566.7
423.585	602.5
423.992	594.2
424.379	586.2
424.787	584.6
425.195	595.5
425.603	580.3
426.011	587.7
426.419	587.9
426.806	582.2
427.214	585.5
427.623	584.8
428.031	598.1
428.44	585.5
428.848	596.4
429.235	599.2
429.644	582.6
430.053	576.5
430.461	599.8
430.87	612.2
431.279	602.4
431.666	586.7
432.075	595.7
432.484	603.4
432.893	601.9
433.302	629.1
433.711	659.7
434.099	631.7
434.508	633.5
434.918	642.7
435.327	666.5
435.737	674.6
436.125	689.8
436.534	693.8
436.944	722.1
437.353	733.2
437.763	759.4
438.173	750.8
438.561	782.8
438.971	778.3
439.381	813.7
439.791	824.3
440.201	823
440.589	862.6
440.999	880.1
441.409	884.1
441.819	899.1
442.23	926.6
442.619	930.3
443.029	943.1
443.439	963.1
443.85	984.3
444.26	1015.2
444.649	1016.9
445.06	1021.6
445.471	1027.6
445.881	1047.2
446.292	1061.5
446.682	1090.3
447.092	1061.9
447.503	1129.7
447.914	1097.3
448.325	1105.1
448.715	1110.6
449.126	1114.9
449.537	1128.7
449.948	1145.3
450.338	1144.8
450.75	1154.8
451.161	1157.4
451.572	1166.7
451.984	1169.8
452.374	1149
452.786	1168.7
453.197	1190.2
453.609	1190.3
453.999	1172.1
454.411	1175.5
454.823	1205.3
455.235	1208.4
455.647	1208.6
456.037	1208.8
456.449	1199.8
456.862	1203.9
457.274	1206.6
457.665	1196.8
458.077	1217.5
458.489	1219.9
458.902	1204.1
459.293	1211.4
459.705	1205.2
460.118	1205.8
460.53	1211.6
460.921	1220.3
461.334	1228.1
461.747	1219.7
462.16	1246.3
462.551	1227.4
462.964	1218.2
463.377	1218.1
463.79	1223.9
464.182	1229.9
464.595	1212.3
465.008	1226
465.421	1225.9
465.813	1218.5
466.226	1234.8
466.64	1219.5
467.053	1256.7
467.445	1229.3
467.859	1214.4
468.272	1208.4
468.686	1222
469.078	1200.9
469.492	1198
469.906	1200
470.298	1212.4
470.712	1192
471.126	1231.5
471.54	1185.1
471.933	1192.9
472.347	1184.8
472.761	1184.5
473.175	1170.8
473.568	1179.4
473.982	1170.4
474.397	1181.1
474.79	1186.8
475.204	1180.9
475.619	1175.6
476.033	1165.9
476.426	1169.4
476.841	1160.8
477.256	1186.2
477.649	1153.2
478.064	1145
478.479	1147.1
478.872	1145.6
479.287	1129.9
479.702	1133.9
480.118	1140.1
480.511	1140.3
480.927	1131.3
481.342	1134.8
481.736	1136.4
482.151	1120.7
482.566	1138
482.96	1121.8
483.376	1133
483.792	1105.8
484.186	1119.1
484.602	1113
485.017	1113.3
485.412	1098.2
485.827	1105.4
486.243	1101.5
486.638	1121.1
487.054	1101.9
487.47	1112.7
487.865	1082.5
488.281	1074.6
488.697	1072.8
489.092	1081.1
489.508	1069
489.925	1077.7
490.32	1059.9
490.736	1065.6
491.153	1054.7
491.548	1049.2
491.964	1062.8
492.381	1034.6
492.776	1043.4
493.193	1053.8
493.61	1048.5
494.006	1045.4
494.422	1038.3
494.84	1016.7
495.235	1021.1
495.652	1017.2
496.069	1026
496.465	1001.2
496.883	1017
497.3	1030.5
497.696	1002.5
498.113	1006
498.509	980
498.927	987.6
499.344	981.8
499.741	980.6
500.158	985.5
500.576	980.2
500.973	979.2
501.39	966.5
501.787	955.6
502.205	962.2
502.623	950.8
503.02	955.7
503.438	944.3
503.856	949.1
504.253	946.9
504.671	950.1
505.068	928.7
505.486	931.9
505.905	951
506.302	925.1
506.72	928.9
507.118	919.3
507.536	913.8
507.955	914
508.352	920.5
508.771	914.5
509.169	903.6
509.587	893.9
510.006	892.6
510.404	877.7
510.823	883
511.221	874.7
511.64	869.9
512.038	891
512.457	873.3
512.877	869.4
513.275	863.3
513.694	869.6
514.092	865.6
514.512	862.3
514.91	859.5
515.33	859
515.749	855.2
516.148	852.8
516.568	851
516.966	838.3
517.386	834.8
517.785	834.9
518.205	828.8
518.603	827.9
519.024	826.5
519.444	829.5
519.843	834.7
520.263	832.3
520.662	827.6
521.082	813
521.481	812.8
521.902	808.3
522.301	816.6
522.722	811.9
523.121	802.9
523.542	806.7
523.963	798.5
524.362	797.5
524.783	786.1
525.183	786.9
525.604	799.8
526.003	777.1
526.425	774.5
526.824	780.3
527.246	788.5
527.646	780.4
528.067	771.9
528.467	774.5
528.888	773.9
529.289	757.4
529.71	767.1
530.11	760.9
530.532	757.1
530.932	751.8
531.354	745.7
531.755	783.2
532.176	756.8
532.577	739.3
532.999	742.3
533.4	736.8
533.822	746.7
534.223	732.7
534.645	731
535.046	733.3
535.468	731.9
535.869	737.4
536.292	725.7
536.693	720.8
537.115	723.1
537.516	714.5
537.939	714.6
538.34	738.3
538.742	731.9
539.165	723.3
539.566	715.5
539.989	710.3
540.391	709.9
540.814	714.8
541.216	713.6
541.639	710.7
542.041	722.7
542.464	709.6
542.866	697.3
543.268	706.2
543.691	705.9
544.093	704.4
544.517	720
544.919	696.5
545.343	723.2
545.745	679.4
546.147	700.2
546.571	686.4
546.974	676.8
547.398	687.9
547.8	705.4
548.224	687.7
548.627	681.5
549.03	691.2
549.454	680.2
549.857	669.4
550.281	679.6
550.684	675.4
551.087	688.9
551.512	677
551.915	680.1
552.34	673.7
552.743	670.5
553.146	672.7
553.571	677.4
553.975	692.4
554.399	662.2
554.803	710.3
555.207	668.1
555.632	661.7
556.036	667.3
556.461	648
556.865	658
557.268	648.9
557.694	660.5
558.098	665.6
558.502	662.4
558.927	646.9
559.332	652.9
559.736	654.2
560.162	659
560.566	647.8
560.992	654.4
561.396	649.5
561.801	643.3
562.227	640.6
562.631	646
563.036	639.5
563.462	649.3
563.867	652.6
564.272	626
564.698	642.2
565.103	625.2
565.508	653.4
565.935	640.4
566.34	634.3
566.745	647.9
567.172	634.2
567.577	655.1
567.982	644.9
568.409	630.8
568.815	622.2
569.22	630
569.626	640.6
570.053	614.7
570.459	632.7
570.865	635.2
571.292	635.5
571.698	637.9
572.104	616.3
572.531	622.1
572.937	638.6
573.343	622.7
573.75	619.9
574.177	620.6
574.583	623.7
574.99	613.4
575.396	617.4
575.824	616.7
576.231	619
576.637	607.8
577.065	643.4
577.472	613.7
577.879	614.1
578.286	625.1
578.714	608.4
579.121	610.1
579.528	618.2
579.935	609.6
580.364	610.4
580.771	596.3
581.178	602.1
581.585	616.7
582.014	614.4
582.421	604.9
582.829	598.5
583.236	613.6
583.644	600.4
584.073	592.5
584.481	601.8
584.889	597.4
585.296	608.6
585.726	601.1
586.134	591.3
586.542	596.1
586.95	620.9
587.358	590.4
587.787	603.2
588.196	590.5
588.604	595.5
589.012	599
589.421	585.2
589.851	586.7
590.259	599.8
590.668	592.3
591.076	624.9
591.485	589.9
591.894	587.9
592.324	600.1
592.733	606.9
593.142	577.6
593.551	589.7
593.96	595.9
594.369	571.5
594.8	583.3
595.209	582.5
595.618	574.3
596.028	581.3
596.437	580.8
596.847	585.7
597.256	585.5
597.687	587.4
598.097	589.6
598.507	574.8
598.917	584.4
599.327	591.7
599.736	584.7
600.146	587.1
600.556	585.1
600.988	592.4
601.398	579.7
601.808	591
602.219	570.2
602.629	583.8
603.039	577.3
603.45	603.7
603.86	576.9
604.271	586
604.703	576.4
605.114	576.9
605.525	578.9
605.935	576.9
606.346	597.1
606.757	576
607.168	574.8
607.579	566.1
607.99	587.6
608.402	579.3
608.813	579.1
609.224	567.5
609.636	567.9
610.047	565.9
610.48	574.1
610.892	578.3
611.303	580.5
611.715	577.6
612.127	565.5
612.539	570.4
612.95	576.6
613.362	570.4
613.774	563.1
614.186	566.2
614.599	569.9
615.011	582.7
615.423	562.1
615.835	571.9
616.248	568.5
616.66	578.5
617.073	566.4
617.485	573.2
617.898	581.3
618.311	579.2
618.723	569
619.136	601.7
619.549	584.1
619.962	593.5
620.375	566.6
620.788	571.7
621.201	564.9
621.614	575.2
622.028	569.6
622.441	574.9
622.854	581.8
623.268	564.8
623.681	572.3
624.095	564.7
624.509	574.4
624.922	576.6
625.336	560.8
625.728	570.2
626.142	574.8
626.556	590.3
626.97	573.4
627.384	565.9
627.799	565.2
628.213	579.9
628.627	560.9
629.041	570.3
629.456	564.8
629.87	568.5
630.285	575
630.699	576.7
631.093	561.2
631.507	569.4
631.922	567.9
632.337	579.1
632.752	560.5
633.167	567.5
633.582	565.4
633.997	562.5
634.412	561.3
634.806	564.4
635.221	553.6
635.637	574.1
636.052	548.2
636.468	558
636.883	580.5
637.299	561.8
637.715	551.7
638.109	567.2
638.525	550.1
638.941	574.4
639.357	568.2
639.773	573.2
640.189	553.9
640.584	562.3
641	567.3
641.416	552.9
641.832	562.5
642.249	558.7
642.665	561.2
643.06	564.9
643.477	570.3
643.894	548.2
644.31	561.8
644.727	561.4
645.123	564.5
645.54	551.3
645.957	558.1
646.374	560
646.77	561.1
647.187	582.9
647.604	562.7
648.021	554.1
648.439	556
648.835	561
649.252	561.2
649.67	559.6
650.088	560.6
650.484	563
650.902	570
651.32	567.3
651.738	560.4
652.134	562.8
652.552	576.9
652.971	571.2
653.389	560.9
653.786	572.5
654.204	559.6
654.622	555.5
655.019	559.9
655.438	565.2
655.857	562.9
656.275	563.4
656.673	555.4
657.091	627.9
657.51	556
657.908	565.7
658.327	575
658.746	551.2
659.144	558.1
659.563	569.4
659.982	568.1
660.38	549.9
660.8	564.4
661.219	573.9
661.617	564
662.037	558.9
662.457	571.9
662.855	543
663.275	588.1
663.695	557.6
664.094	554.7
664.514	565.3
664.934	555.6
665.333	562
665.753	552.4
666.152	550.9
666.572	551.3
666.993	571.9
667.392	558.4
667.812	557.6
668.212	552.1
668.632	568.7
669.053	559.3
669.453	565.5
669.874	563
670.273	561.2
670.694	552.4
671.116	564.7
671.515	564
671.937	555.9
672.337	552.2
672.758	560.1
673.158	560
673.58	551
673.98	557.7
674.402	570.2
674.824	556.6
675.224	557.9
675.646	547
676.047	550.1
676.469	556.4
676.869	566.4
677.292	569.2
677.693	548
678.115	554
678.516	559
678.939	556.7
679.34	556.9
679.762	570.2
680.164	564.8
680.586	551.1
680.988	559.8
681.411	582.6
681.812	553.8
682.236	550.7
682.637	545
683.061	539
683.462	551.6
683.864	550.8
684.288	558.4
684.69	545.1
685.114	564.5
685.516	557.6
685.94	546.5
686.342	561.1
686.766	546.3
687.168	550.3
687.571	567.8
687.995	554.5
688.398	546.1
688.822	549.1
689.225	565.1
689.628	570.4
690.052	553.4
690.456	551
690.88	549.2
691.284	542.2
691.687	557.2
692.112	543.9
692.515	545.4
692.919	551.7
693.344	562.1
693.747	552.3
694.173	546.1
694.577	566.1
694.98	557.7
695.406	548.7
695.81	556.1
696.214	554.7
696.64	553.9
697.044	558.9
697.448	561.5
697.874	550
698.279	549
698.684	541.8
699.11	545.8
699.514	554.3
699.919	548.5
700.324	548.4
700.75	556
701.156	552.3
701.561	561.4
701.987	560
702.393	553.9
702.798	565.8
703.203	557.9
703.63	550.9
704.036	558.1
704.442	554.8
704.847	549.6
705.274	553.1
705.68	555.2
706.086	565.6
706.492	546
706.92	549.7
707.326	564.8
707.732	546.6
708.139	549.3
708.545	546.3
708.973	550.5
709.38	552.3
709.786	542
710.193	565.5
710.6	552.3
711.028	547.5
711.435	547.2
711.842	556.3
712.249	545.1
712.656	551.4
713.064	561.4
713.492	546.5
713.9	548.8
714.307	555.5
714.715	548.4
715.123	550.8
715.53	557.3
715.938	562.7
716.367	543.9
716.775	547.7
717.184	538.9
717.592	544
718	561.7
718.408	585.6
718.816	590.9
719.225	553.7
719.633	552.6
720.042	542.7
720.472	549.6
720.881	565.4
721.29	555.2
721.699	539.1
722.108	545.1
722.517	548.4
722.926	544.5
723.335	562.2
723.744	547.2
724.154	552.7
724.563	550
724.973	552
725.382	549.7
725.792	548.6
726.202	545.3
726.612	563.5
727.022	550.2
727.432	545.2
779.813	553.4
780.223	589.4
780.634	546.8
781.044	544.4
781.454	549.2
781.865	558.9
782.276	544.8
782.686	561
783.097	547.4
783.508	549
783.919	553.1
784.33	558.8
784.741	558.3
785.152	547.7
785.563	537.6
785.974	545.1
786.386	557.2
786.776	549.7
787.188	551
787.599	540.9
788.011	555.4
788.423	555.4
788.835	551.8
789.247	537
789.659	545.2
790.071	545.9
790.483	586.5
790.874	548.4
791.286	555.1
791.699	540.1
792.111	546.6
792.524	552.7
792.937	544.4
793.349	540.1
793.741	542
794.154	547
794.567	569.2
794.98	551
795.393	542.5
795.785	559.4
796.198	550.3
796.612	552.6
797.026	549.2
797.439	534.2
797.831	547.7
798.245	545.1
798.659	551.8
799.073	545.4
799.487	540.7
799.88	551.6
800.294	546.4
800.708	550.9
801.123	551.9
801.516	564
801.93	532.9
802.345	535.9
802.76	548.6
803.153	563.2
803.568	562.3
803.983	563.5
804.377	553.3
804.792	536.8
805.207	540
805.601	543.2
806.016	581.4
806.432	546.6
806.826	577.5
807.242	559.2
807.658	552.1
808.052	541.6
808.468	547.7
808.884	541.4
809.279	546
809.695	560.3
810.111	569.1
810.506	546.3
810.922	567.1
811.339	544.7
811.734	551.4
812.151	537.2
812.546	546.5
812.963	547.3
813.38	550.3
813.776	549.1
814.193	569
814.589	545.1
815.006	544.3
815.402	542.2
815.82	546.8
816.237	547.1
816.633	557.3
817.051	539.9
817.448	548.5
817.866	543.5
818.262	576.3
818.68	549.4
819.077	550.5
819.495	553.4
819.892	589.2
820.311	541.4
820.708	546.5
821.127	543.4
821.524	558.1
821.943	550.5
822.34	560
822.759	547.8
823.157	547.1
823.576	557.4
823.974	556.2
824.393	554.2
824.791	543.3
825.189	543.1
825.609	546.9
826.007	547.7
826.427	536.6
826.826	547.8
827.246	554.3
827.644	534.1
828.043	552.4
828.463	542.6
828.862	552.1
829.261	551.6
829.682	536.5
830.081	553.3
830.502	539.8
830.901	555.6
831.301	540.1
831.722	540.7
832.121	546.6
832.521	540.8
832.943	542.4
833.342	545.6
833.742	537.3
834.164	543.7
834.564	529.5
834.965	544.8
835.386	537.8
835.787	540.7
836.188	539.2
836.588	547.5
837.01	544.3
837.411	540.7
837.812	550.7
838.213	550.3
838.636	539.3
839.037	607.4
839.438	549.3
839.84	552.3
840.263	553.2
840.664	549
841.066	543.5
841.468	545.4
841.891	541.2
842.293	553.7
842.695	548.2
843.098	549.3
843.5	544.4
843.902	548.4
