#lambda/nm	C1
208.295	469.5
208.67	438.6
209.045	400
209.419	405.7
209.794	586.8
210.169	566.3
210.544	685
210.919	581.8
211.295	568.4
211.67	578.7
212.045	574.8
212.421	578.3
212.796	611.1
213.172	579.4
213.547	577.2
213.923	581.4
214.299	572.8
214.675	592.5
215.051	586.7
215.427	582.2
215.803	599.8
216.179	583.9
216.555	575.2
216.932	585.8
217.308	579.3
217.684	577.9
218.061	584.9
218.438	585.5
218.814	571.6
219.191	587.9
219.568	575
219.945	575.3
220.322	587.7
220.699	581.4
221.076	585.5
221.453	585.9
221.83	578.6
222.208	574.2
222.585	575.2
222.962	581.5
223.34	589.2
223.717	579.5
224.095	577.6
224.473	584.3
224.851	567.8
225.229	569.7
225.607	590.2
225.985	568.5
226.363	578.1
226.741	583.6
227.119	578.2
227.497	593.7
227.876	566.8
228.254	585.4
228.633	582.3
229.011	584
229.39	585.3
229.769	582.7
230.148	584.4
230.527	598.2
230.905	583.5
231.284	580.1
231.664	570.9
232.043	588.5
232.422	589.2
232.801	570.1
233.181	585.1
233.56	578.2
233.94	579.8
234.319	565.6
234.699	574.9
235.079	617.3
235.458	617.8
235.838	595.8
236.218	576.2
236.598	564.5
236.978	576.5
237.358	576.6
237.738	580.3
238.119	586.8
238.499	579.3
238.88	581.8
239.26	597.5
239.641	567.6
240.021	579.5
240.402	581.4
240.783	577
241.163	577
241.544	583.9
241.925	575.5
242.306	592.8
242.687	575
243.069	585.8
243.45	582.5
243.831	573.1
244.212	577
244.594	608.2
244.975	587.5
245.357	584.1
245.739	568.1
246.12	583.8
246.502	589.6
246.884	576.1
247.266	577
247.648	585.1
248.03	603.7
248.412	580.5
248.794	590.1
249.176	581
249.559	590
249.941	575.7
250.323	566.3
250.706	570.3
251.089	580.2
251.471	585.2
251.854	583.6
252.237	579
252.62	592.9
253.002	581.1
253.385	582
253.769	593.6
254.152	584.5
254.535	587.8
254.918	570.1
255.301	577
255.685	580.2
256.068	572.8
256.452	603.3
256.835	584.8
257.219	583.3
257.603	595.1
257.986	574
258.37	586.1
258.754	571.2
259.138	589.3
259.522	590.6
259.906	574.4
260.29	582.6
260.675	578.5
261.059	578
261.443	572.2
261.828	590.9
262.212	579.1
262.597	569.2
262.981	570.3
263.366	584
263.751	578.8
264.136	570.6
264.521	578
264.906	574.6
265.291	587.7
265.676	575.6
266.061	583.2
266.446	599.4
266.831	580.8
267.217	596.2
267.602	584.6
267.987	590.9
268.373	578.4
268.759	587.8
269.144	594.9
269.53	578.2
269.916	580.7
270.302	576.2
270.688	579.9
271.074	574
271.46	590.9
271.846	612.4
272.232	577.9
272.618	572.4
273.004	576.3
273.391	588.1
273.777	596.1
274.164	582.6
274.55	603
274.937	582.3
275.324	575.1
275.71	590.1
276.097	584.1
276.484	572.9
276.871	584.2
277.258	588.3
277.645	569.7
278.032	579
278.419	581.6
278.807	584.8
279.194	575
279.581	574.9
279.969	585.7
280.356	583.9
280.744	585.5
281.131	605.5
281.519	589.8
281.907	578.8
282.295	581.6
282.682	590.5
283.07	586.7
283.458	588.2
283.846	595
284.235	591.4
284.623	594.3
285.011	575.7
285.399	581.2
285.788	580.2
286.176	575.4
286.565	592.3
286.953	575.1
287.342	576.8
287.731	573.8
288.119	574.4
288.508	578.9
288.897	578.2
289.286	571
289.675	582.6
290.064	590.9
290.453	579.4
290.821	587.9
291.21	598.1
291.599	577.6
291.989	579.2
292.378	587.7
292.768	597.4
293.157	580.2
293.547	593.7
293.936	579.5
294.326	571.7
294.716	586.7
295.106	581.4
295.496	587.4
295.886	591.5
296.276	582
296.666	576.5
297.056	581.5
297.446	573.2
297.836	593.9
298.227	578.2
298.617	584.1
299.008	594.4
299.398	580.8
299.789	578.2
300.179	588.7
300.57	593.3
300.961	583.2
301.352	576.5
301.742	590.6
302.133	589.6
302.524	587.1
302.915	582.7
303.307	563.6
303.698	588.5
304.089	587.3
304.48	579.7
304.872	586.3
305.263	582.2
305.655	574.6
306.046	589
306.438	582.4
306.829	578
307.221	598.2
307.613	588.6
308.005	588.7
308.397	596.5
308.789	603.9
309.181	607.6
309.573	598.2
309.965	590.3
310.357	579.3
310.749	583.8
311.142	574.5
311.534	578.4
311.926	590.6
312.319	584.1
312.711	577.2
313.104	592.6
313.497	580
313.889	623.2
314.282	596.2
314.675	606.3
315.068	584.8
315.461	583.2
315.854	609.7
316.247	590.4
316.64	584.3
317.033	588
317.405	593.8
317.798	581.2
318.192	589.3
318.585	573
318.979	590.1
319.372	575.6
319.766	585.9
320.16	592.8
320.553	600.3
320.947	598.7
321.341	582.1
321.735	575.8
322.129	568.8
322.523	606.3
322.917	577.6
323.311	586
323.705	585.7
324.099	589.5
324.494	600.4
324.888	587.6
325.282	582.1
325.677	576.4
326.071	590.2
326.466	591.2
326.861	587.8
327.255	587.7
327.65	593.8
328.045	597.3
328.44	586.4
328.835	582.8
329.23	574
329.625	610.5
330.02	580.4
330.415	601.1
330.81	585.2
331.206	581.5
331.601	576
331.996	596.2
332.37	587.6
332.766	569.5
333.161	609.3
333.557	577.9
333.953	582.9
334.348	1006.3
334.744	586
335.14	573.8
335.536	578.9
335.932	593.3
336.328	580.8
336.724	593.8
337.12	582.7
337.516	587.8
337.913	586
338.309	589.3
338.705	575.4
339.102	590.1
339.498	574.3
339.895	593.3
340.291	578.2
340.688	586.7
341.085	574.1
341.481	578.1
341.878	583.7
342.275	603.9
342.672	572.8
343.069	571.9
343.466	569.2
343.842	588
344.239	576.6
344.636	585.4
345.033	569
345.431	572
345.828	578.7
346.225	576.4
346.623	588
347.02	582.7
347.418	580.8
347.816	593.6
348.213	568.6
348.611	584.9
349.009	572.3
349.407	591
349.805	578.3
350.203	566.9
350.601	592.2
350.999	577.1
351.397	574.3
351.795	585.3
352.193	590.2
352.57	588.7
352.969	588.2
353.367	571.9
353.766	574.5
354.164	579.9
354.563	590.1
354.961	579.9
355.36	573.8
355.759	582.6
356.158	570.9
356.557	574
356.956	568.4
357.355	568.6
357.754	579.1
358.153	584.5
358.552	600.7
358.951	574.9
359.35	591.3
359.75	576.3
360.149	570.7
360.527	559.6
360.926	565.6
361.326	582.5
361.726	585.2
362.125	568.4
362.525	583.4
362.925	572.1
363.325	579.8
363.724	578.1
364.124	574.7
364.524	572.8
364.924	576
365.324	588.8
365.725	564.4
366.125	583.9
366.525	572.5
366.904	567.9
367.304	561.2
367.705	587.9
368.105	586.4
368.506	573.9
368.906	580
369.307	574.8
369.708	585.1
370.108	564.5
370.509	584
370.91	566.3
371.311	575.8
371.712	574.8
372.113	578.2
372.514	562.5
372.894	573.5
373.295	564.8
373.696	589.7
374.097	581.4
374.499	602.6
374.9	579.6
375.301	568.9
375.703	581.7
376.105	564.5
376.506	580.5
376.908	579.9
377.309	573.8
377.711	572.8
378.113	567.7
378.493	578
378.895	568.8
379.297	584.9
379.699	559.9
380.102	575.9
380.504	574.9
380.906	570.2
381.308	596.1
381.71	576.3
382.113	584.9
382.515	572.8
382.918	576.7
383.299	576
383.701	582.5
384.104	575.4
384.507	559.3
384.909	570.3
385.312	564
385.715	565.7
386.118	572.2
386.521	558.2
386.924	579.4
387.327	565.7
387.709	561
388.112	558.8
388.515	574.8
388.918	572.1
389.322	573.4
389.725	573.1
390.129	594.2
390.532	574.2
390.936	568.9
391.339	565.3
391.743	574.3
392.125	567.1
392.529	582.4
392.933	579.2
393.337	571.7
393.74	572.6
394.144	570.9
394.548	566.4
394.953	565.7
395.357	579.6
395.761	569.1
396.144	573
396.548	571
396.952	575.9
397.357	577.9
397.761	564.9
398.166	566.6
398.57	568.3
398.975	559.7
399.379	574.9
399.763	617.8
400.168	571.6
400.572	573.9
400.977	573.6
401.382	589.5
401.787	584.5
402.192	589.4
402.597	585.4
403.002	562.7
403.386	584
403.791	591.9
404.197	567.3
404.602	573.2
405.007	577.9
405.413	569.4
405.818	564.9
406.224	568.6
406.608	573.6
407.014	568.9
407.42	594.2
407.825	567.1
408.231	586.8
408.637	577.6
409.043	582.7
409.449	571.6
409.834	570.9
410.24	570
410.646	584.9
411.052	586.9
411.458	572
411.865	588.9
412.271	579.1
412.677	578.8
413.062	577.7
413.469	567.7
413.875	600.3
414.282	586.5
414.689	580.8
415.095	580.8
415.502	564.8
415.888	578.9
416.294	565.5
416.701	617.8
417.108	567.4
417.515	578.6
417.923	570.5
418.33	590.3
418.715	582
419.123	569.2
419.53	572.3
419.937	574
420.345	587.6
420.752	572.3
421.16	592.1
421.546	571
421.953	584.6
422.361	568
422.769	565.1
423.177	563.1
423.585	601.2
423.992	597.8
424.379	584
424.787	582.6
425.195	594.3
425.603	578.7
426.011	589.7
426.419	594.3
426.806	574.4
427.214	577.5
427.623	586.3
428.031	590.7
428.44	578.6
428.848	583.4
429.235	587.3
429.644	574.5
430.053	576.3
430.461	588.6
430.87	599.2
431.279	591.3
431.666	569.8
432.075	582.1
432.484	581.7
432.893	577.5
433.302	595.4
433.711	621.1
434.099	585.7
434.508	575.8
434.918	570.1
435.327	584.1
435.737	576.5
436.125	577.8
436.534	578.1
436.944	589.2
437.353	581.6
437.763	597.1
438.173	579
438.561	595.2
438.971	566.6
439.381	584.8
439.791	586.3
440.201	565.7
440.589	588.9
440.999	598.2
441.409	590.9
441.819	578.2
442.23	601.2
442.619	598.9
443.029	592.5
443.439	596.5
443.85	606.2
444.26	612.2
444.649	600.8
445.06	600.5
445.471	592
445.881	597.5
446.292	608.9
446.682	619.1
447.092	584.2
447.503	648.8
447.914	598.8
448.325	606.6
448.715	597.6
449.126	593.3
449.537	601.4
449.948	601.6
450.338	604.2
450.75	604.6
451.161	603.2
451.572	602.8
451.984	597.3
452.374	587.6
452.786	605.7
453.197	607.6
453.609	606.2
453.999	591.8
454.411	591.4
454.823	613.6
455.235	605.3
455.647	599.8
456.037	604.6
456.449	589
456.862	601.9
457.274	604.3
457.665	595.3
458.077	605.4
458.489	614.4
458.902	606
459.293	612
459.705	599.9
460.118	601
460.53	605.8
460.921	603
461.334	608.4
461.747	602.9
462.16	616.7
462.551	618
462.964	608.2
463.377	593.1
463.79	603.2
464.182	607
464.595	597.6
465.008	602.7
465.421	606.1
465.813	596.8
466.226	608.8
466.64	603.5
467.053	648.6
467.445	613.7
467.859	605.6
468.272	603.2
468.686	613
469.078	605.8
469.492	594.3
469.906	607.3
470.298	607.9
470.712	596.7
471.126	631.4
471.54	585.1
471.933	591.8
472.347	599.8
472.761	597.3
473.175	591.9
473.568	599
473.982	595.6
474.397	592.8
474.79	606
475.204	610.9
475.619	601.5
476.033	598.7
476.426	601.2
476.841	597.4
477.256	619.7
477.649	589.9
478.064	590.1
478.479	595.1
478.872	594.7
479.287	581.9
479.702	589.5
480.118	598.5
480.511	594.7
480.927	589.2
481.342	597
481.736	592.4
482.151	584.2
482.566	603.5
482.96	597.3
483.376	611.5
483.792	588.1
484.186	600.1
484.602	591.6
485.017	594.1
485.412	594.1
485.827	606.9
486.243	596.3
486.638	607.9
487.054	601.5
487.47	608.3
487.865	597.3
488.281	590.1
488.697	588.7
489.092	593.6
489.508	582.4
489.925	602.9
490.32	584.5
490.736	594.1
491.153	596.8
491.548	595.6
491.964	604.3
492.381	585.8
492.776	594.8
493.193	590.8
493.61	600.2
494.006	587.9
494.422	597.4
494.84	582.5
495.235	602.6
495.652	581
496.069	592.4
496.465	581.4
496.883	581.7
497.3	612.9
497.696	584.7
498.113	596.5
498.509	576.4
498.927	578.1
499.344	580.4
499.741	580.7
500.158	591.9
500.576	598.9
500.973	582.5
501.39	580.1
501.787	579.6
502.205	586.5
502.623	580.3
503.02	576
503.438	577.1
503.856	585.5
504.253	585.5
504.671	589.3
505.068	579.8
505.486	581.8
505.905	594
506.302	590
506.72	586.3
507.118	578.2
507.536	585.8
507.955	580.7
508.352	583
508.771	591
509.169	585.4
509.587	578.7
510.006	581.3
510.404	566.2
510.823	573.2
511.221	574.6
511.64	577.4
512.038	588.3
512.457	582.7
512.877	585.6
513.275	575.9
513.694	576
514.092	571.6
514.512	581.4
514.91	574.6
515.33	570.4
515.749	577.2
516.148	580.6
516.568	573.9
516.966	577.4
517.386	578.5
517.785	575.4
518.205	577.9
518.603	569.4
519.024	565.6
519.444	576.8
519.843	586.4
520.263	580.8
520.662	581
521.082	571.6
521.481	578.5
521.902	570.3
522.301	580.8
522.722	578.3
523.121	575.1
523.542	572.9
523.963	575.6
524.362	576.6
524.783	581.5
525.183	573.2
525.604	575.2
526.003	567.1
526.425	567.9
526.824	573.5
527.246	582.4
527.646	576.6
528.067	574.9
528.467	573.2
528.888	573.9
529.289	568.1
529.71	570.6
530.11	567.1
530.532	571.7
530.932	562.3
531.354	564.2
531.755	600.4
532.176	573.9
532.577	572
532.999	578.6
533.4	569.2
533.822	578.3
534.223	569.2
534.645	566.2
535.046	564.4
535.468	570.3
535.869	584.3
536.292	568.1
536.693	570.9
537.115	569.8
537.516	563.5
537.939	567.9
538.34	586.8
538.742	582.3
539.165	573.4
539.566	570.7
539.989	566.8
540.391	562.9
540.814	569.4
541.216	573.4
541.639	572.1
542.041	578.3
542.464	563
542.866	566.4
543.268	559.4
543.691	573.4
544.093	576.9
544.517	588.1
544.919	564.4
545.343	590.4
545.745	556
546.147	571.6
546.571	562.5
546.974	559.6
547.398	572.4
547.8	579.7
548.224	565.1
548.627	557.6
549.03	574.5
549.454	557.9
549.857	558.8
550.281	560.2
550.684	559
551.087	574
551.512	575
551.915	575.4
552.34	565.4
552.743	561.5
553.146	570.5
553.571	568.3
553.975	581.9
554.399	558.7
554.803	610.6
555.207	565
555.632	558.8
556.036	563.9
556.461	555.8
556.865	566.5
557.268	554.6
557.694	563.5
558.098	565
558.502	568.6
558.927	559.6
559.332	560.5
559.736	562.3
560.162	565.7
560.566	564.7
560.992	571.4
561.396	567.1
561.801	561.1
562.227	560.3
562.631	562.7
563.036	560.2
563.462	576.6
563.867	559.7
564.272	552.5
564.698	568.7
565.103	555.3
565.508	578.6
565.935	564
566.34	561.1
566.745	572.1
567.172	560.8
567.577	584.2
567.982	568.6
568.409	565.5
568.815	555.8
569.22	566.8
569.626	568.3
570.053	550.7
570.459	561.9
570.865	565.4
571.292	573.7
571.698	563.9
572.104	554.7
572.531	558.2
572.937	567.1
573.343	562.7
573.75	558.8
574.177	564.8
574.583	574.1
574.99	565.4
575.396	567.2
575.824	557.5
576.231	566
576.637	556.5
577.065	588.7
577.472	561.6
577.879	559.1
578.286	575.5
578.714	555.3
579.121	556.8
579.528	566.6
579.935	567.1
580.364	556
580.771	542.9
581.178	554.2
581.585	562.2
582.014	565.7
582.421	555.7
582.829	559.2
583.236	563.9
583.644	561.2
584.073	561.6
584.481	558.5
584.889	553.4
585.296	567.5
585.726	561.8
586.134	554.7
586.542	559.2
586.95	577.8
587.358	555.9
587.787	558.1
588.196	553.4
588.604	553.9
589.012	560.8
589.421	555.2
589.851	554.7
590.259	563.8
590.668	558.4
591.076	589.9
591.485	554.9
591.894	557.6
592.324	571.4
592.733	570.5
593.142	553.4
593.551	557.5
593.96	588.5
594.369	549.1
594.8	547
595.209	557.6
595.618	543.6
596.028	553.3
596.437	546.2
596.847	552.6
597.256	559.9
597.687	563.3
598.097	560.3
598.507	544.8
598.917	560.7
599.327	563.8
599.736	557.8
600.146	572.3
600.556	554.2
600.988	574.6
601.398	555.6
601.808	564.4
602.219	543.8
602.629	562.4
603.039	563.1
603.45	587.8
603.86	563.9
604.271	576.3
604.703	558
605.114	559
605.525	565.5
605.935	561.3
606.346	579.9
606.757	559.3
607.168	559.9
607.579	550.9
607.99	567.4
608.402	560.8
608.813	559.4
609.224	552.7
609.636	544.7
610.047	550.4
610.48	557.2
610.892	562.1
611.303	565
611.715	561.2
612.127	549.3
612.539	549
612.95	554.7
613.362	550.1
613.774	546.7
614.186	551.8
614.599	553.2
615.011	562.5
615.423	550.7
615.835	549.6
616.248	550
616.66	560.5
617.073	546.7
617.485	556.9
617.898	562.9
618.311	561.1
618.723	556.4
619.136	583.4
619.549	567.3
619.962	573.2
620.375	554.1
620.788	561.7
621.201	550.1
621.614	559.2
622.028	557.6
622.441	559.7
622.854	572.4
623.268	544.4
623.681	556.9
624.095	557.3
624.509	567.6
624.922	562.3
625.336	549
625.728	554.2
626.142	564.3
626.556	572
626.97	560.4
627.384	552.8
627.799	548.4
628.213	562.3
628.627	552.8
629.041	549.5
629.456	552.1
629.87	555.1
630.285	565.5
630.699	563.9
631.093	555.7
631.507	560.5
631.922	558.9
632.337	569.4
632.752	547.1
633.167	558.1
633.582	551.9
633.997	555.2
634.412	547.3
634.806	555.2
635.221	546.9
635.637	557.9
636.052	545
636.468	556.1
636.883	575.3
637.299	549.3
637.715	542
638.109	550.4
638.525	542.6
638.941	561.9
639.357	555.6
639.773	569
640.189	555
640.584	548.1
641	556.5
641.416	544.9
641.832	556
642.249	550
642.665	553.1
643.06	562.7
643.477	559.5
643.894	540.2
644.31	552.6
644.727	557.6
645.123	551.9
645.54	547.1
645.957	559.8
646.374	556.1
646.77	552.8
647.187	580.5
647.604	553.4
648.021	542.3
648.439	547.3
648.835	556.8
649.252	552.6
649.67	551.7
650.088	555.2
650.484	554.7
650.902	559.4
651.32	558.8
651.738	548.3
652.134	558.3
652.552	572.4
652.971	558.4
653.389	554.2
653.786	566.2
654.204	553.2
654.622	548.4
655.019	554.1
655.438	554.9
655.857	557.9
656.275	552.6
656.673	543.2
657.091	622
657.51	547.8
657.908	560.9
658.327	567.8
658.746	547.8
659.144	555.5
659.563	568.7
659.982	556.4
660.38	546.5
660.8	557.7
661.219	565.4
661.617	555
662.037	555.9
662.457	561.9
662.855	542.3
663.275	579.6
663.695	554
664.094	550.1
664.514	556.7
664.934	549.4
665.333	565
665.753	552.5
666.152	545.3
666.572	552.2
666.993	568.8
667.392	549.7
667.812	551
668.212	548.9
668.632	566.6
669.053	548.7
669.453	562.1
669.874	554.3
670.273	560.6
670.694	544.3
671.116	562.3
671.515	564.3
671.937	556.2
672.337	550.6
672.758	546.7
673.158	558.2
673.58	542.9
673.98	559.5
674.402	567.5
674.824	554
675.224	550.8
675.646	547.6
676.047	551.8
676.469	552
676.869	562.8
677.292	550.5
677.693	547.6
678.115	547.9
678.516	562.5
678.939	555.3
679.34	553.9
679.762	570
680.164	557.1
680.586	547.9
680.988	550.2
681.411	582.5
681.812	551.8
682.236	547.4
682.637	547.8
683.061	541.9
683.462	553.9
683.864	544.8
684.288	547.6
684.69	549.6
685.114	561.2
685.516	562.6
685.94	545.2
686.342	564.9
686.766	544.7
687.168	545
687.571	566.2
687.995	552.2
688.398	540.5
688.822	547.5
689.225	567.8
689.628	563.4
690.052	549.8
690.456	557.6
690.88	549
691.284	542.3
691.687	558.9
692.112	542.9
692.515	548.9
692.919	553.4
693.344	555
693.747	547.9
694.173	547.1
694.577	565.4
694.98	545.9
695.406	550.1
695.81	548
696.214	559
696.64	553.9
697.044	547.6
697.448	557.5
697.874	553.3
698.279	550.8
698.684	535.9
699.11	542.1
699.514	550
699.919	548.5
700.324	540.5
700.75	554.3
701.156	551.4
701.561	559
701.987	556.4
702.393	562.6
702.798	562.1
703.203	553.2
703.63	545.2
704.036	548.9
704.442	547.3
704.847	543.3
705.274	546.3
705.68	555.6
706.086	561
706.492	542.6
706.92	552
707.326	556.8
707.732	545.4
708.139	546.2
708.545	544.7
708.973	550.8
709.38	549.7
709.786	538.5
710.193	560.1
710.6	550.3
711.028	540.5
711.435	546
711.842	550.8
712.249	546.2
712.656	545.9
713.064	562.8
713.492	540.5
713.9	547.6
714.307	555.1
714.715	549
715.123	555.9
715.53	553.6
715.938	562.3
716.367	543.7
716.775	549.2
717.184	536.7
717.592	550.6
718	559.8
718.408	578.7
718.816	593
719.225	553.4
719.633	556.8
720.042	540.1
720.472	549.3
720.881	570.4
721.29	554.1
721.699	547.1
722.108	553.8
722.517	548.7
722.926	554
723.335	555.6
723.744	550.2
724.154	550.1
724.563	550.1
724.973	553.8
725.382	554.5
725.792	548.9
726.202	545.7
726.612	560.5
727.022	547.6
727.432	546.5
779.813	545.7
780.223	595.2
780.634	551.2
781.044	545
781.454	549
781.865	561.9
782.276	535.8
782.686	556.5
783.097	553.4
783.508	556.2
783.919	553.5
784.33	560.7
784.741	562.6
785.152	545.1
785.563	542.5
785.974	546.4
786.386	558.1
786.776	547.1
787.188	548.3
787.599	544.5
788.011	558.4
788.423	549.2
788.835	545.6
789.247	541.2
789.659	545.5
790.071	544.9
790.483	587.4
790.874	549.1
791.286	557.1
791.699	540.4
792.111	550.8
792.524	553.2
792.937	554.3
793.349	540.6
793.741	541.3
794.154	544.6
794.567	566.3
794.98	542.9
795.393	539.4
795.785	559.8
796.198	542.7
796.612	547.5
797.026	547.2
797.439	535
797.831	548.4
798.245	542.1
798.659	542
799.073	546.6
799.487	544.5
799.88	545.8
800.294	549.7
800.708	553.6
801.123	550
801.516	565.6
801.93	535.7
802.345	539.6
802.76	548.5
803.153	554.9
803.568	565.8
803.983	558
804.377	551.8
804.792	536.9
805.207	538
805.601	547.3
806.016	585.2
806.432	546.3
806.826	581.2
807.242	566.6
807.658	549.8
808.052	547.4
808.468	546.5
808.884	540.3
809.279	549.9
809.695	559.8
810.111	570.4
810.506	552.2
810.922	564.7
811.339	545.4
811.734	559.6
812.151	543.8
812.546	546.5
812.963	544.3
813.38	554.1
813.776	546.5
814.193	564.9
814.589	540
815.006	549.6
815.402	541.8
815.82	548
816.237	547.4
816.633	546
817.051	545.3
817.448	546.6
817.866	536.9
818.262	566.5
818.68	541.7
819.077	546.4
819.495	549
819.892	585.1
820.311	539.1
820.708	541.8
821.127	543.2
821.524	557.2
821.943	553
822.34	563.3
822.759	550.6
823.157	554.5
823.576	558.7
823.974	556.5
824.393	555.9
824.791	543.5
825.189	544.4
825.609	543.8
826.007	546.6
826.427	533.5
826.826	544.5
827.246	555.5
827.644	532.5
828.043	556.7
828.463	541.5
828.862	554
829.261	550.8
829.682	535.9
830.081	553.6
830.502	544.2
830.901	550.4
831.301	541.5
831.722	536.6
832.121	551.3
832.521	549.6
832.943	544.7
833.342	545.8
833.742	541.5
834.164	543.9
834.564	535
834.965	547.8
835.386	543.5
835.787	542.3
836.188	545.6
836.588	549.2
837.01	549.8
837.411	536.5
837.812	553
838.213	551.4
838.636	541.4
839.037	608.3
839.438	540
839.84	548.8
840.263	549.6
840.664	551.2
841.066	549.3
841.468	550.4
841.891	544.1
842.293	559.4
842.695	548.1
843.098	550.5
843.5	545.2
843.902	550.7
844.326	552
844.729	547.7
845.131	553.7
845.534	548.7
845.937	554.8
846.34	564.9
846.764	541.6
847.167	547.4
847.571	538.7
