#lambda/nm	C1
208.295	471
208.67	442.3
209.045	400.9
209.419	407.8
209.794	572.1
210.169	550.8
210.544	662.2
210.919	569.3
211.295	556.6
211.67	567.2
212.045	560.5
212.421	561.9
212.796	603.7
213.172	565.9
213.547	563.3
213.923	562.3
214.299	564.4
214.675	575.3
215.051	570.6
215.427	575.6
215.803	586.2
216.179	572.9
216.555	556
216.932	573.3
217.308	569.6
217.684	571.4
218.061	575.5
218.438	570.2
218.814	565.2
219.191	571.2
219.568	560.5
219.945	567.9
220.322	572.3
220.699	571.7
221.076	577.8
221.453	568.1
221.83	564.9
222.208	559.9
222.585	564.1
222.962	567.9
223.34	570.5
223.717	569
224.095	567.7
224.473	566.3
224.851	555.8
225.229	559.6
225.607	582.1
225.985	559.2
226.363	566.8
226.741	564.5
227.119	569.1
227.497	575.7
227.876	557.6
228.254	574.1
228.633	570.6
229.011	565.7
229.39	569.9
229.769	570.4
230.148	571
230.527	583.2
230.905	561
231.284	570.1
231.664	563.4
232.043	584.3
232.422	577.8
232.801	557.8
233.181	571.1
233.56	563.3
233.94	564.4
234.319	553.8
234.699	563.4
235.079	606.2
235.458	602.2
235.838	582.9
236.218	555.2
236.598	557.1
236.978	563.6
237.358	565.5
237.738	562.8
238.119	570.6
238.499	562.7
238.88	569.7
239.26	580.6
239.641	556.8
240.021	560
240.402	567.6
240.783	559.4
241.163	565.9
241.544	564.6
241.925	564.1
242.306	577.8
242.687	559.1
243.069	566.1
243.45	576.9
243.831	562.3
244.212	560
244.594	599.2
244.975	571.2
245.357	574.2
245.739	560.9
246.12	567.4
246.502	570.3
246.884	563.7
247.266	561.9
247.648	573.4
248.03	587.7
248.412	567.9
248.794	575.9
249.176	560.2
249.559	581.5
249.941	561
250.323	563.2
250.706	560.8
251.089	565.4
251.471	567.5
251.854	567.2
252.237	566.2
252.62	577.3
253.002	563.8
253.385	560.2
253.769	578.7
254.152	568.6
254.535	570.2
254.918	558.1
255.301	562
255.685	562.9
256.068	560.3
256.452	583
256.835	571.8
257.219	569.7
257.603	580.6
257.986	553.6
258.37	567.4
258.754	561.2
259.138	570.6
259.522	574.2
259.906	566.4
260.29	568
260.675	564.4
261.059	564.7
261.443	559.9
261.828	569.2
262.212	572.6
262.597	560.9
262.981	563.1
263.366	574.5
263.751	570.4
264.136	561.3
264.521	564.7
264.906	568.8
265.291	572.5
265.676	562.8
266.061	577.2
266.446	584.5
266.831	574
267.217	583.6
267.602	571.3
267.987	570.7
268.373	565.2
268.759	574.6
269.144	572.6
269.53	567.7
269.916	568.2
270.302	565.5
270.688	571.2
271.074	571
271.46	581.7
271.846	596.5
272.232	567.4
272.618	563.3
273.004	562.8
273.391	572
273.777	580.5
274.164	567.8
274.55	578.7
274.937	573.6
275.324	561.8
275.71	572.5
276.097	574.2
276.484	564.3
276.871	571.3
277.258	574.1
277.645	555.3
278.032	562.4
278.419	564.7
278.807	568.5
279.194	555.3
279.581	560.3
279.969	575.2
280.356	570.9
280.744	567
281.131	591.5
281.519	579.3
281.907	563.5
282.295	560
282.682	575.7
283.07	573.9
283.458	575
283.846	578.8
284.235	576.2
284.623	575.9
285.011	559.5
285.399	571.1
285.788	565.4
286.176	555.2
286.565	575.2
286.953	562.6
287.342	566.4
287.731	557.4
288.119	558.8
288.508	559.2
288.897	569.7
289.286	553.6
289.675	569.8
290.064	577.9
290.453	566.9
290.821	567.4
291.21	582.1
291.599	567.5
291.989	574.6
292.378	574.6
292.768	580.4
293.157	570.1
293.547	579.8
293.936	564.5
294.326	564
294.716	573.3
295.106	563.2
295.496	576.7
295.886	581.7
296.276	566.7
296.666	559.7
297.056	563.4
297.446	559.8
297.836	583.8
298.227	570
298.617	571
299.008	577.8
299.398	564.5
299.789	559.8
300.179	574.3
300.57	583.1
300.961	567
301.352	562.7
301.742	572.4
302.133	570.4
302.524	568.2
302.915	572.1
303.307	561.8
303.698	575
304.089	573.3
304.48	571.1
304.872	573.7
305.263	566.2
305.655	559.2
306.046	569.9
306.438	574.3
306.829	568.3
307.221	582.7
307.613	571.4
308.005	575.9
308.397	578.5
308.789	589.4
309.181	589.9
309.573	585.6
309.965	576
310.357	567.1
310.749	569.5
311.142	561.7
311.534	560.6
311.926	571.8
312.319	567.1
312.711	567.2
313.104	577.7
313.497	567.8
313.889	599.3
314.282	581.8
314.675	595.5
315.068	573.1
315.461	572.5
315.854	594.5
316.247	574.3
316.64	567.9
317.033	566.8
317.405	575.3
317.798	567.8
318.192	578.8
318.585	560.5
318.979	578.9
319.372	567.2
319.766	569.3
320.16	580.8
320.553	581
320.947	588.1
321.341	567
321.735	563.8
322.129	556.6
322.523	583.9
322.917	563.6
323.311	578.5
323.705	564
324.099	578
324.494	586.2
324.888	574.8
325.282	564.4
325.677	572.8
326.071	577.1
326.466	576.5
326.861	571.4
327.255	577.1
327.65	580.7
328.045	578
328.44	570.9
328.835	569.6
329.23	560.5
329.625	593.6
330.02	562.6
330.415	588.2
330.81	575.6
331.206	571.2
331.601	560.2
331.996	576
332.37	578.8
332.766	561.1
333.161	592.3
333.557	565.5
333.953	569.1
334.348	890.2
334.744	566.5
335.14	566.7
335.536	563.2
335.932	582.6
336.328	565.2
336.724	574.7
337.12	562.9
337.516	567.2
337.913	570.7
338.309	578.1
338.705	568.5
339.102	573.6
339.498	563.8
339.895	578.4
340.291	562.7
340.688	577.5
341.085	565.6
341.481	565.9
341.878	569.4
342.275	582.7
342.672	560.6
343.069	560.1
343.466	558.2
343.842	575.5
344.239	561.2
344.636	569.8
345.033	561
345.431	564.2
345.828	565.3
346.225	560.8
346.623	577.1
347.02	572.3
347.418	573.5
347.816	583.1
348.213	558
348.611	569.8
349.009	564.3
349.407	579.5
349.805	562.5
350.203	554
350.601	579.3
350.999	558.8
351.397	557.4
351.795	560.5
352.193	573.4
352.57	571
352.969	579.2
353.367	556.9
353.766	555.8
354.164	564.1
354.563	574.9
354.961	565.2
355.36	564.6
355.759	565.9
356.158	556.3
356.557	556.5
356.956	554.4
357.355	557.4
357.754	574.8
358.153	572.1
358.552	585.8
358.951	566.3
359.35	572.8
359.75	565.2
360.149	555
360.527	554.9
360.926	553.5
361.326	563.2
361.726	567.1
362.125	555.6
362.525	567.7
362.925	566.4
363.325	564.9
363.724	566
364.124	562.6
364.524	557.8
364.924	564.5
365.324	570.1
365.725	551.4
366.125	570
366.525	564.2
366.904	554.6
367.304	551.2
367.705	582.7
368.105	575.3
368.506	564.1
368.906	568.9
369.307	566.6
369.708	564.5
370.108	552.3
370.509	572.9
370.91	558.1
371.311	562.3
371.712	557.1
372.113	555
372.514	546.4
372.894	559.4
373.295	550.4
373.696	570.4
374.097	570.7
374.499	588.5
374.9	567.1
375.301	560.2
375.703	559.3
376.105	557.7
376.506	563
376.908	565.6
377.309	566
377.711	561.4
378.113	553.2
378.493	559.2
378.895	562.7
379.297	568
379.699	548
380.102	566.4
380.504	566.3
380.906	555.6
381.308	582.4
381.71	562
382.113	570.5
382.515	554.7
382.918	561.8
383.299	557.1
383.701	565.8
384.104	563
384.507	548.5
384.909	562.4
385.312	548.7
385.715	553.9
386.118	551.1
386.521	549.6
386.924	570
387.327	555.6
387.709	548.3
388.112	541.6
388.515	562.7
388.918	557.5
389.322	559.2
389.725	557.5
390.129	579
390.532	560.2
390.936	558
391.339	549.5
391.743	567
392.125	555.9
392.529	563.8
392.933	564.4
393.337	564.9
393.74	556.1
394.144	560.2
394.548	559.6
394.953	558.4
395.357	565.1
395.761	554.9
396.144	564.1
396.548	560.5
396.952	560.3
397.357	561.4
397.761	555.1
398.166	561.7
398.57	562.1
398.975	545.1
399.379	566.9
399.763	603.5
400.168	564.5
400.572	559.7
400.977	558.8
401.382	575.6
401.787	564.1
402.192	576.8
402.597	572.5
403.002	550.3
403.386	571.8
403.791	576.4
404.197	556.6
404.602	564.4
405.007	558.4
405.413	563.4
405.818	547
406.224	552.8
406.608	555.4
407.014	552.7
407.42	573.9
407.825	555.6
408.231	568.4
408.637	558
409.043	574.2
409.449	558
409.834	548.1
410.24	564.1
410.646	569.2
411.052	568.3
411.458	561.6
411.865	566.4
412.271	572.8
412.677	561.4
413.062	567.7
413.469	555.4
413.875	581.7
414.282	574.5
414.689	566
415.095	569.5
415.502	556.8
415.888	563.5
416.294	547.8
416.701	598.9
417.108	550.1
417.515	567
417.923	555.8
418.33	584.8
418.715	568.7
419.123	560
419.53	561
419.937	559
420.345	570
420.752	562.8
421.16	577.3
421.546	559.7
421.953	567.3
422.361	553.7
422.769	562.8
423.177	556.5
423.585	585.3
423.992	581
424.379	568.3
424.787	567.9
425.195	583.1
425.603	565.7
426.011	569.7
426.419	576.1
426.806	565.3
427.214	567.3
427.623	575.6
428.031	581.2
428.44	570.9
428.848	579.2
429.235	586.6
429.644	577.1
430.053	577
430.461	592.1
430.87	607.7
431.279	595.4
431.666	590.3
432.075	601.8
432.484	613.6
432.893	619.9
433.302	645
433.711	688.6
434.099	660.8
434.508	667.5
434.918	680.5
435.327	705.7
435.737	720
436.125	742.4
436.534	757.1
436.944	785.4
437.353	804.6
437.763	847
438.173	837.8
438.561	874.7
438.971	872.2
439.381	905.7
439.791	933.9
440.201	935.7
440.589	975.5
440.999	996.9
441.409	1020.2
441.819	1021.4
442.23	1055.5
442.619	1076.2
443.029	1091.6
443.439	1096.9
443.85	1120.7
444.26	1142.4
444.649	1142.8
445.06	1157.3
445.471	1170.3
445.881	1187.9
446.292	1221.7
446.682	1232.3
447.092	1206
447.503	1283.6
447.914	1253.8
448.325	1255.3
448.715	1275.4
449.126	1264.1
449.537	1271
449.948	1284.5
450.338	1300.1
450.75	1318.4
451.161	1325.5
451.572	1333.8
451.984	1330.6
452.374	1323.2
452.786	1336.6
453.197	1351
453.609	1358.9
453.999	1345.3
454.411	1343.5
454.823	1368.9
455.235	1370.1
455.647	1363.4
456.037	1377.1
456.449	1363.7
456.862	1383.1
457.274	1378.1
457.665	1375.4
458.077	1383.7
458.489	1383.9
458.902	1374.8
459.293	1390.1
459.705	1379.9
460.118	1368.5
460.53	1388.9
460.921	1384.9
461.334	1392.8
461.747	1388.8
462.16	1388.7
462.551	1389.7
462.964	1393.3
463.377	1363.5
463.79	1377.5
464.182	1370.6
464.595	1352.5
465.008	1369.8
465.421	1374.8
465.813	1358.2
466.226	1353.4
466.64	1356.1
467.053	1391.5
467.445	1375.5
467.859	1362.5
468.272	1353.6
468.686	1365.7
469.078	1353.4
469.492	1329.2
469.906	1340.3
470.298	1343.4
470.712	1332.8
471.126	1349
471.54	1321.6
471.933	1313.8
472.347	1321.4
472.761	1307.2
473.175	1307
473.568	1311.1
473.982	1299.4
474.397	1300.7
474.79	1293
475.204	1311.5
475.619	1291.4
476.033	1292.1
476.426	1284.3
476.841	1278.5
477.256	1301.3
477.649	1272.1
478.064	1264.4
478.479	1259.3
478.872	1261.7
479.287	1257.3
479.702	1247.7
480.118	1247.8
480.511	1258.3
480.927	1235.8
481.342	1253.4
481.736	1248.3
482.151	1239.5
482.566	1246.2
482.96	1231.5
483.376	1232.2
483.792	1216.4
484.186	1229.8
484.602	1218.5
485.017	1210
485.412	1207
485.827	1217.6
486.243	1203.5
486.638	1219.8
487.054	1205.5
487.47	1213.9
487.865	1177.9
488.281	1175.8
488.697	1173.9
489.092	1172.7
489.508	1164.1
489.925	1171.1
490.32	1154.9
490.736	1159.6
491.153	1155.9
491.548	1153
491.964	1169
492.381	1129.8
492.776	1148.7
493.193	1128.1
493.61	1136.6
494.006	1120.1
494.422	1124.3
494.84	1110.8
495.235	1120.8
495.652	1102
496.069	1094.1
496.465	1082.5
496.883	1089.1
497.3	1105
497.696	1069.5
498.113	1081
498.509	1064
498.927	1048.2
499.344	1050.5
499.741	1048.6
500.158	1061.2
500.576	1047.7
500.973	1038.6
501.39	1034.3
501.787	1020.3
502.205	1023.7
502.623	1015.2
503.02	1009.2
503.438	1002.9
503.856	1011.9
504.253	1006.2
504.671	998.3
505.068	996.2
505.486	987.1
505.905	998.8
506.302	989.3
506.72	997.5
507.118	968.1
507.536	975.8
507.955	965
508.352	970.4
508.771	959.7
509.169	959.3
509.587	939.5
510.006	947.7
510.404	933.4
510.823	939.2
511.221	936.6
511.64	932.6
512.038	936.6
512.457	923.2
512.877	925.4
513.275	906.2
513.694	915.1
514.092	906.4
514.512	907.8
514.91	898.7
515.33	900.9
515.749	901.5
516.148	889.5
516.568	884.4
516.966	879.6
517.386	874.6
517.785	873.7
518.205	865.9
518.603	868.3
519.024	852.7
519.444	867.5
519.843	865.1
520.263	868.6
520.662	861.7
521.082	849.9
521.481	846.4
521.902	847.1
522.301	844.9
522.722	848.8
523.121	830.3
523.542	825.8
523.963	826.4
524.362	822.4
524.783	817.6
525.183	814.8
525.604	811.3
526.003	797.9
526.425	803.7
526.824	809.4
527.246	812.8
527.646	803.5
528.067	798.3
528.467	794.5
528.888	790
529.289	788.6
529.71	781.8
530.11	774.6
530.532	768.3
530.932	769.6
531.354	765.8
531.755	800.7
532.176	774.9
532.577	763.4
532.999	761.3
533.4	754.6
533.822	767
534.223	751
534.645	757.6
535.046	752.4
535.468	749
535.869	761.1
536.292	739.2
536.693	741.4
537.115	746.8
537.516	734.7
537.939	736.6
538.34	753.1
538.742	741.3
539.165	734.2
539.566	732.5
539.989	722.7
540.391	720.5
540.814	725.2
541.216	726.7
541.639	726.8
542.041	726.7
542.464	717.7
542.866	711.7
543.268	704.5
543.691	720.2
544.093	724
544.517	733.5
544.919	704.6
545.343	727.8
545.745	700
546.147	706.4
546.571	701.8
546.974	692.9
547.398	696.5
547.8	706.8
548.224	692.5
548.627	689.6
549.03	697.2
549.454	685.6
549.857	672.1
550.281	687.2
550.684	681.2
551.087	693
551.512	692.6
551.915	692.8
552.34	680.5
552.743	682
553.146	673.4
553.571	676.8
553.975	690.1
554.399	669.5
554.803	713.5
555.207	662.1
555.632	661.3
556.036	672.1
556.461	653.1
556.865	666.3
557.268	655.6
557.694	654.9
558.098	668.8
558.502	661.6
558.927	650.9
559.332	655.5
559.736	653.5
560.162	660.6
560.566	647.1
560.992	656.5
561.396	651.3
561.801	649.3
562.227	653.1
562.631	638.6
563.036	644.1
563.462	647.1
563.867	643.1
564.272	630.1
564.698	641.9
565.103	625.4
565.508	653.2
565.935	637.7
566.34	636.4
566.745	642.3
567.172	626.3
567.577	650.6
567.982	640.5
568.409	631
568.815	623.3
569.22	627.6
569.626	631.2
570.053	614.6
570.459	626.2
570.865	626.7
571.292	631.7
571.698	632.8
572.104	611.4
572.531	617.1
572.937	624.6
573.343	620.9
573.75	616.8
574.177	615.8
574.583	619.9
574.99	618.6
575.396	612.8
575.824	609.1
576.231	618.8
576.637	610.4
577.065	635.8
577.472	610.9
577.879	602.4
578.286	625.4
578.714	601
579.121	605.6
579.528	609
579.935	612
580.364	602.6
580.771	592.2
581.178	594.6
581.585	608.4
582.014	603.8
582.421	593.4
582.829	592.1
583.236	608.5
583.644	592.1
584.073	594.7
584.481	598.2
584.889	592.6
585.296	606.8
585.726	593.4
586.134	589.8
586.542	587.2
586.95	607.2
587.358	584.8
587.787	595.3
588.196	584
588.604	590.7
589.012	589.7
589.421	581.8
589.851	587
590.259	590.2
590.668	583.7
591.076	618.9
591.485	582.7
591.894	585
592.324	593.4
592.733	588.7
593.142	569.6
593.551	579.7
593.96	590
594.369	575.7
594.8	571.7
595.209	578.7
595.618	567.5
596.028	573.2
596.437	572.3
596.847	575.4
597.256	584.9
597.687	581.8
598.097	577.2
598.507	566.4
598.917	577.6
599.327	583.9
599.736	573.9
600.146	580.5
600.556	572.5
600.988	585
601.398	573
601.808	580
602.219	558.8
602.629	572.1
603.039	574.7
603.45	595.9
603.86	573.1
604.271	579.9
604.703	573.2
605.114	567
605.525	567.9
605.935	575.1
606.346	583.5
606.757	568.9
607.168	565.7
607.579	558.1
607.99	575.3
608.402	566.3
608.813	558.4
609.224	559.1
609.636	556.1
610.047	557.5
610.48	565.4
610.892	570.3
611.303	565.7
611.715	554.1
612.127	551
612.539	557.9
612.95	567.1
613.362	552.7
613.774	551.4
614.186	553.9
614.599	558.1
615.011	569.3
615.423	548.3
615.835	558.4
616.248	554.1
616.66	567.7
617.073	554.5
617.485	564.6
617.898	565.3
618.311	563.6
618.723	559.3
619.136	588.7
619.549	575.6
619.962	584.6
620.375	559.8
620.788	561.4
621.201	552.1
621.614	567
622.028	557.1
622.441	561.5
622.854	571.1
623.268	549.8
623.681	567.3
624.095	557.8
624.509	568
624.922	567.1
625.336	550.8
625.728	560.3
626.142	567.2
626.556	570.3
626.97	561.5
627.384	556.6
627.799	562.7
628.213	568.7
628.627	556.2
629.041	552.1
629.456	556.4
629.87	553.5
630.285	562.4
630.699	564.4
631.093	561
631.507	561
631.922	564.3
632.337	572.1
632.752	554.1
633.167	551.9
633.582	551.5
633.997	550.1
634.412	550.2
634.806	552.8
635.221	546.2
635.637	558.6
636.052	544.7
636.468	553.5
636.883	567.5
637.299	548.8
637.715	535.8
638.109	555.3
638.525	539.8
638.941	565.2
639.357	555.3
639.773	561.1
640.189	549.2
640.584	555.9
641	550.8
641.416	537.1
641.832	545.9
642.249	552.7
642.665	549.9
643.06	553.3
643.477	557.3
643.894	532.5
644.31	548.9
644.727	547.7
645.123	549.4
645.54	543.1
645.957	552
646.374	552.4
646.77	549.9
647.187	570.9
647.604	553.9
648.021	539.3
648.439	541.6
648.835	549.1
649.252	549.9
649.67	545.5
650.088	548.9
650.484	553.9
650.902	551.5
651.32	551.6
651.738	549.3
652.134	551.2
652.552	567.2
652.971	559.1
653.389	545.6
653.786	555
654.204	547.6
654.622	540.4
655.019	545.3
655.438	551.8
655.857	548.7
656.275	555.4
656.673	543.6
657.091	606.6
657.51	545.7
657.908	560
658.327	565.6
658.746	536.8
659.144	545.8
659.563	557
659.982	548.6
660.38	540.1
660.8	546
661.219	556.1
661.617	554.7
662.037	543.8
662.457	550.2
662.855	537.9
663.275	572.7
663.695	548.6
664.094	542.3
664.514	550.8
664.934	541.4
665.333	547.3
665.753	542
666.152	538
666.572	537.8
666.993	558.4
667.392	540.6
667.812	544.1
668.212	542.2
668.632	552.5
669.053	537
669.453	552.4
669.874	551.1
670.273	545.2
670.694	542.5
671.116	557.4
671.515	552.5
671.937	548.8
672.337	539.4
672.758	542
673.158	550
673.58	537.1
673.98	547.8
674.402	554
674.824	546.8
675.224	541.2
675.646	535.9
676.047	539.7
676.469	544.5
676.869	549.5
677.292	543.4
677.693	538
678.115	542.7
678.516	545.4
678.939	544.4
679.34	543.4
679.762	552.3
680.164	548.5
680.586	536.2
680.988	550.3
681.411	568
681.812	535.6
682.236	534.8
682.637	540.1
683.061	534.8
683.462	540.2
683.864	542.3
684.288	546.2
684.69	532.7
685.114	550.7
685.516	546.6
685.94	537.3
686.342	546.6
686.766	537.2
687.168	539.1
687.571	554
687.995	544.5
688.398	537.7
688.822	534
689.225	551.3
689.628	562.2
690.052	540.5
690.456	550.3
690.88	543.1
691.284	534.1
691.687	549.2
692.112	535.5
692.515	535.8
692.919	543.8
693.344	545.8
693.747	539.6
694.173	535.5
694.577	554.2
694.98	540.2
695.406	541.7
695.81	545.4
696.214	547.3
696.64	547.3
697.044	545.4
697.448	548.8
697.874	541.1
698.279	541.7
698.684	527.1
699.11	536.7
699.514	538.6
699.919	537.1
700.324	533.5
700.75	542.6
701.156	544.8
701.561	549.8
701.987	545.3
702.393	551.5
702.798	547.7
703.203	540.1
703.63	533.1
704.036	543.6
704.442	540.3
704.847	536.7
705.274	534.4
705.68	540.5
706.086	545.3
706.492	532.6
706.92	533.8
707.326	539.6
707.732	536.7
708.139	530.6
708.545	529.3
708.973	534.8
709.38	543
709.786	524.8
710.193	551.3
710.6	539.1
711.028	538
711.435	539.3
711.842	537.6
712.249	533
712.656	539
713.064	546
713.492	536.3
713.9	535.1
714.307	536.8
714.715	537.1
715.123	534.7
715.53	538.2
715.938	551.4
716.367	541.1
716.775	536.5
717.184	528.1
717.592	540.1
718	546.3
718.408	569.4
718.816	577.1
719.225	535
719.633	536.5
720.042	535.6
720.472	536.7
720.881	556.1
721.29	543.8
721.699	536.3
722.108	537.9
722.517	543.5
722.926	533.7
723.335	542.3
723.744	538.1
724.154	541.4
724.563	540.2
724.973	543.6
725.382	540.3
725.792	535.8
726.202	528.6
726.612	544.7
727.022	538.5
727.432	536.4
779.813	534.4
780.223	577.3
780.634	534
781.044	528.2
781.454	535.1
781.865	549.3
782.276	528.5
782.686	545.4
783.097	537.5
783.508	530.7
783.919	538.7
784.33	546.4
784.741	545.5
785.152	531.8
785.563	525.6
785.974	532.5
786.386	542.9
786.776	535.4
787.188	537.5
787.599	526.7
788.011	543.8
788.423	543.8
788.835	534.1
789.247	525.8
789.659	536.6
790.071	535.6
790.483	577.8
790.874	533.4
791.286	541.5
791.699	534.1
792.111	538.6
792.524	544.3
792.937	535.1
793.349	527.8
793.741	522.4
794.154	535.9
794.567	544.4
794.98	534
795.393	525.6
795.785	548.5
796.198	527.3
796.612	540
797.026	532.6
797.439	522.1
797.831	533.8
798.245	525.7
798.659	529.8
799.073	533.2
799.487	530.6
799.88	541.2
800.294	530.4
800.708	539.6
801.123	542.5
801.516	555.9
801.93	524.2
802.345	521.7
802.76	539.6
803.153	545.8
803.568	547.6
803.983	545.6
804.377	536.7
804.792	525.2
805.207	524.4
805.601	534.3
806.016	561
806.432	524.7
806.826	566
807.242	545.9
807.658	538.2
808.052	534.5
808.468	534.4
808.884	532.2
809.279	537.7
809.695	542.8
810.111	558.4
810.506	543.6
810.922	555.4
811.339	534.2
811.734	542.2
812.151	533.8
812.546	532.6
812.963	531
813.38	539.3
813.776	536.1
814.193	548.4
814.589	527.1
815.006	530.1
815.402	534.1
815.82	534.2
816.237	531
816.633	538.4
817.051	525.8
817.448	533.7
817.866	528.4
818.262	554.4
818.68	532
819.077	530.5
819.495	533.8
819.892	570.4
820.311	533.5
820.708	534.8
821.127	530.6
821.524	537.9
821.943	538.5
822.34	549.3
822.759	537.5
823.157	536.1
823.576	550.1
823.974	537.7
824.393	548.3
824.791	534
825.189	525.6
825.609	538.2
826.007	536.6
826.427	526.8
826.826	535
827.246	542.3
827.644	521.2
828.043	542.8
828.463	524.2
828.862	539.8
829.261	543
829.682	528.5
830.081	537.9
830.502	529.1
830.901	540.1
831.301	528.5
831.722	525.2
832.121	532
832.521	534.7
832.943	536.9
833.342	532.5
833.742	526.7
834.164	530.8
834.564	525.7
834.965	534.1
835.386	533.3
835.787	533
836.188	527.8
836.588	534.6
837.01	537.3
837.411	521.2
837.812	545.1
838.213	534.3
838.636	529.3
839.037	594.5
839.438	532.5
839.84	540.3
840.263	541.6
840.664	535.8
841.066	535.5
841.468	535.4
841.891	528.1
842.293	543.9
842.695	539.8
