#lambda/nm	C1
208.295	473.6
208.67	441
209.045	400.4
209.419	409.9
209.794	571.3
210.169	549.9
210.544	665.5
210.919	566.9
211.295	559.7
211.67	572.1
212.045	562
212.421	562.7
212.796	599.9
213.172	559.8
213.547	563.9
213.923	560.5
214.299	562.9
214.675	571.1
215.051	567.8
215.427	565.2
215.803	585.4
216.179	573
216.555	560.7
216.932	573
217.308	560.2
217.684	563.5
218.061	571.1
218.438	570.2
218.814	559.8
219.191	572.8
219.568	557.8
219.945	562.2
220.322	571.8
220.699	566.8
221.076	570.8
221.453	566.6
221.83	562
222.208	564.5
222.585	563.1
222.962	570.7
223.34	565.8
223.717	566.2
224.095	564.9
224.473	570.1
224.851	561.7
225.229	551.5
225.607	583.2
225.985	555.2
226.363	571
226.741	575.6
227.119	566
227.497	581.7
227.876	559
228.254	572.5
228.633	573.6
229.011	564.9
229.39	573.2
229.769	571
230.148	575.4
230.527	586.3
230.905	566.8
231.284	574.2
231.664	562.9
232.043	578.6
232.422	571
232.801	560.8
233.181	568.7
233.56	561.8
233.94	563.2
234.319	554.5
234.699	565.5
235.079	603.9
235.458	600.3
235.838	586
236.218	556.4
236.598	553.2
236.978	560.6
237.358	564.2
237.738	562.2
238.119	568.7
238.499	558.3
238.88	557.8
239.26	582.1
239.641	561.5
240.021	563.5
240.402	562.3
240.783	567.2
241.163	567.4
241.544	565.5
241.925	566.4
242.306	580.7
242.687	566.9
243.069	569.7
243.45	571.7
243.831	561.2
244.212	566.7
244.594	599.5
244.975	573.9
245.357	569.9
245.739	559.3
246.12	564.4
246.502	578.7
246.884	563.4
247.266	560.8
247.648	572.8
248.03	587.4
248.412	569.9
248.794	578.5
249.176	564.3
249.559	578.6
249.941	559
250.323	559.5
250.706	562.6
251.089	569.8
251.471	564.5
251.854	565.6
252.237	562.4
252.62	576.6
253.002	563.8
253.385	568.8
253.769	575.1
254.152	565.9
254.535	578
254.918	560.3
255.301	564.4
255.685	564.1
256.068	561
256.452	586.6
256.835	571.4
257.219	574.4
257.603	579.5
257.986	558
258.37	573.9
258.754	551.8
259.138	573.7
259.522	577.1
259.906	563.2
260.29	571
260.675	563.6
261.059	568.7
261.443	562.1
261.828	573.9
262.212	573.8
262.597	558.7
262.981	561.9
263.366	578.8
263.751	566.1
264.136	562.2
264.521	559.6
264.906	557.2
265.291	572.2
265.676	566.3
266.061	568.7
266.446	585.2
266.831	564.8
267.217	582.9
267.602	568.7
267.987	573.4
268.373	563.5
268.759	572.3
269.144	573.4
269.53	566.4
269.916	558.3
270.302	556.2
270.688	572.6
271.074	565.8
271.46	581.3
271.846	595.5
272.232	567.2
272.618	556.6
273.004	562.9
273.391	569.3
273.777	582.5
274.164	566.4
274.55	578.1
274.937	567.7
275.324	563.7
275.71	575.3
276.097	569.5
276.484	559.2
276.871	567.7
277.258	564.7
277.645	550.2
278.032	566.6
278.419	565.5
278.807	572.3
279.194	559.6
279.581	561.1
279.969	570.5
280.356	564.1
280.744	571.5
281.131	589.7
281.519	575.3
281.907	567.1
282.295	567.5
282.682	575.3
283.07	570.7
283.458	569.1
283.846	573.6
284.235	575.8
284.623	573.9
285.011	555.5
285.399	564.1
285.788	564.9
286.176	560.3
286.565	575
286.953	566.2
287.342	562.6
287.731	562.8
288.119	554.8
288.508	566
288.897	561.6
289.286	558.7
289.675	572.4
290.064	578.9
290.453	563
290.821	564.6
291.21	583.3
291.599	562.6
291.989	567.1
292.378	571.3
292.768	584.5
293.157	572.7
293.547	571
293.936	566.2
294.326	559
294.716	568.9
295.106	561.5
295.496	574.9
295.886	570.2
296.276	564.1
296.666	564.3
297.056	567.1
297.446	559.7
297.836	582.9
298.227	564
298.617	566.9
299.008	577.9
299.398	566.1
299.789	560.3
300.179	571.2
300.57	581.4
300.961	563.3
301.352	565.5
301.742	570.7
302.133	568.5
302.524	562.4
302.915	564.4
303.307	562.1
303.698	579.6
304.089	580.3
304.48	564.1
304.872	569.7
305.263	566.4
305.655	565.9
306.046	572.8
306.438	576
306.829	568.2
307.221	584.1
307.613	573.7
308.005	580.5
308.397	582.8
308.789	588.6
309.181	592.7
309.573	586.7
309.965	582.5
310.357	564.8
310.749	570.5
311.142	560.2
311.534	561.7
311.926	568.7
312.319	570.8
312.711	563.6
313.104	573.7
313.497	565.5
313.889	601.7
314.282	580.1
314.675	584.3
315.068	573.6
315.461	575.5
315.854	593
316.247	577.2
316.64	569.1
317.033	569.3
317.405	576.9
317.798	566.3
318.192	569.7
318.585	566.6
318.979	577.3
319.372	563.4
319.766	566.4
320.16	583.6
320.553	581.9
320.947	585.3
321.341	567.1
321.735	564.9
322.129	561
322.523	591.1
322.917	563.4
323.311	578.6
323.705	568.6
324.099	572.3
324.494	584.9
324.888	575.6
325.282	566.5
325.677	571.2
326.071	577.7
326.466	579.6
326.861	573.5
327.255	581.4
327.65	579.6
328.045	580.9
328.44	572.1
328.835	565
329.23	559.4
329.625	595.9
330.02	565.4
330.415	591.4
330.81	570.1
331.206	571.4
331.601	566.3
331.996	577.1
332.37	578.2
332.766	559.9
333.161	590.7
333.557	559.1
333.953	577.2
334.348	885
334.744	568.7
335.14	570.1
335.536	565.3
335.932	580.3
336.328	565
336.724	576.5
337.12	570.4
337.516	572.8
337.913	570.9
338.309	580.8
338.705	565.7
339.102	578
339.498	570.7
339.895	577.6
340.291	562.2
340.688	571
341.085	558.4
341.481	565.9
341.878	562.7
342.275	582.7
342.672	556.4
343.069	560
343.466	553.1
343.842	575.9
344.239	559.6
344.636	570.9
345.033	559.1
345.431	563
345.828	566.3
346.225	560.5
346.623	576
347.02	569.8
347.418	574.6
347.816	579.3
348.213	558.7
348.611	571
349.009	563.1
349.407	577.9
349.805	554.6
350.203	556.1
350.601	578.8
350.999	564.6
351.397	559.6
351.795	563.9
352.193	574.1
352.57	574.3
352.969	574.1
353.367	556.1
353.766	562.7
354.164	563.2
354.563	571.1
354.961	567.2
355.36	561.5
355.759	563.6
356.158	558.6
356.557	558.4
356.956	556
357.355	551.4
357.754	560.8
358.153	573.3
358.552	581.6
358.951	562
359.35	573.3
359.75	564.5
360.149	557.7
360.527	551
360.926	555.3
361.326	564
361.726	558.2
362.125	560.3
362.525	572.4
362.925	563.6
363.325	559.7
363.724	563.4
364.124	553.8
364.524	555.1
364.924	561.8
365.324	573.8
365.725	552.5
366.125	564.2
366.525	561.1
366.904	556.7
367.304	547.1
367.705	579.4
368.105	575.8
368.506	560.9
368.906	563
369.307	558.5
369.708	562.8
370.108	548.3
370.509	568.1
370.91	552.6
371.311	562.3
371.712	560.1
372.113	561.8
372.514	549.4
372.894	561.5
373.295	554.9
373.696	568.6
374.097	566.9
374.499	586
374.9	566
375.301	555.8
375.703	559.7
376.105	552
376.506	562.4
376.908	561.3
377.309	567.7
377.711	555.8
378.113	555
378.493	560.2
378.895	550.6
379.297	567.4
379.699	550.9
380.102	562.4
380.504	557.3
380.906	554.5
381.308	582.7
381.71	561
382.113	560.5
382.515	557.4
382.918	562.3
383.299	559.4
383.701	563.1
384.104	567.5
384.507	547.7
384.909	558.1
385.312	553.7
385.715	551.7
386.118	560
386.521	550.8
386.924	570.1
387.327	553.4
387.709	547
388.112	541.3
388.515	554.7
388.918	558.6
389.322	558.4
389.725	553.9
390.129	578.7
390.532	564.9
390.936	560.7
391.339	556.2
391.743	563.4
392.125	550.2
392.529	574.5
392.933	572.4
393.337	557.4
393.74	557.2
394.144	567.9
394.548	553.3
394.953	556.7
395.357	562.5
395.761	556.4
396.144	559.6
396.548	559.8
396.952	563.9
397.357	564
397.761	555.9
398.166	551.2
398.57	554.8
398.975	550.3
399.379	564.9
399.763	605.3
400.168	561.7
400.572	560.8
400.977	559.8
401.382	579.6
401.787	570.8
402.192	579.5
402.597	575.5
403.002	553.7
403.386	567.4
403.791	573.2
404.197	559
404.602	558.5
405.007	562.6
405.413	549.4
405.818	554.2
406.224	553.3
406.608	555.6
407.014	554
407.42	572.1
407.825	551.5
408.231	563.5
408.637	563.2
409.043	569.9
409.449	553.8
409.834	550.4
410.24	561.8
410.646	568.5
411.052	568
411.458	566.6
411.865	570.8
412.271	570.4
412.677	560.5
413.062	568.6
413.469	555.4
413.875	581.5
414.282	573.5
414.689	564.4
415.095	572.8
415.502	561.2
415.888	564.1
416.294	546.5
416.701	593.4
417.108	561.8
417.515	566.9
417.923	558.7
418.33	579.9
418.715	569.7
419.123	564.7
419.53	559.2
419.937	558.6
420.345	571.6
420.752	558.4
421.16	576.6
421.546	564.1
421.953	570.7
422.361	559.6
422.769	561
423.177	551.3
423.585	586
423.992	577.7
424.379	574
424.787	570.1
425.195	576.3
425.603	560.1
426.011	576.2
426.419	573.6
426.806	565.5
427.214	567.3
427.623	577.7
428.031	576.8
428.44	568.1
428.848	579.7
429.235	582.5
429.644	577.8
430.053	569.5
430.461	592
430.87	604.7
431.279	598.3
431.666	595.8
432.075	608.4
432.484	621.3
432.893	622.7
433.302	653.7
433.711	691.2
434.099	678.7
434.508	685.6
434.918	691.7
435.327	731.7
435.737	744.4
436.125	766
436.534	786.6
436.944	802.6
437.353	834.4
437.763	869.6
438.173	868.4
438.561	908.1
438.971	908.7
439.381	944.6
439.791	971.1
440.201	974.5
440.589	1019.2
440.999	1049.9
441.409	1057.6
441.819	1069.9
442.23	1116.2
442.619	1124.2
443.029	1151.9
443.439	1158.5
443.85	1170.6
444.26	1180.3
444.649	1198.9
445.06	1212.7
445.471	1230.5
445.881	1256.1
446.292	1281.6
446.682	1307.9
447.092	1284.1
447.503	1350.1
447.914	1318.5
448.325	1326.7
448.715	1333.6
449.126	1332.5
449.537	1337.8
449.948	1357
450.338	1364.5
450.75	1377.5
451.161	1384.3
451.572	1405.3
451.984	1402.1
452.374	1408.5
452.786	1409.4
453.197	1426.3
453.609	1444.7
453.999	1418.3
454.411	1425.9
454.823	1448.4
455.235	1452.5
455.647	1452.1
456.037	1456.1
456.449	1444.5
456.862	1454.3
457.274	1458.6
457.665	1462.6
458.077	1465.7
458.489	1475
458.902	1464.2
459.293	1463.5
459.705	1469.1
460.118	1451.2
460.53	1465.8
460.921	1459.4
461.334	1470
461.747	1470.9
462.16	1489.6
462.551	1482.9
462.964	1454.4
463.377	1444.5
463.79	1452.8
464.182	1458
464.595	1438.8
465.008	1450.4
465.421	1441.1
465.813	1416
466.226	1429.7
466.64	1415.1
467.053	1465.1
467.445	1453
467.859	1438.8
468.272	1432.4
468.686	1439.7
469.078	1429.3
469.492	1420.4
469.906	1429.3
470.298	1426.9
470.712	1411.6
471.126	1436.6
471.54	1397.5
471.933	1394.8
472.347	1397.3
472.761	1400.6
473.175	1375.9
473.568	1370
473.982	1370.9
474.397	1376
474.79	1371.4
475.204	1380.8
475.619	1359.1
476.033	1358.9
476.426	1352.4
476.841	1348.3
477.256	1360.5
477.649	1332.2
478.064	1330
478.479	1324.5
478.872	1327.1
479.287	1320.4
479.702	1327.5
480.118	1320.2
480.511	1321.4
480.927	1309.3
481.342	1317.9
481.736	1317.2
482.151	1296.6
482.566	1298.9
482.96	1298.7
483.376	1299.9
483.792	1286
484.186	1294.6
484.602	1276.1
485.017	1269.4
485.412	1272.6
485.827	1274.8
486.243	1258.1
486.638	1280.2
487.054	1244.1
487.47	1269.3
487.865	1232.6
488.281	1246.1
488.697	1230.4
489.092	1216.1
489.508	1217.1
489.925	1225.6
490.32	1205.4
490.736	1212.6
491.153	1211.4
491.548	1211
491.964	1216.6
492.381	1189.6
492.776	1201.3
493.193	1192.3
493.61	1197.3
494.006	1176.2
494.422	1182.5
494.84	1168
495.235	1176.1
495.652	1159.5
496.069	1150.6
496.465	1129.2
496.883	1137.7
497.3	1156.3
497.696	1118.5
498.113	1123.7
498.509	1099.6
498.927	1094.5
499.344	1094.7
499.741	1085.3
500.158	1100.9
500.576	1091.9
500.973	1087.9
501.39	1073.5
501.787	1061.8
502.205	1067.6
502.623	1067.7
503.02	1045.6
503.438	1052.7
503.856	1046.8
504.253	1048.7
504.671	1039
505.068	1030.3
505.486	1018
505.905	1044.3
506.302	1025.2
506.72	1028.8
507.118	1008
507.536	1009.1
507.955	1001.1
508.352	1008
508.771	1002.2
509.169	990.5
509.587	987.2
510.006	976.5
510.404	968.6
510.823	966.4
511.221	973.1
511.64	964.6
512.038	971.6
512.457	955.1
512.877	957.8
513.275	946.5
513.694	940.8
514.092	936.2
514.512	933.3
514.91	927.4
515.33	927.2
515.749	931.1
516.148	929.1
516.568	924
516.966	913.6
517.386	902.9
517.785	894.5
518.205	894.2
518.603	891.2
519.024	889.2
519.444	893.8
519.843	896.8
520.263	892.5
520.662	886.7
521.082	875.8
521.481	874.9
521.902	871.8
522.301	864
522.722	864.7
523.121	858.1
523.542	848.5
523.963	849
524.362	843.1
524.783	842.7
525.183	837.2
525.604	842.2
526.003	829.8
526.425	829.2
526.824	835.1
527.246	836.2
527.646	830.3
528.067	820
528.467	815.2
528.888	811.3
529.289	804.3
529.71	800.8
530.11	800.3
530.532	792.6
530.932	788.1
531.354	790
531.755	813.9
532.176	799.1
532.577	781.4
532.999	782.4
533.4	779.6
533.822	782.9
534.223	776.6
534.645	769.9
535.046	763
535.468	766.3
535.869	777.3
536.292	764.8
536.693	757.3
537.115	764.5
537.516	757.2
537.939	746.4
538.34	769.4
538.742	765.6
539.165	753
539.566	745.9
539.989	737.2
540.391	741.9
540.814	742.6
541.216	743
541.639	738.1
542.041	746.6
542.464	738.7
542.866	730.5
543.268	729.2
543.691	729.7
544.093	734.2
544.517	740.8
544.919	715
545.343	741.1
545.745	711.3
546.147	718.4
546.571	717.5
546.974	708.3
547.398	713.1
547.8	729.4
548.224	705.2
548.627	695.4
549.03	704.3
549.454	701.2
549.857	687.4
550.281	697.4
550.684	691.9
551.087	712.9
551.512	694.1
551.915	694.6
552.34	690.9
552.743	683.8
553.146	683.9
553.571	679.6
553.975	704.7
554.399	674.6
554.803	726.6
555.207	677.4
555.632	670.6
556.036	676.6
556.461	667.1
556.865	678.5
557.268	664.6
557.694	665.6
558.098	671.8
558.502	674.1
558.927	661.3
559.332	659.9
559.736	659.3
560.162	658.8
560.566	660.2
560.992	663.7
561.396	658.6
561.801	653.1
562.227	650.6
562.631	649.7
563.036	649.4
563.462	658.7
563.867	655.1
564.272	636.9
564.698	650.4
565.103	635.1
565.508	653.5
565.935	637.1
566.34	635.6
566.745	651.7
567.172	632.6
567.577	656
567.982	649.7
568.409	642
568.815	626
569.22	634.9
569.626	641.5
570.053	619.6
570.459	632.9
570.865	635.7
571.292	628.1
571.698	624
572.104	614.1
572.531	622.8
572.937	635.4
573.343	618.1
573.75	618
574.177	621.8
574.583	627.8
574.99	614.9
575.396	621.2
575.824	610.5
576.231	621.6
576.637	608.4
577.065	636.8
577.472	611.3
577.879	609.9
578.286	626.4
578.714	608.5
579.121	610.7
579.528	610.4
579.935	622
580.364	604
580.771	593
581.178	595.5
581.585	607.5
582.014	609.8
582.421	603.8
582.829	593.3
583.236	610.4
583.644	597.1
584.073	598.6
584.481	602.8
584.889	592.2
585.296	603.8
585.726	595.7
586.134	596.1
586.542	591.5
586.95	616.4
587.358	585.9
587.787	601.2
588.196	589.6
588.604	591.5
589.012	595.8
589.421	589.9
589.851	587.9
590.259	591.2
590.668	590.7
591.076	624.6
591.485	582.5
591.894	584.3
592.324	602.3
592.733	596
593.142	578.4
593.551	581.7
593.96	622.5
594.369	570.7
594.8	578.1
595.209	584.1
595.618	570.9
596.028	572.4
596.437	578.3
596.847	576
597.256	582.9
597.687	581.6
598.097	573.7
598.507	570.8
598.917	579.4
599.327	581.6
599.736	583.8
600.146	585.2
600.556	574.5
600.988	585
601.398	574.2
601.808	583.7
602.219	560.4
602.629	581.3
603.039	573.7
603.45	586.1
603.86	572.6
604.271	579.1
604.703	571
605.114	570.4
605.525	573.2
605.935	573.7
606.346	585.2
606.757	575.2
607.168	562.4
607.579	563.8
607.99	568.8
608.402	565.8
608.813	567.9
609.224	564
609.636	554.1
610.047	558.5
610.48	566
610.892	570.1
611.303	571.6
611.715	559.9
612.127	556.4
612.539	557
612.95	566.3
613.362	556.9
613.774	553.7
614.186	559
614.599	556.4
615.011	570
615.423	548.6
615.835	555.3
616.248	554.1
616.66	563.6
617.073	559.5
617.485	562.8
617.898	573.2
618.311	565.1
618.723	559
619.136	584.3
619.549	575.1
619.962	585.2
620.375	559.4
620.788	564
621.201	551.5
621.614	564.6
622.028	565.3
622.441	566.1
622.854	572.8
623.268	553
623.681	564.8
624.095	562.7
624.509	569.7
624.922	565.9
625.336	550.3
625.728	562.9
626.142	567.3
626.556	576.8
626.97	565.1
627.384	554
627.799	559.9
628.213	571.5
628.627	557.2
629.041	555.5
629.456	555.3
629.87	558.5
630.285	569.3
630.699	571.2
631.093	553.7
631.507	561.6
631.922	560
632.337	569.5
632.752	550.3
633.167	551.3
633.582	550.1
633.997	551.8
634.412	557.1
634.806	553.3
635.221	545.3
635.637	564.9
636.052	543.8
636.468	557.4
636.883	575.4
637.299	558.9
637.715	543.3
638.109	552.4
638.525	542.3
638.941	562.7
639.357	556.2
639.773	559
640.189	549.1
640.584	542.8
641	551.5
641.416	537.3
641.832	547.4
642.249	548.3
642.665	548.7
643.06	556.6
643.477	557.1
643.894	538.9
644.31	545.9
644.727	550.4
645.123	549.8
645.54	542.9
645.957	553.2
646.374	554.6
646.77	548.3
647.187	577.9
647.604	546.3
648.021	534.7
648.439	540.5
648.835	546.1
649.252	553.6
649.67	547.6
650.088	552
650.484	552.1
650.902	551.4
651.32	556.9
651.738	546.6
652.134	553.4
652.552	569.5
652.971	550.6
653.389	545.1
653.786	560.2
654.204	547
654.622	539.8
655.019	548.8
655.438	547.8
655.857	545.1
656.275	550.8
656.673	539.5
657.091	608.6
657.51	543.7
657.908	556.5
658.327	566.3
658.746	541.3
659.144	544.8
659.563	554.3
659.982	550.8
660.38	542.2
660.8	551.3
661.219	555.6
661.617	554.2
662.037	543.6
662.457	556.6
662.855	534.1
663.275	572.2
663.695	542.7
664.094	542.7
664.514	542.3
664.934	539.9
665.333	558.9
665.753	540
666.152	541.3
666.572	540.9
666.993	554.8
667.392	542.1
667.812	537.9
668.212	539.7
668.632	553.3
669.053	545.9
669.453	552.6
669.874	544.9
670.273	542.9
670.694	538.1
671.116	555.6
671.515	555.6
671.937	539.5
672.337	537.2
672.758	541.1
673.158	552.9
673.58	531.2
673.98	545.6
674.402	557.3
674.824	539.9
675.224	540.6
675.646	537.1
676.047	540.2
676.469	542.5
676.869	548.8
677.292	544.6
677.693	542.5
678.115	542.1
678.516	545.4
678.939	552
679.34	548.8
679.762	557.5
680.164	546.5
680.586	536.8
680.988	546.6
681.411	567
681.812	542.8
682.236	536.4
682.637	539.6
683.061	534.2
683.462	547
683.864	543.8
684.288	552.6
684.69	539.5
685.114	552.8
685.516	549.1
685.94	533.2
686.342	552.2
686.766	539.3
687.168	537.2
687.571	554.6
687.995	539
688.398	535.1
688.822	540.8
689.225	550.6
689.628	556.3
690.052	538.3
690.456	545.9
690.88	539.2
691.284	529.4
691.687	542.6
692.112	536.5
692.515	532
692.919	541
693.344	544.5
693.747	545.4
694.173	533.6
694.577	545.2
694.98	536.9
695.406	540.2
695.81	546.5
696.214	545
696.64	539.6
697.044	543.8
697.448	551.8
697.874	540.5
698.279	543.1
698.684	536.7
699.11	531.3
699.514	536.9
699.919	540.2
700.324	535.1
700.75	541.5
701.156	539.9
701.561	554.8
701.987	541.8
702.393	550.6
702.798	545.9
703.203	539.6
703.63	539.2
704.036	534.1
704.442	539.3
704.847	531.6
705.274	539.1
705.68	539.6
706.086	546.1
706.492	523.9
706.92	538.8
707.326	541.1
707.732	537
708.139	535
708.545	528.3
708.973	532.6
709.38	539.3
709.786	530.9
710.193	553.4
710.6	536.1
711.028	533.1
711.435	538.6
711.842	540
712.249	531.2
712.656	540.4
713.064	547.6
713.492	533.1
713.9	537.9
714.307	547.1
714.715	538.1
715.123	543.2
715.53	545.8
715.938	547.1
716.367	534.9
716.775	539.6
717.184	529.4
717.592	537.5
718	551.2
718.408	570.6
718.816	574
719.225	540.7
719.633	539.9
720.042	527.2
720.472	533.9
720.881	557.1
721.29	542.7
721.699	532.8
722.108	541.2
722.517	536
722.926	535.2
723.335	550.1
723.744	541.8
724.154	542.7
724.563	543.1
724.973	541.1
725.382	539.6
725.792	538.4
726.202	528.4
726.612	543.1
727.022	537.8
727.432	536.6
779.813	536.5
780.223	574.1
780.634	535.1
781.044	530.3
781.454	542.4
781.865	553.3
782.276	539.1
782.686	546.8
783.097	538.6
783.508	538.3
783.919	537.4
784.33	546.8
784.741	553.5
785.152	534.1
785.563	522.5
785.974	528.9
786.386	546.4
786.776	534.1
787.188	539.1
787.599	527
788.011	542.7
788.423	538.1
788.835	527.8
789.247	523.2
789.659	533.8
790.071	531.2
790.483	572.2
790.874	533.5
791.286	542.3
791.699	533.5
792.111	536.6
792.524	540.2
792.937	532.5
793.349	524
793.741	527.2
794.154	531
794.567	554.1
794.98	532.9
795.393	521.9
795.785	555
796.198	535.5
796.612	536.7
797.026	537.3
797.439	522.6
797.831	535.2
798.245	528.2
798.659	536.7
799.073	532.5
799.487	533.9
799.88	535.9
800.294	532.9
800.708	542.7
801.123	540.1
801.516	558.4
801.93	525
802.345	525
802.76	529.2
803.153	544.1
803.568	546.1
803.983	545
804.377	539.6
804.792	522.2
805.207	522.4
805.601	531.7
806.016	565.7
806.432	526
806.826	560.7
807.242	546.9
807.658	534.5
808.052	530.4
808.468	536
808.884	530.6
809.279	541.5
809.695	548.2
810.111	552.8
810.506	540.2
810.922	553.5
811.339	525.8
811.734	537.8
812.151	533
812.546	533.4
812.963	529.2
813.38	537.4
813.776	538.2
814.193	553.6
814.589	526.6
815.006	535.3
815.402	527.4
815.82	526.1
816.237	530.5
816.633	538.9
817.051	525.9
817.448	535.2
817.866	529.7
818.262	551.1
818.68	528.8
819.077	531.6
819.495	533.7
819.892	566.9
820.311	528.4
820.708	531.1
821.127	538.6
821.524	545.4
821.943	536.7
822.34	551.6
822.759	536.9
823.157	537.4
823.576	539.8
823.974	551.8
824.393	545.3
824.791	531.4
825.189	528.3
825.609	535.4
826.007	530.7
826.427	518.6
826.826	532.3
827.246	541.5
827.644	520.9
828.043	546.8
828.463	531.8
828.862	541.9
829.261	541.1
829.682	531.3
830.081	543.1
830.502	532.3
830.901	537.3
831.301	531.6
831.722	524.3
832.121	531.7
832.521	533.6
832.943	535.6
833.342	536.6
833.742	531.6
834.164	531.7
834.564	525.4
834.965	534.5
835.386	527.8
835.787	528.3
836.188	530.8
836.588	529.9
837.01	540.6
837.411	527.9
837.812	534.8
838.213	532.8
838.636	528.6
839.037	597.9
839.438	539.1
839.84	536.3
840.263	537.4
840.664	539
841.066	529.6
841.468	537.9
841.891	525.4
