#lambda/nm	C1
208.295	473.3
208.67	442
209.045	400
209.419	403.8
209.794	586.2
210.169	562.3
210.544	672.6
210.919	581.6
211.295	571.9
211.67	577.3
212.045	576.2
212.421	576.4
212.796	610.1
213.172	571.2
213.547	569.9
213.923	571.9
214.299	570.1
214.675	585.7
215.051	576.2
215.427	581.8
215.803	590.9
216.179	581.3
216.555	570.5
216.932	585.4
217.308	578.2
217.684	575
218.061	581.6
218.438	582.9
218.814	575.9
219.191	583.9
219.568	569.8
219.945	578.6
220.322	584.8
220.699	577.2
221.076	584.4
221.453	575.8
221.83	567.1
222.208	570.9
222.585	570.1
222.962	577.1
223.34	580.6
223.717	575.8
224.095	572.6
224.473	579.8
224.851	570.4
225.229	567.7
225.607	593.1
225.985	563.2
226.363	578.1
226.741	577
227.119	573.1
227.497	591
227.876	564.3
228.254	579.4
228.633	580.1
229.011	576.3
229.39	576.4
229.769	580.3
230.148	577.4
230.527	591.6
230.905	579.2
231.284	579.9
231.664	579.2
232.043	593.4
232.422	582
232.801	572.5
233.181	578.5
233.56	571.6
233.94	576.1
234.319	566.4
234.699	576.5
235.079	614.3
235.458	610
235.838	587.6
236.218	571.3
236.598	569.4
236.978	570
237.358	566.6
237.738	571.3
238.119	582.4
238.499	568.2
238.88	580.6
239.26	588.1
239.641	566.6
240.021	569.4
240.402	576.4
240.783	567.6
241.163	575.7
241.544	575.7
241.925	573.5
242.306	588.1
242.687	566.3
243.069	580.4
243.45	580
243.831	569.6
244.212	574.1
244.594	608
244.975	584.6
245.357	578.8
245.739	571.1
246.12	578.9
246.502	586.7
246.884	570
247.266	572.9
247.648	578.4
248.03	594.2
248.412	575.7
248.794	580.3
249.176	571.2
249.559	587.4
249.941	565.3
250.323	572.5
250.706	571.9
251.089	578.5
251.471	571.2
251.854	574.6
252.237	580.9
252.62	585.1
253.002	577.2
253.385	583.7
253.769	591.1
254.152	576.2
254.535	584.9
254.918	570
255.301	575.4
255.685	574.8
256.068	572.4
256.452	599.2
256.835	583.5
257.219	585.9
257.603	584.5
257.986	570.2
258.37	581.7
258.754	560.5
259.138	582
259.522	588.9
259.906	577.7
260.29	582.2
260.675	571.7
261.059	581.1
261.443	567.7
261.828	582.8
262.212	583.1
262.597	564.1
262.981	571.2
263.366	584
263.751	578.9
264.136	576.6
264.521	569.3
264.906	572.9
265.291	585.2
265.676	571.7
266.061	585.2
266.446	597.8
266.831	579.7
267.217	593.7
267.602	581.1
267.987	576.5
268.373	573.8
268.759	586.5
269.144	582.5
269.53	579.4
269.916	572.7
270.302	570.5
270.688	589.6
271.074	583.7
271.46	584
271.846	606.9
272.232	579.3
272.618	572.6
273.004	572.3
273.391	586.7
273.777	596.2
274.164	581.9
274.55	596.9
274.937	576
275.324	572.2
275.71	580.4
276.097	581.8
276.484	569.3
276.871	581.5
277.258	579.5
277.645	563
278.032	575.1
278.419	572.1
278.807	579.4
279.194	563.5
279.581	570.6
279.969	584.5
280.356	579
280.744	577.4
281.131	603.4
281.519	585.3
281.907	575.2
282.295	576.3
282.682	585.5
283.07	582.6
283.458	589.1
283.846	587.3
284.235	588.5
284.623	584.9
285.011	568.1
285.399	579.2
285.788	573
286.176	564
286.565	591.1
286.953	568.1
287.342	577.2
287.731	572.9
288.119	569.7
288.508	574.1
288.897	579.3
289.286	566.6
289.675	572.8
290.064	588
290.453	571
290.821	569.9
291.21	590.8
291.599	574.5
291.989	579.5
292.378	584.8
292.768	597.8
293.157	583.6
293.547	583.7
293.936	579.4
294.326	574.4
294.716	581.4
295.106	576.8
295.496	580.7
295.886	584.7
296.276	575.8
296.666	571.1
297.056	574.6
297.446	569.7
297.836	595.1
298.227	576.9
298.617	579.4
299.008	590.8
299.398	572.6
299.789	574.2
300.179	586.8
300.57	588.9
300.961	573.6
301.352	573.1
301.742	585.3
302.133	580.9
302.524	577
302.915	576
303.307	572.6
303.698	585.3
304.089	585.5
304.48	575.3
304.872	581
305.263	580.4
305.655	573.5
306.046	587.8
306.438	579.3
306.829	570.5
307.221	592.2
307.613	581.1
308.005	588.3
308.397	592.7
308.789	598.5
309.181	604.6
309.573	596.9
309.965	589.4
310.357	577.7
310.749	583.3
311.142	574.8
311.534	577.7
311.926	580.7
312.319	578.6
312.711	570.2
313.104	588.8
313.497	577.3
313.889	613.1
314.282	593.8
314.675	601.6
315.068	585
315.461	583.5
315.854	611.4
316.247	587
316.64	583.2
317.033	575.4
317.405	587.8
317.798	576.8
318.192	582.4
318.585	566.2
318.979	583.3
319.372	571.5
319.766	575.6
320.16	587.1
320.553	591.4
320.947	598.6
321.341	575.1
321.735	575.4
322.129	571.2
322.523	601.4
322.917	574.1
323.311	583.7
323.705	581.6
324.099	587
324.494	594.7
324.888	588
325.282	579.6
325.677	582.9
326.071	587.9
326.466	589.5
326.861	584.9
327.255	589.3
327.65	593.6
328.045	596.2
328.44	586.3
328.835	582.2
329.23	571.5
329.625	606.5
330.02	574.9
330.415	601.5
330.81	588.2
331.206	584.3
331.601	576.1
331.996	588.5
332.37	592.6
332.766	568.1
333.161	603.1
333.557	577.9
333.953	582
334.348	998.9
334.744	579.6
335.14	574
335.536	567.2
335.932	582.1
336.328	574.7
336.724	585.5
337.12	575.2
337.516	576.9
337.913	574.2
338.309	593
338.705	576.9
339.102	584.8
339.498	576
339.895	590.4
340.291	573.9
340.688	584.8
341.085	574.6
341.481	576.2
341.878	574.9
342.275	598.4
342.672	566
343.069	571
343.466	568.1
343.842	582.5
344.239	571.5
344.636	575.2
345.033	569.6
345.431	571.6
345.828	579.8
346.225	571.6
346.623	584.6
347.02	575.8
347.418	584.4
347.816	590.4
348.213	568.5
348.611	586.3
349.009	571.7
349.407	590.5
349.805	569.2
350.203	564
350.601	586.8
350.999	572.8
351.397	568.5
351.795	578.6
352.193	583.2
352.57	587.6
352.969	588.1
353.367	570.4
353.766	568.7
354.164	568.7
354.563	588.3
354.961	574.4
355.36	572.1
355.759	574.3
356.158	570.2
356.557	569.5
356.956	564.6
357.355	565.1
357.754	581.1
358.153	574.6
358.552	602.1
358.951	575.2
359.35	584.4
359.75	571
360.149	566.2
360.527	559.1
360.926	569.2
361.326	579
361.726	571.8
362.125	569.4
362.525	573.6
362.925	570
363.325	577.3
363.724	576.3
364.124	571.9
364.524	565.4
364.924	569.9
365.324	589
365.725	562.8
366.125	580
366.525	574.2
366.904	566.7
367.304	559.5
367.705	593.2
368.105	592
368.506	572.2
368.906	571.7
369.307	573.9
369.708	574.9
370.108	563.4
370.509	581.6
370.91	568.2
371.311	576.2
371.712	576.7
372.113	564.4
372.514	558.6
372.894	566
373.295	564.3
373.696	581.7
374.097	581.7
374.499	594.3
374.9	577.3
375.301	566
375.703	577.6
376.105	561.7
376.506	571.9
376.908	573.8
377.309	570.3
377.711	566.6
378.113	568.6
378.493	569.3
378.895	568.3
379.297	580.7
379.699	565.4
380.102	576.9
380.504	571.5
380.906	562.6
381.308	599.4
381.71	570.8
382.113	579.6
382.515	575.6
382.918	576.7
383.299	575.3
383.701	577
384.104	571.6
384.507	553.7
384.909	565.9
385.312	564.3
385.715	563.6
386.118	567.8
386.521	562.9
386.924	574
387.327	565.2
387.709	555
388.112	558.5
388.515	565.1
388.918	570.7
389.322	576.1
389.725	568.2
390.129	589
390.532	573.6
390.936	563.8
391.339	566
391.743	575.9
392.125	562.2
392.529	581.1
392.933	582.6
393.337	569.9
393.74	567.7
394.144	574.7
394.548	567.1
394.953	564.5
395.357	576
395.761	567.8
396.144	565.2
396.548	566.3
396.952	566.2
397.357	571.3
397.761	567.6
398.166	566.8
398.57	564.4
398.975	562.7
399.379	572.6
399.763	617.4
400.168	570.8
400.572	564.8
400.977	566.1
401.382	587
401.787	577
402.192	587.3
402.597	582.9
403.002	562
403.386	579.7
403.791	588.2
404.197	567.1
404.602	569.7
405.007	570.4
405.413	568.1
405.818	562.5
406.224	561.8
406.608	568.1
407.014	559.8
407.42	586.2
407.825	564.9
408.231	582.6
408.637	575.5
409.043	584.8
409.449	570.3
409.834	563.3
410.24	569.7
410.646	577.2
411.052	579.9
411.458	576.6
411.865	584.2
412.271	582.9
412.677	568.9
413.062	577.8
413.469	557.7
413.875	593.7
414.282	586.4
414.689	574.2
415.095	580.4
415.502	564.3
415.888	572.6
416.294	558.3
416.701	603.7
417.108	565.6
417.515	579.7
417.923	569.4
418.33	593.7
418.715	580.4
419.123	567.2
419.53	566.1
419.937	576.1
420.345	583.3
420.752	570.4
421.16	586.7
421.546	573.8
421.953	577.9
422.361	562.6
422.769	575.7
423.177	565.5
423.585	593.2
423.992	590
424.379	577.7
424.787	581.5
425.195	591
425.603	575.1
426.011	588.1
426.419	586.6
426.806	578
427.214	574.8
427.623	583.4
428.031	594.5
428.44	581
428.848	585.7
429.235	589.5
429.644	578.2
430.053	583
430.461	593.1
430.87	604.2
431.279	600.6
431.666	581.1
432.075	602
432.484	610.1
432.893	610.2
433.302	637
433.711	674.5
434.099	649.1
434.508	654.8
434.918	665.6
435.327	688
435.737	701.1
436.125	719.4
436.534	732.6
436.944	761.4
437.353	779.1
437.763	807.7
438.173	807.5
438.561	837.8
438.971	829.2
439.381	857.3
439.791	888.3
440.201	888.7
440.589	927.5
440.999	948.7
441.409	968.7
441.819	983.8
442.23	1012.2
442.619	1029.9
443.029	1037.6
443.439	1057
443.85	1078.1
444.26	1100.9
444.649	1110.8
445.06	1115.9
445.471	1116.7
445.881	1132.4
446.292	1168.5
446.682	1190.4
447.092	1159.5
447.503	1238.2
447.914	1195.5
448.325	1210.1
448.715	1216
449.126	1216.3
449.537	1228.9
449.948	1234.8
450.338	1246.3
450.75	1255
451.161	1263.9
451.572	1277.6
451.984	1278.2
452.374	1274.7
452.786	1286.1
453.197	1292.8
453.609	1298.5
453.999	1295.5
454.411	1297
454.823	1320.3
455.235	1314.7
455.647	1309
456.037	1318.2
456.449	1303.7
456.862	1327.1
457.274	1335.8
457.665	1309.6
458.077	1328.5
458.489	1350.1
458.902	1329.8
459.293	1336.9
459.705	1329.8
460.118	1315.3
460.53	1332.5
460.921	1320.7
461.334	1328.3
461.747	1319.4
462.16	1343.4
462.551	1329.4
462.964	1330
463.377	1324.2
463.79	1330.8
464.182	1346.7
464.595	1322.7
465.008	1330.1
465.421	1325.7
465.813	1315.2
466.226	1323.9
466.64	1320.7
467.053	1363.6
467.445	1332.8
467.859	1324.6
468.272	1319.6
468.686	1336.6
469.078	1314.2
469.492	1295.6
469.906	1310.8
470.298	1308.3
470.712	1297.7
471.126	1326.4
471.54	1275.9
471.933	1276.5
472.347	1275.9
472.761	1268.2
473.175	1266.6
473.568	1273.1
473.982	1271.7
474.397	1264.3
474.79	1272.2
475.204	1270
475.619	1263.7
476.033	1255.5
476.426	1260.8
476.841	1248.3
477.256	1268.2
477.649	1244.7
478.064	1233.4
478.479	1243.9
478.872	1235.1
479.287	1221.9
479.702	1218
480.118	1221.7
480.511	1217.6
480.927	1211.5
481.342	1209.6
481.736	1222.4
482.151	1205.7
482.566	1219.5
482.96	1199.5
483.376	1220.1
483.792	1186
484.186	1207
484.602	1185.4
485.017	1191.4
485.412	1176.6
485.827	1181.9
486.243	1175.1
486.638	1197.2
487.054	1178.9
487.47	1180.1
487.865	1157.4
488.281	1149.7
488.697	1147.9
489.092	1146.2
489.508	1132.9
489.925	1141.1
490.32	1122.4
490.736	1136.6
491.153	1130.1
491.548	1130.1
491.964	1127.6
492.381	1094.9
492.776	1110.8
493.193	1110.5
493.61	1103
494.006	1099.1
494.422	1095.7
494.84	1082
495.235	1096.1
495.652	1087.2
496.069	1084.5
496.465	1062.3
496.883	1064.4
497.3	1086.3
497.696	1061.8
498.113	1059.5
498.509	1042.1
498.927	1038.6
499.344	1032.9
499.741	1035.1
500.158	1047
500.576	1044.4
500.973	1027.7
501.39	1013.2
501.787	1013.4
502.205	1012.8
502.623	1014.1
503.02	993.4
503.438	1005.7
503.856	994
504.253	985.9
504.671	998.8
505.068	977
505.486	968.3
505.905	997.8
506.302	980.6
506.72	982
507.118	953.8
507.536	960.9
507.955	954.6
508.352	954.8
508.771	952.4
509.169	949.7
509.587	930.6
510.006	940.6
510.404	931
510.823	923.7
511.221	922.9
511.64	922.6
512.038	931.7
512.457	917.2
512.877	905
513.275	898.9
513.694	886.6
514.092	891.9
514.512	897.4
514.91	892.3
515.33	891.5
515.749	890.2
516.148	891.9
516.568	886.6
516.966	886.2
517.386	859.3
517.785	868.9
518.205	866.6
518.603	854.5
519.024	853.8
519.444	856.2
519.843	859.3
520.263	860.2
520.662	852.8
521.082	843.1
521.481	848.3
521.902	845.2
522.301	835.7
522.722	832
523.121	836
523.542	821.2
523.963	821.1
524.362	824.3
524.783	826.8
525.183	821.8
525.604	813.4
526.003	802.4
526.425	798.3
526.824	808.1
527.246	808.4
527.646	804.3
528.067	795.5
528.467	790
528.888	795.9
529.289	783
529.71	783.1
530.11	779.3
530.532	781.8
530.932	769.3
531.354	763.3
531.755	796.2
532.176	776
532.577	759.6
532.999	757.6
533.4	753
533.822	763.5
534.223	752.5
534.645	744.7
535.046	747.8
535.468	752.6
535.869	760.9
536.292	745.5
536.693	735.6
537.115	739.5
537.516	731.8
537.939	728.2
538.34	753.1
538.742	754.1
539.165	742.6
539.566	733.6
539.989	730.1
540.391	728.1
540.814	729.9
541.216	729.4
541.639	731.1
542.041	737.6
542.464	718.4
542.866	716.2
543.268	713.8
543.691	724
544.093	733.3
544.517	735.3
544.919	705.1
545.343	734.3
545.745	702.6
546.147	712.7
546.571	708.1
546.974	697.9
547.398	697.7
547.8	719.9
548.224	701.2
548.627	689.5
549.03	707.1
549.454	689.1
549.857	679.5
550.281	688.3
550.684	686.8
551.087	693.3
551.512	695
551.915	691.7
552.34	688.8
552.743	680.2
553.146	680.1
553.571	678.5
553.975	695.7
554.399	676.9
554.803	720.4
555.207	676.4
555.632	665.8
556.036	677.8
556.461	663
556.865	666.5
557.268	664.2
557.694	661.9
558.098	669.6
558.502	668.1
558.927	660.2
559.332	658.4
559.736	666.9
560.162	663.3
560.566	657.7
560.992	659.5
561.396	657.5
561.801	652.7
562.227	656.4
562.631	651.3
563.036	644.1
563.462	652
563.867	646.8
564.272	632.1
564.698	644.3
565.103	633
565.508	656.7
565.935	642.3
566.34	637.7
566.745	647.5
567.172	640.9
567.577	656.9
567.982	647.1
568.409	633
568.815	628
569.22	626.9
569.626	639.3
570.053	620
570.459	631.4
570.865	637.1
571.292	630.8
571.698	629.2
572.104	609.4
572.531	626.8
572.937	631.5
573.343	621.5
573.75	621.3
574.177	625.9
574.583	631.9
574.99	614.9
575.396	622.9
575.824	613.5
576.231	626.3
576.637	614.1
577.065	638.3
577.472	612.2
577.879	614.4
578.286	629.8
578.714	607.1
579.121	612.2
579.528	620.5
579.935	623.5
580.364	609
580.771	602.9
581.178	604.5
581.585	615.9
582.014	614.6
582.421	600.7
582.829	600.3
583.236	613.1
583.644	603.6
584.073	604.3
584.481	604.2
584.889	598.4
585.296	610.3
585.726	602
586.134	590
586.542	595.9
586.95	616.6
587.358	588.3
587.787	597.6
588.196	591.9
588.604	598.3
589.012	597.2
589.421	588
589.851	590.1
590.259	600.1
590.668	595.7
591.076	632.5
591.485	590.8
591.894	588.8
592.324	608.1
592.733	608.8
593.142	579.6
593.551	593.8
593.96	598.4
594.369	585.3
594.8	580.9
595.209	586
595.618	578.3
596.028	576.5
596.437	581.3
596.847	586.5
597.256	591
597.687	587.8
598.097	588.1
598.507	575.8
598.917	586.4
599.327	587.5
599.736	583
600.146	589.2
600.556	579.8
600.988	595.8
601.398	579.1
601.808	594.5
602.219	569.9
602.629	581.3
603.039	587.1
603.45	603.1
603.86	577.4
604.271	585.7
604.703	577.8
605.114	567.8
605.525	580.4
605.935	579.2
606.346	588.4
606.757	580.1
607.168	571.9
607.579	572.7
607.99	585.5
608.402	576.4
608.813	574.6
609.224	571
609.636	562.5
610.047	567
610.48	574.6
610.892	576.4
611.303	576.7
611.715	567.4
612.127	569
612.539	569.1
612.95	574
613.362	563.7
613.774	558.5
614.186	562
614.599	561.6
615.011	582.4
615.423	565.4
615.835	565.9
616.248	560.8
616.66	576.4
617.073	558.6
617.485	570.6
617.898	579.6
618.311	575.5
618.723	574.8
619.136	596.6
619.549	583.7
619.962	584.5
620.375	562.8
620.788	570.5
621.201	559.9
621.614	569.1
622.028	565.1
622.441	565.2
622.854	576.5
623.268	559.7
623.681	572.4
624.095	568.9
624.509	575.4
624.922	579
625.336	557.5
625.728	570.2
626.142	574.1
626.556	585.3
626.97	572.8
627.384	563.8
627.799	563.4
628.213	573.4
628.627	562.7
629.041	563.2
629.456	557.3
629.87	566.4
630.285	575.8
630.699	573.2
631.093	562.7
631.507	565
631.922	572.4
632.337	579
632.752	553.9
633.167	562.4
633.582	558.1
633.997	559.8
634.412	558.9
634.806	566.7
635.221	555.2
635.637	572.1
636.052	555.3
636.468	562.7
636.883	580.3
637.299	560
637.715	551.6
638.109	561.2
638.525	549.6
638.941	574.6
639.357	562.4
639.773	573.6
640.189	559.4
640.584	557.9
641	565.3
641.416	551.1
641.832	556
642.249	556.5
642.665	560.8
643.06	563.5
643.477	568.3
643.894	543.4
644.31	558.3
644.727	556.7
645.123	556.9
645.54	552.6
645.957	558.3
646.374	562.8
646.77	550.4
647.187	586.7
647.604	557.3
648.021	544.3
648.439	551.2
648.835	560.5
649.252	559.1
649.67	556.2
650.088	559.4
650.484	562.9
650.902	564.1
651.32	568.5
651.738	555.1
652.134	562.3
652.552	575.2
652.971	564.3
653.389	558.6
653.786	569.1
654.204	558.3
654.622	553.7
655.019	556
655.438	562.3
655.857	556.9
656.275	560.1
656.673	548.8
657.091	621.2
657.51	550.4
657.908	563.4
658.327	570.1
658.746	549.4
659.144	550.3
659.563	565.8
659.982	559.7
660.38	552
660.8	554.3
661.219	560.3
661.617	559.4
662.037	550.5
662.457	562.9
662.855	540.6
663.275	582.8
663.695	557.5
664.094	552.2
664.514	556.4
664.934	549.2
665.333	559.6
665.753	548.2
666.152	538.4
666.572	548
666.993	564.1
667.392	555.5
667.812	554.5
668.212	547.9
668.632	566.9
669.053	552.5
669.453	554.8
669.874	560
670.273	551.1
670.694	549.9
671.116	568.6
671.515	559.8
671.937	551.5
672.337	552.6
672.758	554.6
673.158	559
673.58	543.9
673.98	554.3
674.402	564.9
674.824	553.4
675.224	551.3
675.646	547.2
676.047	544.6
676.469	552
676.869	558.3
677.292	557.5
677.693	551.9
678.115	552.1
678.516	561.7
678.939	555.9
679.34	551.7
679.762	560.6
680.164	555.3
680.586	551
680.988	554.4
681.411	574.4
681.812	552.3
682.236	547.5
682.637	546.6
683.061	539.9
683.462	552.3
683.864	549.2
684.288	558.2
684.69	540.8
685.114	562.9
685.516	564.4
685.94	541.9
686.342	559
686.766	551.9
687.168	548.7
687.571	571.7
687.995	552
688.398	541
688.822	547.8
689.225	568.9
689.628	570.1
690.052	550
690.456	559
690.88	551
691.284	538.7
691.687	556.4
692.112	540.2
692.515	541.4
692.919	554.3
693.344	556.4
693.747	546.1
694.173	541.8
694.577	556
694.98	552.3
695.406	544.1
695.81	549.6
696.214	554
696.64	553.9
697.044	554.7
697.448	563.1
697.874	551.2
698.279	540.6
698.684	544.3
699.11	542.8
699.514	549.1
699.919	551.3
700.324	544.2
700.75	551.9
701.156	546.7
701.561	560
701.987	551.8
702.393	559.2
702.798	558.9
703.203	546.6
703.63	544.5
704.036	544.4
704.442	551.2
704.847	544.5
705.274	540.7
705.68	550.8
706.086	558.5
706.492	538.5
706.92	545.6
707.326	558.7
707.732	547.8
708.139	540.9
708.545	541.6
708.973	541.5
709.38	548.4
709.786	536.8
710.193	562
710.6	548.8
711.028	546.6
711.435	550.2
711.842	548.7
712.249	546.4
712.656	550.6
713.064	548
713.492	537.9
713.9	544.9
714.307	556.5
714.715	550.6
715.123	541.5
715.53	546.5
715.938	552.7
716.367	551.6
716.775	544.1
717.184	539.6
717.592	540.9
718	556.8
718.408	575.7
718.816	588.7
719.225	549.5
719.633	546.3
720.042	538
720.472	545.1
720.881	566.4
721.29	554.6
721.699	542.3
722.108	550.9
722.517	552.9
722.926	545.2
723.335	553.2
723.744	547.4
724.154	551
724.563	550.7
724.973	551.1
725.382	551.7
725.792	549.1
726.202	542.2
726.612	555.7
727.022	551.7
727.432	547.5
779.813	542.9
780.223	589.8
780.634	544.9
781.044	534.7
781.454	548.3
781.865	559.2
782.276	537.8
782.686	554.2
783.097	544.1
783.508	547.3
783.919	555.3
784.33	556.6
784.741	560.7
785.152	546.2
785.563	531.8
785.974	542.3
786.386	555.8
786.776	544.7
787.188	544.4
787.599	543.7
788.011	549.2
788.423	551.9
788.835	543.8
789.247	536
789.659	542
790.071	542.6
790.483	592.5
790.874	544.1
791.286	550
791.699	537.5
792.111	551.4
792.524	546.6
792.937	552.9
793.349	541.8
793.741	541.3
794.154	545.1
794.567	559.3
794.98	545.9
795.393	535.8
795.785	555.6
796.198	541.8
796.612	548.4
797.026	545.1
797.439	530.6
797.831	553.6
798.245	538.8
798.659	542
799.073	541.8
799.487	546.1
799.88	542.2
800.294	541.5
800.708	549.8
801.123	546.3
801.516	563.7
801.93	532.5
802.345	537.9
802.76	544.2
803.153	551.7
803.568	554.5
803.983	557.4
804.377	547.1
804.792	534.2
805.207	535.8
805.601	541.4
806.016	572.8
806.432	535.4
806.826	569.2
807.242	554.5
807.658	549.5
808.052	542.8
808.468	540.1
808.884	541.8
809.279	545.6
809.695	556.1
810.111	566.3
810.506	546.7
810.922	564.1
811.339	535.9
811.734	552.6
812.151	537.4
812.546	541.3
812.963	534.9
813.38	543.4
813.776	542.3
814.193	564.2
814.589	539.3
815.006	543.6
815.402	538
815.82	537.6
816.237	544.5
816.633	543.8
817.051	540.3
817.448	549.2
817.866	531.7
818.262	563.6
818.68	543.6
819.077	539.4
819.495	541.3
819.892	581.3
820.311	539.4
820.708	544
821.127	541.7
821.524	555
821.943	548.8
822.34	557.7
822.759	548.4
823.157	545.7
823.576	558.9
823.974	545.2
824.393	554.7
824.791	538.5
825.189	542.5
825.609	540.6
826.007	543.7
826.427	532.9
826.826	542.3
827.246	550.9
827.644	530.8
828.043	552.1
828.463	540.6
828.862	554.2
829.261	551.4
829.682	533.2
830.081	548.7
830.502	538.2
830.901	550.6
831.301	534.7
831.722	535.4
832.121	543.1
832.521	541.2
832.943	544.3
833.342	546.1
833.742	535.1
834.164	544.3
834.564	535.1
834.965	547.5
835.386	539
835.787	539
836.188	545
836.588	549
837.01	544.6
837.411	536.7
837.812	546.4
838.213	550.4
838.636	543.8
839.037	607.3
839.438	550.5
839.84	540.9
840.263	544.5
840.664	550
841.066	539
841.468	543
841.891	533.2
842.293	556.8
842.695	543.4
843.098	547.3
843.5	537.7
