#lambda/nm	C1
208.295	469.8
208.67	441
209.045	396.2
209.419	404.5
209.794	568.3
210.169	554.3
210.544	659.9
210.919	565
211.295	552.2
211.67	564.4
212.045	560.5
212.421	554.8
212.796	597.6
213.172	558.4
213.547	561.4
213.923	557.4
214.299	558.9
214.675	567.8
215.051	567.3
215.427	565.7
215.803	576.7
216.179	568.2
216.555	554.7
216.932	565.3
217.308	568.4
217.684	557
218.061	571.6
218.438	567.3
218.814	558.5
219.191	569.1
219.568	554.5
219.945	558.8
220.322	568.8
220.699	566.7
221.076	572.8
221.453	564
221.83	559.5
222.208	555
222.585	560.5
222.962	568.2
223.34	574
223.717	564.5
224.095	559.5
224.473	561
224.851	563
225.229	556.9
225.607	579
225.985	551.1
226.363	567.4
226.741	566.4
227.119	564.5
227.497	572.3
227.876	549.3
228.254	570.8
228.633	568.6
229.011	563.7
229.39	569.3
229.769	563.6
230.148	565.4
230.527	574.1
230.905	556.4
231.284	571
231.664	562.4
232.043	578.3
232.422	568
232.801	560
233.181	573.6
233.56	558.1
233.94	563.2
234.319	552.7
234.699	559.8
235.079	595.5
235.458	592.4
235.838	579.2
236.218	557.2
236.598	549.7
236.978	560.1
237.358	563.2
237.738	562.8
238.119	568.5
238.499	554.2
238.88	564.6
239.26	573.7
239.641	551.3
240.021	563.6
240.402	560.2
240.783	565
241.163	563.3
241.544	567.1
241.925	563.4
242.306	585.2
242.687	559.6
243.069	567.4
243.45	563.3
243.831	555.8
244.212	561.2
244.594	594.8
244.975	570.7
245.357	566.4
245.739	554.3
246.12	567.4
246.502	574.8
246.884	558.8
247.266	562.6
247.648	564.2
248.03	581.3
248.412	571.1
248.794	562.7
249.176	559.8
249.559	567
249.941	559.2
250.323	557.5
250.706	555
251.089	566.2
251.471	568.8
251.854	565.7
252.237	568.2
252.62	572.6
253.002	560.2
253.385	560.6
253.769	573.3
254.152	561.9
254.535	571.5
254.918	557.9
255.301	564.3
255.685	560
256.068	561.8
256.452	587.7
256.835	565.8
257.219	572
257.603	577.7
257.986	556.7
258.37	569.5
258.754	552.7
259.138	570.4
259.522	571.1
259.906	564.9
260.29	563.5
260.675	558.7
261.059	564.1
261.443	559.3
261.828	564.5
262.212	571.5
262.597	556.1
262.981	560.9
263.366	569.2
263.751	564.1
264.136	558.1
264.521	563.6
264.906	561.4
265.291	578.1
265.676	562.1
266.061	567.1
266.446	582.4
266.831	563.4
267.217	577.5
267.602	567.1
267.987	566.5
268.373	563.6
268.759	574.2
269.144	568
269.53	560.2
269.916	562.3
270.302	565.9
270.688	569.5
271.074	565.7
271.46	580.1
271.846	593.5
272.232	565.1
272.618	558.2
273.004	563.4
273.391	568.4
273.777	576.8
274.164	576.3
274.55	574.5
274.937	568.3
275.324	559.9
275.71	568.5
276.097	576
276.484	560.1
276.871	570.7
277.258	570.1
277.645	553.9
278.032	562.6
278.419	565.4
278.807	567.1
279.194	562.1
279.581	560.3
279.969	570.5
280.356	563.4
280.744	564.1
281.131	588.7
281.519	573.8
281.907	561.5
282.295	555.5
282.682	575.7
283.07	562.7
283.458	574
283.846	575.5
284.235	580.8
284.623	569.5
285.011	556.8
285.399	565.4
285.788	561.7
286.176	555
286.565	571.3
286.953	556.7
287.342	565.1
287.731	554.7
288.119	556.9
288.508	560.4
288.897	561.1
289.286	550.8
289.675	564.8
290.064	571.9
290.453	558.9
290.821	562.6
291.21	573
291.599	557.7
291.989	560.6
292.378	561.7
292.768	583.2
293.157	569
293.547	571
293.936	558.7
294.326	559
294.716	565.6
295.106	560.3
295.496	573.7
295.886	573.8
296.276	566
296.666	558
297.056	562.8
297.446	551.5
297.836	582
298.227	563.8
298.617	566.4
299.008	578.7
299.398	563
299.789	560.9
300.179	564.7
300.57	579.2
300.961	564.3
301.352	564.7
301.742	572.5
302.133	567.7
302.524	560.8
302.915	558.9
303.307	556.8
303.698	572
304.089	569.1
304.48	559.3
304.872	565
305.263	560.2
305.655	553.9
306.046	565
306.438	571.6
306.829	559.4
307.221	572
307.613	565.5
308.005	570.7
308.397	573.2
308.789	583.2
309.181	584.6
309.573	581.2
309.965	576.7
310.357	554.8
310.749	568.2
311.142	561.6
311.534	556
311.926	573.3
312.319	563.5
312.711	550.7
313.104	573.6
313.497	562
313.889	593
314.282	582.1
314.675	586.9
315.068	567.9
315.461	572.5
315.854	590
316.247	569.5
316.64	566.2
317.033	567.3
317.405	574.2
317.798	566.7
318.192	569.4
318.585	553.9
318.979	562.9
319.372	557
319.766	559.7
320.16	573.6
320.553	577.3
320.947	587
321.341	563
321.735	568
322.129	556.9
322.523	583.9
322.917	558.3
323.311	573.1
323.705	562.9
324.099	571.8
324.494	580.4
324.888	575.1
325.282	561.4
325.677	565.5
326.071	575.5
326.466	573.1
326.861	567.7
327.255	577.7
327.65	573.3
328.045	582.6
328.44	576.9
328.835	563.5
329.23	556.2
329.625	586.2
330.02	565.3
330.415	584.4
330.81	569.4
331.206	574.8
331.601	559
331.996	575.8
332.37	575.5
332.766	553.5
333.161	594.5
333.557	557
333.953	564.3
334.348	793.4
334.744	565.6
335.14	559.8
335.536	561.8
335.932	577.1
336.328	563.4
336.724	574.5
337.12	564.8
337.516	567.3
337.913	574.1
338.309	580.5
338.705	562.6
339.102	578.5
339.498	563.3
339.895	572.6
340.291	559.4
340.688	566.5
341.085	560.8
341.481	563.6
341.878	559.4
342.275	581.1
342.672	557.9
343.069	559.7
343.466	551.7
343.842	580.3
344.239	555.9
344.636	558.2
345.033	558.2
345.431	558.1
345.828	561.8
346.225	555.4
346.623	571.1
347.02	568.9
347.418	569.7
347.816	576.2
348.213	554.6
348.611	571
349.009	553
349.407	570.2
349.805	553.3
350.203	556.9
350.601	572.4
350.999	556.9
351.397	552
351.795	561.9
352.193	573
352.57	569.7
352.969	575.2
353.367	554.1
353.766	559.2
354.164	561.8
354.563	573
354.961	556.8
355.36	566.2
355.759	559.9
356.158	553.1
356.557	553.7
356.956	549.9
357.355	548.4
357.754	563.9
358.153	566.4
358.552	580.8
358.951	562.9
359.35	572
359.75	562.3
360.149	560.2
360.527	550.6
360.926	551.3
361.326	559.7
361.726	554.1
362.125	551.2
362.525	561.5
362.925	555.8
363.325	559.9
363.724	564.8
364.124	556.3
364.524	554.5
364.924	559.9
365.324	565.2
365.725	547.4
366.125	565.5
366.525	557.7
366.904	555.4
367.304	543.2
367.705	573.6
368.105	572.1
368.506	560.8
368.906	559.5
369.307	559
369.708	563.8
370.108	549.4
370.509	570.9
370.91	553.7
371.311	557.4
371.712	566.7
372.113	557.6
372.514	549.2
372.894	557.5
373.295	556.4
373.696	565.9
374.097	568
374.499	579.5
374.9	558.6
375.301	545.6
375.703	559.9
376.105	550.1
376.506	563.3
376.908	558.8
377.309	560
377.711	553.8
378.113	554.8
378.493	556.2
378.895	551.2
379.297	562.3
379.699	544.3
380.102	558.1
380.504	558.9
380.906	551.9
381.308	578.8
381.71	554.8
382.113	564.5
382.515	558.5
382.918	551.5
383.299	551.3
383.701	565
384.104	555.9
384.507	538.9
384.909	556.3
385.312	548.4
385.715	549.8
386.118	552.4
386.521	546.1
386.924	567.3
387.327	550.1
387.709	547.2
388.112	542.4
388.515	553.1
388.918	558.1
389.322	558.5
389.725	550.6
390.129	574.1
390.532	555.6
390.936	555.1
391.339	552.5
391.743	562.5
392.125	553.4
392.529	561.8
392.933	564.9
393.337	558.3
393.74	555.5
394.144	557.5
394.548	549.9
394.953	553.5
395.357	563.6
395.761	555.6
396.144	555.9
396.548	555.9
396.952	558.5
397.357	554.6
397.761	551.2
398.166	556.4
398.57	553.7
398.975	549.6
399.379	558
399.763	596.8
400.168	554.5
400.572	553
400.977	551.2
401.382	570.4
401.787	563.6
402.192	567.9
402.597	567.7
403.002	544.4
403.386	565.7
403.791	573.4
404.197	552.1
404.602	554.4
405.007	555.5
405.413	549.9
405.818	545.9
406.224	551.1
406.608	553.2
407.014	546
407.42	569.1
407.825	552.1
408.231	564.7
408.637	557.1
409.043	567.1
409.449	555.8
409.834	545.1
410.24	560.7
410.646	565.9
411.052	563.6
411.458	560.5
411.865	563.1
412.271	563.4
412.677	556.3
413.062	561.7
413.469	554.1
413.875	579.7
414.282	576.4
414.689	554.5
415.095	565.7
415.502	552.5
415.888	563.6
416.294	541.3
416.701	591.5
417.108	556.6
417.515	567.1
417.923	552.6
418.33	571.4
418.715	563.8
419.123	554.1
419.53	554.5
419.937	558.2
420.345	568.5
420.752	552.8
421.16	571.6
421.546	557.4
421.953	567.9
422.361	549.7
422.769	559.2
423.177	548.7
423.585	578.7
423.992	570.4
424.379	567.6
424.787	565.2
425.195	580.2
425.603	560.8
426.011	570.5
426.419	569.3
426.806	557.8
427.214	563.7
427.623	572.1
428.031	576
428.44	567.7
428.848	574.5
429.235	576.6
429.644	572.8
430.053	571.1
430.461	591.9
430.87	601.5
431.279	593.4
431.666	586.9
432.075	602.4
432.484	612.1
432.893	612.7
433.302	644.7
433.711	677.1
434.099	661.9
434.508	667.7
434.918	678.8
435.327	706.2
435.737	724.1
436.125	742.1
436.534	760.5
436.944	781.9
437.353	804.2
437.763	840
438.173	840.3
438.561	878.5
438.971	878.1
439.381	920
439.791	929.9
440.201	938
440.589	982.6
440.999	1012.6
441.409	1016.5
441.819	1030.3
442.23	1060.3
442.619	1079.2
443.029	1096.5
443.439	1128.6
443.85	1140.9
444.26	1175.9
444.649	1180.8
445.06	1178.2
445.471	1175.1
445.881	1206.6
446.292	1235.4
446.682	1246.7
447.092	1250.9
447.503	1313.8
447.914	1278
448.325	1281.9
448.715	1293.9
449.126	1302.9
449.537	1321
449.948	1334.3
450.338	1337.7
450.75	1345.3
451.161	1352.5
451.572	1356.2
451.984	1364.4
452.374	1355.4
452.786	1383.7
453.197	1385
453.609	1394.8
453.999	1380.9
454.411	1385
454.823	1417.6
455.235	1419
455.647	1406.8
456.037	1405.2
456.449	1393.3
456.862	1419
457.274	1408.5
457.665	1412.1
458.077	1433.9
458.489	1436.9
458.902	1417.7
459.293	1433.6
459.705	1421.7
460.118	1415.1
460.53	1417.2
460.921	1421.3
461.334	1417.4
461.747	1420.6
462.16	1436.2
462.551	1442.6
462.964	1432.5
463.377	1421.8
463.79	1419.4
464.182	1425.2
464.595	1400.5
465.008	1417.4
465.421	1419.6
465.813	1406.9
466.226	1406.3
466.64	1389.9
467.053	1435.6
467.445	1409.2
467.859	1388.4
468.272	1392.7
468.686	1415.5
469.078	1401.8
469.492	1393
469.906	1397.4
470.298	1399.9
470.712	1388
471.126	1417
471.54	1376.5
471.933	1368.4
472.347	1371.5
472.761	1366.6
473.175	1359.1
473.568	1361.4
473.982	1350.2
474.397	1351
474.79	1349.5
475.204	1350
475.619	1342.6
476.033	1340.1
476.426	1326.4
476.841	1326.4
477.256	1336.5
477.649	1317.1
478.064	1311.6
478.479	1308.1
478.872	1317.7
479.287	1295.4
479.702	1292.7
480.118	1303.2
480.511	1297.2
480.927	1293.4
481.342	1286.6
481.736	1300.4
482.151	1286.9
482.566	1297.1
482.96	1283.7
483.376	1276.7
483.792	1266.2
484.186	1263.4
484.602	1260.2
485.017	1257.6
485.412	1249.7
485.827	1242.2
486.243	1237.7
486.638	1255.3
487.054	1251.5
487.47	1247.2
487.865	1220.2
488.281	1224.5
488.697	1208.7
489.092	1209.9
489.508	1209.2
489.925	1213.5
490.32	1193.5
490.736	1197.5
491.153	1193.5
491.548	1191.7
491.964	1188.3
492.381	1163.4
492.776	1182.7
493.193	1172.6
493.61	1171.1
494.006	1161.4
494.422	1163
494.84	1145.4
495.235	1145.2
495.652	1140.5
496.069	1143.5
496.465	1122.8
496.883	1131.7
497.3	1142.2
497.696	1114.5
498.113	1123.9
498.509	1105.2
498.927	1095.4
499.344	1088.2
499.741	1083.6
500.158	1087
500.576	1096.8
500.973	1079
501.39	1070.2
501.787	1066.6
502.205	1062.7
502.623	1051.7
503.02	1055.1
503.438	1045.4
503.856	1042.4
504.253	1042
504.671	1041.5
505.068	1028.5
505.486	1023.2
505.905	1045.1
506.302	1020.5
506.72	1022.2
507.118	994.4
507.536	1007.7
507.955	1003.6
508.352	994.3
508.771	998.5
509.169	986.6
509.587	978.4
510.006	981.8
510.404	961.8
510.823	971.4
511.221	970.5
511.64	953.1
512.038	969.6
512.457	953
512.877	956.1
513.275	941.3
513.694	942.2
514.092	941.7
514.512	939.9
514.91	929.2
515.33	924.8
515.749	925.7
516.148	909.7
516.568	913.3
516.966	908.9
517.386	907.2
517.785	910.8
518.205	898.5
518.603	895.5
519.024	893.2
519.444	894.9
519.843	891.5
520.263	883.7
520.662	880.8
521.082	875.8
521.481	870.4
521.902	867.2
522.301	872.9
522.722	862.6
523.121	857.2
523.542	857.9
523.963	849.4
524.362	848.4
524.783	846.3
525.183	841.8
525.604	841.8
526.003	825.6
526.425	820.2
526.824	832.1
527.246	831.3
527.646	824.1
528.067	808.6
528.467	812.8
528.888	810.2
529.289	802.8
529.71	804
530.11	797.5
530.532	799.5
530.932	787.9
531.354	783.7
531.755	818.1
532.176	782.7
532.577	779.6
532.999	778.8
533.4	771.1
533.822	779.7
534.223	770.2
534.645	765.5
535.046	765.2
535.468	767.3
535.869	777.5
536.292	754.7
536.693	755.1
537.115	751.5
537.516	747.2
537.939	744
538.34	764.9
538.742	761.3
539.165	753.8
539.566	750.2
539.989	745.9
540.391	741.8
540.814	741.6
541.216	740.8
541.639	739
542.041	739.2
542.464	729.2
542.866	728.1
543.268	726.2
543.691	731.2
544.093	731.7
544.517	741.6
544.919	716.8
545.343	744.5
545.745	711.2
546.147	723.6
546.571	711.2
546.974	707.8
547.398	709.5
547.8	723.5
548.224	704.6
548.627	704.9
549.03	712.6
549.454	700
549.857	693.8
550.281	683.4
550.684	698.1
551.087	705.7
551.512	695.2
551.915	695
552.34	687
552.743	682.8
553.146	688.9
553.571	682
553.975	696.2
554.399	679.7
554.803	724.7
555.207	671.2
555.632	662.3
556.036	675.7
556.461	662.2
556.865	670.3
557.268	658.8
557.694	665.7
558.098	673
558.502	662.9
558.927	666.2
559.332	660.1
559.736	662.9
560.162	658.7
560.566	654.1
560.992	651.9
561.396	654.4
561.801	651.4
562.227	655
562.631	650.5
563.036	650.7
563.462	652
563.867	649.6
564.272	629.9
564.698	650.9
565.103	631.4
565.508	660.2
565.935	634.2
566.34	643
566.745	649.5
567.172	636.1
567.577	650.2
567.982	644.1
568.409	637.8
568.815	627.8
569.22	625.6
569.626	634.7
570.053	615.2
570.459	625.3
570.865	628.4
571.292	630
571.698	622.8
572.104	604.5
572.531	614.1
572.937	629.4
573.343	613
573.75	615.9
574.177	621.7
574.583	614.4
574.99	613.8
575.396	619.6
575.824	611.9
576.231	616.3
576.637	607.3
577.065	640.1
577.472	605.7
577.879	613.8
578.286	622.8
578.714	599.4
579.121	606.6
579.528	605.3
579.935	618
580.364	599.7
580.771	596.6
581.178	600.8
581.585	604.4
582.014	612.1
582.421	606.3
582.829	601
583.236	612.2
583.644	594.8
584.073	601.2
584.481	599.5
584.889	594.3
585.296	599.3
585.726	601.7
586.134	587.2
586.542	588.4
586.95	607.8
587.358	582.4
587.787	588.6
588.196	582.7
588.604	588.2
589.012	594.7
589.421	580.2
589.851	576.1
590.259	598.2
590.668	582.5
591.076	619.7
591.485	579.4
591.894	582.7
592.324	599.7
592.733	593.8
593.142	570.1
593.551	584.7
593.96	588.1
594.369	578.9
594.8	569.4
595.209	579.4
595.618	566.1
596.028	574
596.437	566.9
596.847	574.9
597.256	575.9
597.687	582.3
598.097	573.1
598.507	566.6
598.917	576.7
599.327	579.8
599.736	576.8
600.146	582
600.556	571.5
600.988	585.3
601.398	568
601.808	577
602.219	561.8
602.629	566.5
603.039	570.1
603.45	586.9
603.86	574.7
604.271	578.8
604.703	569.1
605.114	567.4
605.525	571.5
605.935	566.3
606.346	591.9
606.757	569
607.168	562.8
607.579	557.9
607.99	569.2
608.402	561.4
608.813	564.5
609.224	555.3
609.636	557.9
610.047	552.7
610.48	562.5
610.892	562.7
611.303	566
611.715	556.8
612.127	554.2
612.539	554.4
612.95	564
613.362	555
613.774	550.4
614.186	557.5
614.599	555.7
615.011	570
615.423	549.6
615.835	555.9
616.248	552.5
616.66	571.7
617.073	555.6
617.485	562.1
617.898	566.9
618.311	558.9
618.723	560.9
619.136	580
619.549	569.2
619.962	580.9
620.375	557.2
620.788	558.9
621.201	550
621.614	565.8
622.028	558
622.441	558.3
622.854	565.9
623.268	552.9
623.681	561.3
624.095	561.9
624.509	563.7
624.922	560.6
625.336	544.6
625.728	563.2
626.142	565.6
626.556	568.3
626.97	562.6
627.384	549.7
627.799	554.8
628.213	565
628.627	558.1
629.041	549.7
629.456	551.9
629.87	554.2
630.285	559.2
630.699	561.6
631.093	554.4
631.507	553.8
631.922	556
632.337	562.8
632.752	549
633.167	555
633.582	551.7
633.997	550.3
634.412	545
634.806	552.5
635.221	546.6
635.637	558.6
636.052	537.4
636.468	557.3
636.883	568
637.299	548.9
637.715	536.8
638.109	550.7
638.525	539.7
638.941	561.1
639.357	555.5
639.773	559.5
640.189	546.4
640.584	546.2
641	549.1
641.416	537.8
641.832	549.1
642.249	548.3
642.665	549.5
643.06	557.2
643.477	555.2
643.894	539.1
644.31	545.5
644.727	548.5
645.123	545.4
645.54	537.4
645.957	547.5
646.374	551.1
646.77	546.7
647.187	571.6
647.604	543.8
648.021	533.9
648.439	545
648.835	548.7
649.252	545.7
649.67	544.7
650.088	545.8
650.484	550.7
650.902	554.1
651.32	551.7
651.738	544.7
652.134	549.9
652.552	559
652.971	556.1
653.389	546
653.786	560.1
654.204	546.3
654.622	540.5
655.019	548.9
655.438	552
655.857	553.5
656.275	547.1
656.673	536.8
657.091	610.1
657.51	540.7
657.908	553.3
658.327	559.3
658.746	537.9
659.144	540.2
659.563	554.6
659.982	547.8
660.38	536.9
660.8	545
661.219	559.4
661.617	544.9
662.037	544.6
662.457	554
662.855	534.8
663.275	576.9
663.695	539.9
664.094	545
664.514	545
664.934	533.8
665.333	546.3
665.753	539.6
666.152	533.6
666.572	534.9
666.993	550.9
667.392	540.2
667.812	543.4
668.212	535.4
668.632	549.1
669.053	539.5
669.453	547.2
669.874	543.7
670.273	537
670.694	538.7
671.116	550.3
671.515	545.3
671.937	542.4
672.337	539.8
672.758	537.3
673.158	546.5
673.58	536
673.98	545.3
674.402	549.9
674.824	539.8
675.224	538.3
675.646	532.9
676.047	539.2
676.469	541
676.869	542.8
677.292	548
677.693	532.1
678.115	539.7
678.516	541.2
678.939	545.9
679.34	537.3
679.762	549.2
680.164	544.5
680.586	532.3
680.988	540.8
681.411	563.8
681.812	538.8
682.236	533.9
682.637	536
683.061	527.5
683.462	544.9
683.864	533.5
684.288	542.3
684.69	525.8
685.114	548.9
685.516	543.5
685.94	525.8
686.342	539.8
686.766	532.4
687.168	533.3
687.571	555.2
687.995	537.4
688.398	527.5
688.822	534.8
689.225	547.3
689.628	556.5
690.052	532
690.456	542.8
690.88	535
691.284	532.2
691.687	541.8
692.112	529.6
692.515	526.3
692.919	538.7
693.344	537.5
693.747	531.2
694.173	526.9
694.577	545.2
694.98	540.5
695.406	532
695.81	541.6
696.214	543.8
696.64	536.9
697.044	541.9
697.448	549.1
697.874	534.1
698.279	538.1
698.684	527.1
699.11	529.9
699.514	534.4
699.919	531.1
700.324	530.1
700.75	538.5
701.156	540.1
701.561	540.6
701.987	543.4
702.393	541
702.798	544.1
703.203	542.2
703.63	533.6
704.036	536
704.442	538.9
704.847	528.2
705.274	538.4
705.68	542.2
706.086	544
706.492	525.3
706.92	533.6
707.326	540.9
707.732	532.9
708.139	528.5
708.545	525.9
708.973	537.7
709.38	533.2
709.786	533.1
710.193	544.9
710.6	534.4
711.028	528.3
711.435	536.9
711.842	533.2
712.249	530.3
712.656	532.2
713.064	536.7
713.492	531.9
713.9	536.5
714.307	531.6
714.715	531.8
715.123	538.7
715.53	537.2
715.938	539.6
716.367	532.6
716.775	533.5
717.184	530.1
717.592	532
718	546.2
718.408	562.5
718.816	576.1
719.225	538.4
719.633	538.1
720.042	530
720.472	532.3
720.881	558.9
721.29	538
721.699	526.6
722.108	541.7
722.517	530.9
722.926	530.5
723.335	547.8
723.744	533
724.154	533.7
724.563	538.4
724.973	530.5
725.382	534.5
725.792	533.5
726.202	531.5
726.612	543.7
727.022	535.5
727.432	534.7
779.813	534.9
780.223	576
780.634	531.8
781.044	532.9
781.454	535
781.865	551
782.276	532.7
782.686	548.8
783.097	532.8
783.508	539.6
783.919	538.9
784.33	548.5
784.741	545.9
785.152	524.6
785.563	523.3
785.974	526.8
786.386	544.4
786.776	534.8
787.188	538.2
787.599	530.4
788.011	537.8
788.423	536.8
788.835	528.7
789.247	527.4
789.659	533.7
790.071	532.1
790.483	569.7
790.874	531.1
791.286	542.9
791.699	533
792.111	535.7
792.524	534.3
792.937	531.1
793.349	526.1
793.741	526.6
794.154	533.2
794.567	550.4
794.98	531
795.393	524.6
795.785	550
796.198	531.4
796.612	535.4
797.026	532.1
797.439	520.4
797.831	527.6
798.245	522.5
798.659	529.4
799.073	530.5
799.487	524.5
799.88	532.8
800.294	535.7
800.708	537.3
801.123	532.7
801.516	540.6
801.93	524.4
802.345	518.8
802.76	536.4
803.153	540.5
803.568	539.6
803.983	541.3
804.377	532.9
804.792	521.9
805.207	524.6
805.601	533.3
806.016	563
806.432	524.7
806.826	553.2
807.242	543
807.658	531.2
808.052	528.3
808.468	528.2
808.884	530.2
809.279	533.8
809.695	540.6
810.111	550.1
810.506	530.9
810.922	540.2
811.339	528.2
811.734	533.7
812.151	529.5
812.546	517.5
812.963	531.3
813.38	530.9
813.776	531.4
814.193	548.7
814.589	525.2
815.006	526
815.402	525.3
815.82	521.3
816.237	530.5
816.633	534
817.051	522.3
817.448	531.5
817.866	517.9
818.262	552.2
818.68	526.3
819.077	531.5
819.495	530.2
819.892	562.5
820.311	524.2
820.708	529.2
821.127	531.6
821.524	543
821.943	532.5
822.34	546.9
822.759	538.2
823.157	531.6
823.576	553
823.974	538.9
824.393	543.9
824.791	527.1
825.189	523.1
825.609	531.3
826.007	527.1
826.427	524.1
826.826	527.9
827.246	531.2
827.644	519.6
828.043	537.3
828.463	522.4
828.862	537.6
829.261	539.8
829.682	522.9
830.081	535.5
830.502	519.8
830.901	528
831.301	516.7
831.722	514.3
832.121	524.7
832.521	526.4
832.943	524.2
833.342	528
833.742	523.4
834.164	523.7
834.564	523.1
834.965	526.2
835.386	527.8
835.787	529.3
836.188	532
836.588	528.1
837.01	533.2
837.411	523.4
837.812	537.1
838.213	536.7
838.636	524.7
839.037	590.2
839.438	535.8
839.84	533.6
840.263	536.1
840.664	535
841.066	529.2
841.468	533.9
841.891	527.7
842.293	539.2
842.695	535.7
843.098	541.7
