#lambda/nm	C1
208.295	472.8
208.67	438.2
209.045	398.4
209.419	406.1
209.794	569.8
210.169	549.7
210.544	656
210.919	564.8
211.295	552.6
211.67	560.6
212.045	556.3
212.421	554.1
212.796	589.3
213.172	556.7
213.547	558.8
213.923	554
214.299	552.2
214.675	568.6
215.051	561.2
215.427	567.8
215.803	578.5
216.179	561.6
216.555	552.7
216.932	566.6
217.308	559.6
217.684	561
218.061	563.9
218.438	561.2
218.814	556.7
219.191	564.5
219.568	549.9
219.945	558.7
220.322	565.5
220.699	567.5
221.076	563.4
221.453	564.8
221.83	553.4
222.208	557.9
222.585	558
222.962	558.5
223.34	561.9
223.717	558.2
224.095	560.1
224.473	557.4
224.851	555.4
225.229	556.4
225.607	574.5
225.985	546.9
226.363	560.6
226.741	559.6
227.119	562.1
227.497	571.9
227.876	552.2
228.254	565.8
228.633	564.1
229.011	560.5
229.39	565.6
229.769	563.7
230.148	563.5
230.527	574.9
230.905	562.8
231.284	564
231.664	556.8
232.043	571.8
232.422	565.2
232.801	554.1
233.181	570.8
233.56	563.2
233.94	561.6
234.319	550.2
234.699	560.1
235.079	592
235.458	594.3
235.838	573.6
236.218	552.8
236.598	552.5
236.978	553.9
237.358	553.2
237.738	559.5
238.119	565.8
238.499	552.2
238.88	558.5
239.26	574.8
239.641	550.7
240.021	555.8
240.402	564.8
240.783	552.8
241.163	558.1
241.544	566.9
241.925	557.1
242.306	574.9
242.687	555.8
243.069	560.4
243.45	568.4
243.831	556.2
244.212	560
244.594	592.7
244.975	569.7
245.357	559.8
245.739	549.5
246.12	562.1
246.502	573.8
246.884	555.5
247.266	561.9
247.648	563.9
248.03	577.5
248.412	558.7
248.794	567.8
249.176	558.6
249.559	567.9
249.941	555.5
250.323	546.7
250.706	552.1
251.089	557.7
251.471	559.9
251.854	558.6
252.237	562
252.62	563.2
253.002	556.6
253.385	559.5
253.769	571.3
254.152	562.3
254.535	563
254.918	552.6
255.301	553.4
255.685	555
256.068	553.8
256.452	579.7
256.835	563.6
257.219	565
257.603	570.1
257.986	550.6
258.37	563.8
258.754	549.4
259.138	565.5
259.522	570.2
259.906	556.9
260.29	565.6
260.675	557
261.059	558.2
261.443	553.7
261.828	566.9
262.212	560.2
262.597	549.6
262.981	559.4
263.366	570.1
263.751	560
264.136	552.3
264.521	551.7
264.906	553.7
265.291	572.8
265.676	554.7
266.061	571.3
266.446	578.5
266.831	558.3
267.217	577.5
267.602	562.2
267.987	558.9
268.373	557.6
268.759	568.3
269.144	566.4
269.53	557.8
269.916	560.8
270.302	558.5
270.688	563.8
271.074	562.1
271.46	569.4
271.846	593.6
272.232	563.1
272.618	555.1
273.004	558.7
273.391	569.4
273.777	573.3
274.164	567
274.55	574.4
274.937	558.6
275.324	559.7
275.71	569.9
276.097	569
276.484	557.8
276.871	565.7
277.258	566.8
277.645	552.4
278.032	558.1
278.419	563
278.807	565.3
279.194	552.5
279.581	557.8
279.969	564
280.356	560.4
280.744	558.5
281.131	585.8
281.519	567.7
281.907	560.4
282.295	561
282.682	574.2
283.07	560.6
283.458	565.9
283.846	571
284.235	571.9
284.623	567
285.011	551.9
285.399	557.8
285.788	558.7
286.176	553.2
286.565	571.1
286.953	558.6
287.342	556.5
287.731	553.6
288.119	549.4
288.508	559.2
288.897	560.3
289.286	546.2
289.675	564.5
290.064	568.7
290.453	558.2
290.821	558.5
291.21	582.3
291.599	553.8
291.989	559.1
292.378	568
292.768	572.9
293.157	561.7
293.547	570.2
293.936	559.7
294.326	557.3
294.716	562.7
295.106	556.2
295.496	563
295.886	572.5
296.276	562.5
296.666	554
297.056	560.2
297.446	552.2
297.836	572.6
298.227	558.4
298.617	562.6
299.008	572.7
299.398	561.7
299.789	558.8
300.179	565.2
300.57	574
300.961	551.6
301.352	556.6
301.742	565.3
302.133	563
302.524	558.9
302.915	567.3
303.307	552.9
303.698	568
304.089	565.3
304.48	560.3
304.872	563
305.263	564.5
305.655	557.7
306.046	569
306.438	563.2
306.829	554.4
307.221	577.6
307.613	569
308.005	571
308.397	575.1
308.789	584.7
309.181	582.7
309.573	574.7
309.965	572.1
310.357	558
310.749	561
311.142	551.6
311.534	555.6
311.926	566.1
312.319	566
312.711	554.2
313.104	570.9
313.497	560.4
313.889	597.3
314.282	577
314.675	583.8
315.068	565
315.461	570.4
315.854	596.7
316.247	565.8
316.64	564.6
317.033	559.5
317.405	572.2
317.798	560.7
318.192	563.2
318.585	557.2
318.979	566
319.372	555.5
319.766	564.9
320.16	578.1
320.553	573.5
320.947	575.9
321.341	560.9
321.735	566.9
322.129	551
322.523	580.4
322.917	553.8
323.311	574.6
323.705	567.8
324.099	566.1
324.494	581.1
324.888	573.1
325.282	558.6
325.677	565.8
326.071	565.9
326.466	576
326.861	568.2
327.255	573.7
327.65	577.9
328.045	579.5
328.44	568.2
328.835	558.6
329.23	556.6
329.625	590.6
330.02	561
330.415	581.7
330.81	562.7
331.206	563.5
331.601	559.4
331.996	567.8
332.37	576.2
332.766	559.3
333.161	581
333.557	564.6
333.953	561
334.348	911.1
334.744	565.9
335.14	562.3
335.536	559.3
335.932	574.9
336.328	556.9
336.724	568.6
337.12	565.8
337.516	563.3
337.913	561.7
338.309	562.2
338.705	565.1
339.102	573.7
339.498	555.9
339.895	571
340.291	556.4
340.688	565.7
341.085	553.2
341.481	556.2
341.878	560.5
342.275	578.4
342.672	554.8
343.069	557.5
343.466	550.8
343.842	566.1
344.239	549.9
344.636	563.6
345.033	552.1
345.431	551.3
345.828	558.9
346.225	550.7
346.623	571.1
347.02	563.3
347.418	566.4
347.816	573.5
348.213	553.6
348.611	563.1
349.009	553.8
349.407	567.3
349.805	546.7
350.203	547.2
350.601	565.7
350.999	555
351.397	555.5
351.795	561.3
352.193	567.5
352.57	564.6
352.969	569.6
353.367	552.5
353.766	550.1
354.164	556.6
354.563	568.6
354.961	560.2
355.36	558.4
355.759	554.9
356.158	551.4
356.557	552.5
356.956	552.3
357.355	546.9
357.754	560.8
358.153	566.5
358.552	578.9
358.951	554.5
359.35	564.2
359.75	551.9
360.149	553.7
360.527	544.3
360.926	555.1
361.326	555
361.726	558.2
362.125	550.7
362.525	559.8
362.925	555.1
363.325	561.1
363.724	554.6
364.124	555.9
364.524	549.7
364.924	558.8
365.324	568
365.725	542.6
366.125	563.8
366.525	554
366.904	548.9
367.304	544.1
367.705	571.3
368.105	569.4
368.506	554.8
368.906	560.9
369.307	550.4
369.708	564.8
370.108	541.5
370.509	563.9
370.91	550.5
371.311	557
371.712	559.4
372.113	556.6
372.514	548.3
372.894	556.8
373.295	546.8
373.696	565.8
374.097	561.1
374.499	582.2
374.9	556.2
375.301	550
375.703	561.3
376.105	545.8
376.506	562.2
376.908	554.2
377.309	554.4
377.711	558.3
378.113	556.8
378.493	559.6
378.895	555.1
379.297	558
379.699	542.3
380.102	560.3
380.504	557.8
380.906	550.6
381.308	572.8
381.71	550.3
382.113	560.1
382.515	553.9
382.918	552.8
383.299	548.8
383.701	565.5
384.104	561.1
384.507	538.3
384.909	545.7
385.312	546
385.715	540.8
386.118	550.3
386.521	545.6
386.924	558
387.327	549.7
387.709	538.9
388.112	536.9
388.515	552.3
388.918	554.4
389.322	556.4
389.725	547.1
390.129	563.4
390.532	553
390.936	550.4
391.339	543
391.743	555
392.125	545.2
392.529	564.3
392.933	565.9
393.337	557.7
393.74	552.8
394.144	549.7
394.548	545.1
394.953	545.9
395.357	556.9
395.761	551.7
396.144	556.4
396.548	552.9
396.952	551.7
397.357	553
397.761	551.4
398.166	550.4
398.57	552.4
398.975	544.1
399.379	557
399.763	596.5
400.168	555.7
400.572	554.1
400.977	553.3
401.382	569.3
401.787	560.7
402.192	565.7
402.597	566.1
403.002	541.2
403.386	563.8
403.791	569.6
404.197	546.7
404.602	548.6
405.007	553.1
405.413	546
405.818	550.1
406.224	546.5
406.608	551
407.014	545.4
407.42	569.5
407.825	547.8
408.231	559.4
408.637	554.4
409.043	568.4
409.449	550.2
409.834	548.3
410.24	556.7
410.646	566.9
411.052	561.2
411.458	553.5
411.865	562
412.271	558.3
412.677	557.1
413.062	559.3
413.469	544
413.875	576.4
414.282	563.2
414.689	551.6
415.095	560.8
415.502	549
415.888	557.4
416.294	543.8
416.701	592.3
417.108	551.5
417.515	559.6
417.923	551.5
418.33	570.1
418.715	563.6
419.123	548.4
419.53	553.4
419.937	554.6
420.345	567.2
420.752	550.7
421.16	571.7
421.546	554.6
421.953	558.4
422.361	543.6
422.769	555.3
423.177	550.9
423.585	572.8
423.992	572.3
424.379	567.9
424.787	565.3
425.195	572.7
425.603	555.9
426.011	569.8
426.419	569.4
426.806	559.8
427.214	562.3
427.623	568.8
428.031	571.1
428.44	559.9
428.848	574.9
429.235	577.6
429.644	563.9
430.053	567.1
430.461	586.2
430.87	599.9
431.279	590.7
431.666	577
432.075	591.8
432.484	611.8
432.893	607.3
433.302	641.2
433.711	667.1
434.099	653.1
434.508	658.7
434.918	666.7
435.327	698
435.737	717
436.125	731.9
436.534	753.9
436.944	773.8
437.353	793.4
437.763	823.1
438.173	819.5
438.561	865.4
438.971	855.8
439.381	895.8
439.791	915.8
440.201	922
440.589	948.2
440.999	972.4
441.409	996.5
441.819	995.7
442.23	1042.1
442.619	1062.8
443.029	1075.2
443.439	1079.9
443.85	1115.4
444.26	1138.4
444.649	1137.9
445.06	1134.7
445.471	1140.1
445.881	1152.9
446.292	1195.2
446.682	1226.2
447.092	1200.1
447.503	1266.5
447.914	1241.6
448.325	1250.1
448.715	1258.7
449.126	1251.3
449.537	1272
449.948	1275.7
450.338	1273.5
450.75	1289.2
451.161	1303.5
451.572	1312.1
451.984	1309.8
452.374	1320.6
452.786	1329.3
453.197	1348.4
453.609	1343.8
453.999	1332.9
454.411	1339.4
454.823	1346.4
455.235	1339.2
455.647	1356.8
456.037	1357.4
456.449	1341.8
456.862	1361.5
457.274	1376.5
457.665	1371
458.077	1371.3
458.489	1381.7
458.902	1369.1
459.293	1370.2
459.705	1368.6
460.118	1364.1
460.53	1371.1
460.921	1359.1
461.334	1379.2
461.747	1368
462.16	1376.5
462.551	1382.6
462.964	1368.3
463.377	1366.6
463.79	1358.4
464.182	1365.8
464.595	1348.4
465.008	1351
465.421	1363.5
465.813	1343.1
466.226	1359.2
466.64	1332.7
467.053	1380.7
467.445	1352.4
467.859	1340.7
468.272	1341.3
468.686	1350.4
469.078	1337.7
469.492	1320.7
469.906	1327.5
470.298	1341.1
470.712	1312.2
471.126	1356.4
471.54	1316.1
471.933	1316.7
472.347	1308.6
472.761	1296.9
473.175	1301.7
473.568	1297
473.982	1290.3
474.397	1305.2
474.79	1296.6
475.204	1308.8
475.619	1299.1
476.033	1292.9
476.426	1295.5
476.841	1277.8
477.256	1298.2
477.649	1261
478.064	1260.9
478.479	1252.8
478.872	1247.5
479.287	1242.9
479.702	1242.4
480.118	1245.5
480.511	1244.5
480.927	1227.8
481.342	1227.5
481.736	1238.1
482.151	1232.7
482.566	1247.7
482.96	1221
483.376	1231.8
483.792	1209.7
484.186	1217.6
484.602	1213.2
485.017	1212.4
485.412	1202.6
485.827	1209.2
486.243	1204.5
486.638	1214.2
487.054	1189.1
487.47	1199.8
487.865	1188.2
488.281	1175.7
488.697	1167.1
489.092	1166.5
489.508	1160.3
489.925	1154
490.32	1145.7
490.736	1144.1
491.153	1140.8
491.548	1137.8
491.964	1141.2
492.381	1119.9
492.776	1135
493.193	1115.6
493.61	1120.2
494.006	1118.2
494.422	1120.9
494.84	1100.5
495.235	1107.4
495.652	1098.8
496.069	1099.5
496.465	1075.9
496.883	1083.8
497.3	1098.7
497.696	1077.4
498.113	1084.1
498.509	1047.9
498.927	1039.4
499.344	1046.4
499.741	1036.3
500.158	1051.8
500.576	1056.1
500.973	1033
501.39	1024.2
501.787	1023.7
502.205	1019.5
502.623	1013.9
503.02	1006.2
503.438	1003.1
503.856	999.7
504.253	1000.4
504.671	999.5
505.068	989.2
505.486	992.4
505.905	1005.7
506.302	985.6
506.72	983.3
507.118	968.4
507.536	963.7
507.955	960.6
508.352	956.7
508.771	960.9
509.169	958
509.587	945.7
510.006	942.3
510.404	916.3
510.823	929.4
511.221	921.5
511.64	918.2
512.038	929.9
512.457	915.5
512.877	917.7
513.275	905.7
513.694	905.4
514.092	894.6
514.512	899.9
514.91	891.3
515.33	894.2
515.749	896.6
516.148	889.5
516.568	891
516.966	885.3
517.386	879.4
517.785	873.2
518.205	872.9
518.603	862.5
519.024	860.4
519.444	855.5
519.843	855.8
520.263	851.2
520.662	858.5
521.082	849.2
521.481	841.2
521.902	843
522.301	837.9
522.722	839.8
523.121	824.4
523.542	826.8
523.963	820.5
524.362	814.5
524.783	814.4
525.183	807.9
525.604	806.3
526.003	799.7
526.425	793.6
526.824	796.1
527.246	798.1
527.646	805.1
528.067	798.3
528.467	793.9
528.888	793.7
529.289	777.3
529.71	777.4
530.11	784.5
530.532	768.4
530.932	763.5
531.354	752.3
531.755	788
532.176	763.6
532.577	758.9
532.999	754.3
533.4	752.5
533.822	760.5
534.223	748.7
534.645	744.7
535.046	738.7
535.468	740
535.869	754.8
536.292	734.2
536.693	732.7
537.115	737.3
537.516	725
537.939	730.8
538.34	746.8
538.742	742.6
539.165	730.5
539.566	737.3
539.989	713.9
540.391	722.9
540.814	719.8
541.216	728.1
541.639	719.9
542.041	718.8
542.464	711
542.866	711.2
543.268	701.3
543.691	714.1
544.093	715
544.517	724.5
544.919	694.7
545.343	718.5
545.745	695.9
546.147	702.2
546.571	699.8
546.974	685.9
547.398	696.4
547.8	701.6
548.224	690.7
548.627	679.2
549.03	689.7
549.454	681.8
549.857	672.7
550.281	674.6
550.684	679.4
551.087	693.7
551.512	687.9
551.915	677.7
552.34	677.6
552.743	670.4
553.146	675.2
553.571	673.2
553.975	682.4
554.399	661.1
554.803	711.2
555.207	650.9
555.632	650.6
556.036	658.7
556.461	648.5
556.865	661.5
557.268	649.2
557.694	649.4
558.098	652.7
558.502	657.6
558.927	649.4
559.332	647.6
559.736	642.8
560.162	653.7
560.566	641.4
560.992	648.4
561.396	644.4
561.801	636.8
562.227	640.5
562.631	637.2
563.036	638.6
563.462	640.5
563.867	630.1
564.272	619.6
564.698	638.9
565.103	620.6
565.508	644.6
565.935	632.7
566.34	624.8
566.745	635.8
567.172	619.9
567.577	638.2
567.982	638.2
568.409	629.9
568.815	610.8
569.22	623.3
569.626	624.5
570.053	614
570.459	623
570.865	621.2
571.292	618
571.698	614.1
572.104	604.7
572.531	606.3
572.937	620.2
573.343	609.9
573.75	604.5
574.177	607.7
574.583	610.9
574.99	599.8
575.396	609.9
575.824	602.3
576.231	607
576.637	606.1
577.065	626.4
577.472	596.1
577.879	596.5
578.286	617.2
578.714	593.7
579.121	597.4
579.528	601.5
579.935	612.6
580.364	595.3
580.771	578.3
581.178	586.7
581.585	598
582.014	598.5
582.421	587.1
582.829	587.1
583.236	599.6
583.644	587.7
584.073	590.4
584.481	591.8
584.889	585.1
585.296	594.8
585.726	583.2
586.134	578.3
586.542	579.1
586.95	602.7
587.358	582.1
587.787	587.7
588.196	575.7
588.604	580
589.012	580.8
589.421	575.9
589.851	574.8
590.259	584.9
590.668	575.3
591.076	613.4
591.485	571.6
591.894	576.5
592.324	588.4
592.733	583.4
593.142	567.7
593.551	570.9
593.96	605
594.369	560
594.8	569.3
595.209	575.9
595.618	562.5
596.028	569.6
596.437	568.3
596.847	572.9
597.256	575.7
597.687	574.8
598.097	567.1
598.507	553.8
598.917	574.7
599.327	580
599.736	567.2
600.146	574.5
600.556	567.9
600.988	574.8
601.398	564
601.808	572.9
602.219	555.2
602.629	566.8
603.039	564.4
603.45	585.9
603.86	559.2
604.271	573.4
604.703	556.3
605.114	559.7
605.525	557.6
605.935	563.4
606.346	572.5
606.757	556
607.168	558.1
607.579	552.3
607.99	571.3
608.402	557.3
608.813	565
609.224	551
609.636	551.1
610.047	553.1
610.48	557.7
610.892	562.5
611.303	566.2
611.715	552.5
612.127	551.7
612.539	551.3
612.95	555.4
613.362	545.2
613.774	552.8
614.186	556.8
614.599	548.6
615.011	558.9
615.423	552.1
615.835	550.2
616.248	548.7
616.66	561.3
617.073	544.3
617.485	552.8
617.898	568.5
618.311	554.8
618.723	555.1
619.136	576
619.549	571
619.962	574.8
620.375	551.2
620.788	555.3
621.201	548.9
621.614	558.6
622.028	549.9
622.441	554.3
622.854	562.5
623.268	547.7
623.681	553.4
624.095	554.3
624.509	558.6
624.922	560
625.336	541.5
625.728	556.3
626.142	560.1
626.556	565
626.97	559.8
627.384	548.3
627.799	550.1
628.213	562
628.627	545.7
629.041	549
629.456	543.4
629.87	549.4
630.285	557.9
630.699	554.2
631.093	551
631.507	552.8
631.922	558.4
632.337	556.9
632.752	539.1
633.167	551.3
633.582	541.7
633.997	546.1
634.412	542
634.806	544.9
635.221	538.2
635.637	552.6
636.052	535.8
636.468	547.7
636.883	568.2
637.299	544
637.715	538.2
638.109	542.7
638.525	533.8
638.941	553.3
639.357	548.1
639.773	556.6
640.189	542.6
640.584	550.9
641	548.2
641.416	532.6
641.832	542.1
642.249	537.8
642.665	545.7
643.06	547.6
643.477	556.1
643.894	529.4
644.31	544.1
644.727	548
645.123	542.4
645.54	536.2
645.957	548.1
646.374	551.2
646.77	545.1
647.187	568.1
647.604	542.9
648.021	534.3
648.439	534.3
648.835	541.4
649.252	544.5
649.67	546
650.088	540.5
650.484	545.3
650.902	543.6
651.32	542.7
651.738	537.3
652.134	549.1
652.552	553
652.971	549.1
653.389	542.6
653.786	550.2
654.204	544.6
654.622	533.3
655.019	543.4
655.438	547.2
655.857	544.8
656.275	549.4
656.673	536.4
657.091	609
657.51	535.8
657.908	549.6
658.327	558.5
658.746	531.1
659.144	545.2
659.563	551
659.982	538.8
660.38	534.8
660.8	540.2
661.219	545
661.617	543.7
662.037	532.5
662.457	552.9
662.855	528.7
663.275	566.6
663.695	534.9
664.094	535.7
664.514	543.1
664.934	535.1
665.333	545.1
665.753	531.2
666.152	531.4
666.572	532
666.993	547.2
667.392	533.8
667.812	540.1
668.212	534.2
668.632	542.6
669.053	540
669.453	539.7
669.874	538.3
670.273	542.8
670.694	532.5
671.116	547.4
671.515	545.4
671.937	539.8
672.337	537
672.758	536.9
673.158	545
673.58	531.8
673.98	540.1
674.402	554
674.824	533.3
675.224	533.1
675.646	533.6
676.047	536.1
676.469	535.1
676.869	543.6
677.292	540.2
677.693	532.7
678.115	533.3
678.516	537.1
678.939	538.5
679.34	529.3
679.762	545.7
680.164	543.9
680.586	529.5
680.988	540.5
681.411	556.2
681.812	530
682.236	533.7
682.637	527.4
683.061	527.9
683.462	535.8
683.864	533.5
684.288	536.8
684.69	527.5
685.114	539.5
685.516	541.7
685.94	530.6
686.342	545.5
686.766	534.7
687.168	531.5
687.571	547.4
687.995	534.3
688.398	535.4
688.822	533.5
689.225	547
689.628	548.6
690.052	539.5
690.456	545.9
690.88	533.6
691.284	525.1
691.687	538.8
692.112	531.5
692.515	528
692.919	533.3
693.344	536
693.747	533.2
694.173	527
694.577	544.2
694.98	535.1
695.406	532.4
695.81	538.1
696.214	537.1
696.64	539.2
697.044	533.4
697.448	544.5
697.874	532.2
698.279	533.5
698.684	525.6
699.11	532.5
699.514	534.4
699.919	527
700.324	527.4
700.75	531.4
701.156	536.1
701.561	543.3
701.987	541.3
702.393	542.2
702.798	543.6
703.203	536.2
703.63	529.5
704.036	532.7
704.442	532.5
704.847	525.1
705.274	532.2
705.68	536
706.086	541.7
706.492	524.4
706.92	528.2
707.326	540.9
707.732	535.4
708.139	524.2
708.545	529.9
708.973	525.4
709.38	531.8
709.786	525.2
710.193	548.9
710.6	534.7
711.028	527.8
711.435	536
711.842	530
712.249	531.9
712.656	536.8
713.064	541.9
713.492	528.3
713.9	527.2
714.307	537.7
714.715	530.9
715.123	534.5
715.53	534.1
715.938	540.2
716.367	532.5
716.775	527.3
717.184	528.4
717.592	537.2
718	540.2
718.408	564.7
718.816	569.7
719.225	538.5
719.633	532.3
720.042	522.8
720.472	532.9
720.881	551.1
721.29	537.7
721.699	524.7
722.108	535.8
722.517	529.9
722.926	531.3
723.335	534.1
723.744	528.1
724.154	537.7
724.563	532.9
724.973	532.8
725.382	527.8
725.792	529.1
726.202	524.3
726.612	539.1
727.022	529.8
727.432	527.3
779.813	528.3
780.223	565.4
780.634	529.4
781.044	524.4
781.454	528.2
781.865	541.4
782.276	522.9
782.686	539.3
783.097	530.3
783.508	526.4
783.919	530.2
784.33	541.5
784.741	541.8
785.152	531.1
785.563	513.3
785.974	525.1
786.386	541.6
786.776	526
787.188	524.8
787.599	524.5
788.011	538.2
788.423	532.4
788.835	522.5
789.247	523.2
789.659	530
790.071	526
790.483	567.8
790.874	531.1
791.286	537.7
791.699	529.7
792.111	530.1
792.524	531.3
792.937	526
793.349	521.4
793.741	529.7
794.154	532.1
794.567	552.4
794.98	530.9
795.393	524.5
795.785	541.9
796.198	523
796.612	529.6
797.026	520.1
797.439	518.3
797.831	526.2
798.245	521.1
798.659	527.4
799.073	524.5
799.487	523.7
799.88	530.2
800.294	530.4
800.708	541.4
801.123	529.3
801.516	543
801.93	522.6
802.345	518.9
802.76	533.9
803.153	545
803.568	548.8
803.983	538
804.377	529.6
804.792	520.4
805.207	518.4
805.601	532.5
806.016	560.2
806.432	524.3
806.826	554.8
807.242	539.5
807.658	533.8
808.052	528.7
808.468	526.4
808.884	526.6
809.279	536.5
809.695	536.2
810.111	545.7
810.506	533.5
810.922	543.9
811.339	524
811.734	531
812.151	525.3
812.546	522.9
812.963	518.5
813.38	529.6
813.776	524
814.193	542.6
814.589	524.4
815.006	522.8
815.402	526.8
815.82	524.7
816.237	527.2
816.633	531.6
817.051	521.1
817.448	529
817.866	519.6
818.262	546.3
818.68	521.5
819.077	524.1
819.495	520.9
819.892	562.1
820.311	520.8
820.708	522.5
821.127	523.4
821.524	534.8
821.943	524.2
822.34	545
822.759	527.9
823.157	528.1
823.576	545
823.974	530
824.393	536.5
824.791	521.9
825.189	523.9
825.609	525.8
826.007	527.4
826.427	521.6
826.826	522.6
827.246	528.7
827.644	512
828.043	537.1
828.463	531.5
828.862	533.9
829.261	536.7
829.682	515.2
830.081	530.8
830.502	520.3
830.901	532.8
831.301	521.2
831.722	518.3
832.121	527.7
832.521	521.5
832.943	530.2
833.342	526.3
833.742	527.2
834.164	533.4
834.564	520.4
834.965	528.6
835.386	525.6
835.787	524.1
836.188	520.9
836.588	525.4
837.01	528.2
837.411	514.2
837.812	532.1
838.213	529.7
838.636	527.6
839.037	588.7
839.438	526.8
839.84	529.5
840.263	530.2
840.664	527.6
841.066	523.2
841.468	528.9
841.891	526
842.293	537.2
842.695	531.7
843.098	533.9
