#lambda/nm	C1
208.295	472.6
208.67	439
209.045	403.3
209.419	408.6
209.794	571.4
210.169	553.9
210.544	661.5
210.919	567.4
211.295	561.4
211.67	564.6
212.045	556.2
212.421	564.8
212.796	596
213.172	562.2
213.547	559.6
213.923	559.4
214.299	555.8
214.675	575.6
215.051	569.8
215.427	576
215.803	582.5
216.179	579
216.555	559.1
216.932	569.2
217.308	566.7
217.684	560.3
218.061	565.5
218.438	571
218.814	564.8
219.191	570.2
219.568	558.8
219.945	566
220.322	576.6
220.699	563.3
221.076	567.6
221.453	568.7
221.83	561.4
222.208	567.5
222.585	563.6
222.962	569.1
223.34	573.5
223.717	569.7
224.095	563.4
224.473	570.8
224.851	561.1
225.229	560.4
225.607	576.3
225.985	552.8
226.363	566.7
226.741	565.8
227.119	569
227.497	576.2
227.876	559.6
228.254	575.7
228.633	566.3
229.011	562.5
229.39	570.1
229.769	569.2
230.148	569
230.527	586.5
230.905	567.6
231.284	566.8
231.664	559.3
232.043	573.6
232.422	571.1
232.801	556.9
233.181	571.7
233.56	559.4
233.94	559.7
234.319	551.6
234.699	560
235.079	602.2
235.458	598.6
235.838	586.5
236.218	560.1
236.598	551.2
236.978	560.9
237.358	558.5
237.738	558.9
238.119	572.4
238.499	553.7
238.88	562.4
239.26	574.1
239.641	558.1
240.021	561.9
240.402	568.3
240.783	566.6
241.163	564.1
241.544	571.3
241.925	569.1
242.306	581.7
242.687	562.8
243.069	569
243.45	572.8
243.831	561.8
244.212	563.5
244.594	596.3
244.975	576.3
245.357	568.3
245.739	557.5
246.12	568.5
246.502	583.7
246.884	566.4
247.266	557.1
247.648	567.9
248.03	583.1
248.412	565.1
248.794	573.7
249.176	560.8
249.559	576
249.941	563.4
250.323	561
250.706	559.3
251.089	560.6
251.471	571.6
251.854	565.6
252.237	565.7
252.62	572
253.002	563.4
253.385	564.5
253.769	580.3
254.152	567.7
254.535	568.4
254.918	563.4
255.301	562.2
255.685	563.6
256.068	559.1
256.452	581.9
256.835	570.8
257.219	568.3
257.603	577.3
257.986	556.5
258.37	571.8
258.754	553
259.138	568.8
259.522	570.8
259.906	560.7
260.29	566.5
260.675	569.2
261.059	572.1
261.443	557.1
261.828	565
262.212	570.5
262.597	558.4
262.981	561.2
263.366	570.6
263.751	565
264.136	558.2
264.521	560.9
264.906	560.3
265.291	574.9
265.676	565.3
266.061	571.8
266.446	583.3
266.831	567.9
267.217	583.3
267.602	572.8
267.987	568.3
268.373	563.7
268.759	574.6
269.144	574.8
269.53	571.8
269.916	567.1
270.302	561.9
270.688	572.6
271.074	571.8
271.46	571.9
271.846	594.5
272.232	568.8
272.618	558.4
273.004	568.6
273.391	577.7
273.777	574.4
274.164	570.7
274.55	575.4
274.937	570.3
275.324	562.1
275.71	572.7
276.097	577.8
276.484	562.7
276.871	571.3
277.258	567.6
277.645	557.4
278.032	563
278.419	559.8
278.807	571.3
279.194	566.6
279.581	563.1
279.969	571.8
280.356	567.7
280.744	569.6
281.131	584.1
281.519	572.5
281.907	562
282.295	565.5
282.682	575.9
283.07	566.6
283.458	572.5
283.846	580.2
284.235	571.3
284.623	566.8
285.011	560.1
285.399	563.4
285.788	568.4
286.176	552.9
286.565	577.5
286.953	564.9
287.342	560.9
287.731	557.5
288.119	553.9
288.508	567.4
288.897	563.1
289.286	553.1
289.675	567.1
290.064	574.5
290.453	566.3
290.821	563
291.21	573.4
291.599	560.5
291.989	568.1
292.378	572.8
292.768	581.2
293.157	570.6
293.547	572.7
293.936	569.7
294.326	561.4
294.716	570.4
295.106	556.3
295.496	573.5
295.886	570.2
296.276	559.4
296.666	560.6
297.056	557.8
297.446	554.5
297.836	578.9
298.227	568.4
298.617	567.2
299.008	577.1
299.398	563.7
299.789	560.2
300.179	565.9
300.57	576
300.961	559.1
301.352	561
301.742	568
302.133	565.5
302.524	565.5
302.915	563.3
303.307	556.5
303.698	569.8
304.089	571.4
304.48	565.9
304.872	572.8
305.263	564.9
305.655	561.8
306.046	566.2
306.438	570.2
306.829	564.1
307.221	575.6
307.613	569
308.005	577.7
308.397	575.3
308.789	584.3
309.181	583.2
309.573	581.9
309.965	579.3
310.357	562.5
310.749	568
311.142	559.8
311.534	560.1
311.926	575
312.319	566.1
312.711	563.3
313.104	577.6
313.497	570.4
313.889	606
314.282	576.8
314.675	591
315.068	568.4
315.461	573.9
315.854	595.2
316.247	568.7
316.64	567.3
317.033	572.5
317.405	573.6
317.798	570.1
318.192	567.5
318.585	565
318.979	569.4
319.372	560.4
319.766	571
320.16	580.7
320.553	580.4
320.947	586.9
321.341	561.7
321.735	564.2
322.129	555.1
322.523	592.4
322.917	559.7
323.311	575.8
323.705	570.2
324.099	569.9
324.494	581.4
324.888	580.6
325.282	564
325.677	571.1
326.071	573.8
326.466	576.5
326.861	573.7
327.255	580.3
327.65	576.5
328.045	578.1
328.44	566.8
328.835	566.6
329.23	559.5
329.625	586.7
330.02	566.1
330.415	586.5
330.81	572.9
331.206	562.9
331.601	569
331.996	575.6
332.37	580.2
332.766	554.6
333.161	586
333.557	566
333.953	569.8
334.348	961.2
334.744	567.6
335.14	566.3
335.536	560.2
335.932	578.1
336.328	570.2
336.724	573.1
337.12	562.9
337.516	571.2
337.913	570.1
338.309	574.6
338.705	565
339.102	577.4
339.498	563.5
339.895	581.4
340.291	566.4
340.688	580.8
341.085	560.4
341.481	566.8
341.878	569
342.275	584.8
342.672	565.6
343.069	568.9
343.466	556.3
343.842	573.5
344.239	560.1
344.636	568.8
345.033	561
345.431	556.7
345.828	570.5
346.225	557.8
346.623	574.9
347.02	565.4
347.418	572.9
347.816	574.4
348.213	556.7
348.611	572
349.009	565.2
349.407	575.4
349.805	555.6
350.203	552.7
350.601	574.8
350.999	563.7
351.397	559.9
351.795	561
352.193	572
352.57	567.1
352.969	575.2
353.367	557.3
353.766	556.9
354.164	565.9
354.563	571.6
354.961	568.7
355.36	555.8
355.759	561.2
356.158	556.3
356.557	561.1
356.956	551.6
357.355	554.3
357.754	569.7
358.153	567.7
358.552	586
358.951	564.9
359.35	575.2
359.75	559.3
360.149	555
360.527	553.1
360.926	555.8
361.326	564.5
361.726	562.1
362.125	553.1
362.525	570
362.925	551
363.325	562.5
363.724	557.2
364.124	558.2
364.524	555.7
364.924	560.8
365.324	571.1
365.725	548.6
366.125	564.9
366.525	564.5
366.904	554.8
367.304	551.7
367.705	577.2
368.105	577.7
368.506	556.4
368.906	559.4
369.307	558.5
369.708	564.1
370.108	557.4
370.509	572.1
370.91	557.7
371.311	564.7
371.712	565.1
372.113	555.8
372.514	550.3
372.894	558.6
373.295	560.9
373.696	571.8
374.097	570.8
374.499	587.4
374.9	562.3
375.301	551.3
375.703	560.4
376.105	552.5
376.506	564.2
376.908	561.3
377.309	560
377.711	561.7
378.113	556.2
378.493	555.9
378.895	556.4
379.297	564.2
379.699	543.7
380.102	562.5
380.504	558
380.906	554.1
381.308	575.7
381.71	554.1
382.113	568.6
382.515	555.1
382.918	561.5
383.299	557.2
383.701	568.7
384.104	556.2
384.507	545.7
384.909	553.1
385.312	545.9
385.715	547.5
386.118	549.8
386.521	547.4
386.924	568.4
387.327	556.8
387.709	549.2
388.112	545
388.515	555.9
388.918	562
389.322	560.6
389.725	553.8
390.129	574.4
390.532	566
390.936	556.4
391.339	546.6
391.743	556.6
392.125	547.5
392.529	560.1
392.933	564.9
393.337	560
393.74	554
394.144	555
394.548	554.8
394.953	551.6
395.357	563
395.761	552.3
396.144	556.5
396.548	553.9
396.952	557.1
397.357	559.3
397.761	552.7
398.166	557.8
398.57	556.2
398.975	551.3
399.379	560.3
399.763	604.2
400.168	557.3
400.572	562.3
400.977	554.8
401.382	575.4
401.787	567.8
402.192	578.7
402.597	570.2
403.002	546.2
403.386	569.9
403.791	573.9
404.197	558.4
404.602	559.8
405.007	563
405.413	556.4
405.818	544.2
406.224	557.3
406.608	565.5
407.014	551.7
407.42	571.6
407.825	553.7
408.231	566.3
408.637	558.9
409.043	571.4
409.449	555.1
409.834	555.3
410.24	562.3
410.646	571.5
411.052	574
411.458	564.1
411.865	569.8
412.271	571.8
412.677	558
413.062	563.7
413.469	549.7
413.875	579.2
414.282	568.1
414.689	563.8
415.095	565.8
415.502	554.8
415.888	563.1
416.294	554.4
416.701	596.3
417.108	553
417.515	564.8
417.923	557.9
418.33	574.8
418.715	566.4
419.123	555.6
419.53	561.8
419.937	562.1
420.345	571.6
420.752	564.2
421.16	574.4
421.546	559.7
421.953	568.5
422.361	555.8
422.769	553.7
423.177	553.3
423.585	576.9
423.992	579.4
424.379	570.7
424.787	569.1
425.195	580
425.603	557.4
426.011	574.3
426.419	573.7
426.806	563.8
427.214	563.1
427.623	572.7
428.031	575.7
428.44	566.5
428.848	573.6
429.235	582.1
429.644	561.1
430.053	565.1
430.461	577.9
430.87	586.5
431.279	575.7
431.666	565.6
432.075	569.4
432.484	577.2
432.893	575.9
433.302	593.4
433.711	617.9
434.099	595.1
434.508	586.3
434.918	585.2
435.327	610.8
435.737	601.1
436.125	608.1
436.534	611
436.944	616.4
437.353	634.8
437.763	655.2
438.173	634.6
438.561	653.2
438.971	644
439.381	660.9
439.791	670.5
440.201	654.3
440.589	681
440.999	693.7
441.409	700
441.819	689
442.23	717.3
442.619	721.7
443.029	717.7
443.439	725.4
443.85	736.3
444.26	749.6
444.649	751.5
445.06	752.2
445.471	741.6
445.881	744.8
446.292	767.2
446.682	778.3
447.092	754.9
447.503	818.4
447.914	780.9
448.325	771.8
448.715	782
449.126	777.2
449.537	791.3
449.948	793.1
450.338	799.8
450.75	799.8
451.161	793
451.572	805.3
451.984	804.3
452.374	798.7
452.786	808.9
453.197	812.6
453.609	825.9
453.999	807.5
454.411	806.5
454.823	826.9
455.235	831
455.647	817.7
456.037	827.6
456.449	809.1
456.862	821
457.274	832.5
457.665	814.8
458.077	837.5
458.489	831.8
458.902	829.3
459.293	826.5
459.705	836.4
460.118	816.6
460.53	834.7
460.921	826.3
461.334	831.3
461.747	829.9
462.16	838.1
462.551	834.2
462.964	836.2
463.377	819.7
463.79	830.6
464.182	837.3
464.595	819.3
465.008	834
465.421	836.7
465.813	836.6
466.226	831.8
466.64	822
467.053	872.3
467.445	839.1
467.859	823.2
468.272	815.5
468.686	828.3
469.078	823.4
469.492	811.3
469.906	823.8
470.298	819.6
470.712	816
471.126	854.7
471.54	810.8
471.933	808.8
472.347	812.5
472.761	813
473.175	806.5
473.568	804.4
473.982	801.9
474.397	810.8
474.79	809.4
475.204	811.6
475.619	801.5
476.033	813.4
476.426	810.1
476.841	797.8
477.256	821
477.649	799.1
478.064	789.2
478.479	798.5
478.872	790.4
479.287	778.2
479.702	787.3
480.118	789
480.511	786.1
480.927	783.9
481.342	787.3
481.736	793.4
482.151	779.6
482.566	796.8
482.96	789.8
483.376	794.5
483.792	788.6
484.186	791.6
484.602	781.5
485.017	782.6
485.412	779.7
485.827	786.7
486.243	778.3
486.638	801.6
487.054	788
487.47	790.2
487.865	772.8
488.281	770.9
488.697	767.2
489.092	765.7
489.508	768.8
489.925	779.6
490.32	757.1
490.736	769.8
491.153	760.7
491.548	761
491.964	772.7
492.381	744.4
492.776	758.7
493.193	757.5
493.61	767.3
494.006	757.9
494.422	751.4
494.84	749.1
495.235	757.2
495.652	748.5
496.069	746.4
496.465	734
496.883	741.8
497.3	762.7
497.696	739.4
498.113	749.3
498.509	727.8
498.927	727.2
499.344	730.5
499.741	729.5
500.158	740.4
500.576	743.1
500.973	727.4
501.39	713.7
501.787	711.1
502.205	721.6
502.623	720.3
503.02	711.4
503.438	711.3
503.856	712.2
504.253	712.7
504.671	719.2
505.068	702.5
505.486	705.7
505.905	727.8
506.302	710.2
506.72	719.6
507.118	698.8
507.536	707.5
507.955	709.5
508.352	707
508.771	705
509.169	696.1
509.587	690
510.006	691.5
510.404	688.4
510.823	686.6
511.221	686.3
511.64	690.6
512.038	694.4
512.457	689.8
512.877	681.9
513.275	677.7
513.694	684.6
514.092	685
514.512	678.1
514.91	684
515.33	673.3
515.749	679.4
516.148	674
516.568	676.9
516.966	669.4
517.386	661.1
517.785	671.2
518.205	666.9
518.603	660.7
519.024	659.6
519.444	665
519.843	669.6
520.263	657.4
520.662	665.4
521.082	660.3
521.481	655.5
521.902	654.2
522.301	661.1
522.722	657.6
523.121	657.3
523.542	649.2
523.963	647.1
524.362	650.2
524.783	653.2
525.183	645.9
525.604	648.4
526.003	637
526.425	628.3
526.824	644.1
527.246	647.4
527.646	649
528.067	645.3
528.467	645.4
528.888	639.9
529.289	639.5
529.71	633.3
530.11	633.6
530.532	626.7
530.932	629.9
531.354	617.2
531.755	661.8
532.176	636.1
532.577	628.3
532.999	631
533.4	622
533.822	634.9
534.223	625.6
534.645	624.6
535.046	619.5
535.468	627.7
535.869	634.9
536.292	619.6
536.693	622.4
537.115	619.7
537.516	615.8
537.939	616.1
538.34	629.7
538.742	632.2
539.165	617.8
539.566	618.6
539.989	603.5
540.391	611.5
540.814	615.9
541.216	611.4
541.639	616.2
542.041	617.2
542.464	611
542.866	607.4
543.268	598.3
543.691	607.9
544.093	614.4
544.517	626.7
544.919	597.7
545.343	623.4
545.745	598.9
546.147	606.3
546.571	606.3
546.974	593.9
547.398	602.2
547.8	612
548.224	596.1
548.627	596.7
549.03	605.7
549.454	596.9
549.857	584.2
550.281	594.7
550.684	594.6
551.087	602
551.512	601.8
551.915	606.9
552.34	596.1
552.743	594.5
553.146	601.3
553.571	591.1
553.975	613
554.399	588.1
554.803	644.1
555.207	596.3
555.632	591
556.036	595.7
556.461	586.5
556.865	596.1
557.268	582.6
557.694	592
558.098	593
558.502	593.3
558.927	586.1
559.332	592.3
559.736	584.6
560.162	592.6
560.566	581.3
560.992	592.5
561.396	589.7
561.801	584
562.227	587.7
562.631	583.2
563.036	588.1
563.462	585
563.867	583.6
564.272	570.3
564.698	585.7
565.103	571
565.508	601.3
565.935	578.8
566.34	575
566.745	590.2
567.172	569.1
567.577	597.2
567.982	586.2
568.409	579.7
568.815	570.5
569.22	573.1
569.626	580.8
570.053	566.9
570.459	571.6
570.865	577.3
571.292	581.6
571.698	575.8
572.104	559.3
572.531	562.4
572.937	580.1
573.343	570.6
573.75	567.2
574.177	568.9
574.583	575.1
574.99	571.1
575.396	573.7
575.824	570.3
576.231	573.4
576.637	565.6
577.065	592.1
577.472	573.4
577.879	567.8
578.286	583.5
578.714	560.3
579.121	567.5
579.528	570.3
579.935	568.8
580.364	564.7
580.771	554.4
581.178	563.8
581.585	565.3
582.014	568.8
582.421	555.7
582.829	566.2
583.236	571
583.644	558.3
584.073	563.1
584.481	563.9
584.889	554.8
585.296	564.8
585.726	561.8
586.134	556.4
586.542	557.3
586.95	573.5
587.358	550.7
587.787	556.2
588.196	557.7
588.604	554.8
589.012	559.2
589.421	552.5
589.851	552.3
590.259	558.2
590.668	555
591.076	597.1
591.485	554.3
591.894	563.5
592.324	572.9
592.733	567.9
593.142	547.8
593.551	557.7
593.96	591.6
594.369	553.2
594.8	554.7
595.209	555.6
595.618	540.1
596.028	549.7
596.437	550.5
596.847	559.9
597.256	553
597.687	558.2
598.097	558.6
598.507	543.8
598.917	558.6
599.327	559.9
599.736	557.5
600.146	566.2
600.556	558.5
600.988	570.2
601.398	551.6
601.808	563.4
602.219	544.4
602.629	554
603.039	552.2
603.45	578.7
603.86	554
604.271	565
604.703	553.7
605.114	552.1
605.525	552.7
605.935	555.1
606.346	577.3
606.757	558.5
607.168	552.4
607.579	548
607.99	560.7
608.402	550.5
608.813	552.2
609.224	544.5
609.636	542
610.047	545
610.48	549.1
610.892	551.3
611.303	556.3
611.715	541.9
612.127	536.5
612.539	547.1
612.95	552.4
613.362	538.1
613.774	540
614.186	547.7
614.599	541.6
615.011	556.1
615.423	534.6
615.835	544.9
616.248	541.9
616.66	557.3
617.073	544
617.485	548.4
617.898	555.1
618.311	555.1
618.723	548.2
619.136	573
619.549	563.7
619.962	571.7
620.375	546.7
620.788	553
621.201	543.8
621.614	555.1
622.028	544.1
622.441	551
622.854	561.5
623.268	537.4
623.681	548.4
624.095	544.9
624.509	555.7
624.922	551.7
625.336	539.5
625.728	549.5
626.142	549.5
626.556	563.5
626.97	552.2
627.384	551.4
627.799	550.8
628.213	555.3
628.627	544.8
629.041	542.9
629.456	545.5
629.87	550.3
630.285	552.8
630.699	556.9
631.093	547.8
631.507	553.9
631.922	550.1
632.337	556.8
632.752	539.3
633.167	543.1
633.582	544.4
633.997	543.9
634.412	540.9
634.806	540
635.221	537.2
635.637	558.2
636.052	537.1
636.468	544.6
636.883	553.9
637.299	538.5
637.715	535.7
638.109	547.3
638.525	528.2
638.941	560.5
639.357	541.8
639.773	554.7
640.189	535.5
640.584	544.2
641	551.3
641.416	526.8
641.832	538.2
642.249	544.8
642.665	543.6
643.06	551.5
643.477	548.6
643.894	527.2
644.31	537.1
644.727	542.8
645.123	540.6
645.54	540
645.957	539.5
646.374	542.9
646.77	545.5
647.187	566.5
647.604	542.4
648.021	542.2
648.439	533.8
648.835	545.2
649.252	546
649.67	543.9
650.088	540.3
650.484	540.9
650.902	548.7
651.32	549.7
651.738	544.2
652.134	550.8
652.552	562.7
652.971	546.4
653.389	542.2
653.786	563.3
654.204	543.4
654.622	536.8
655.019	545.1
655.438	545.1
655.857	544.3
656.275	547.3
656.673	539.8
657.091	610.8
657.51	535.3
657.908	552.1
658.327	556.7
658.746	530.2
659.144	542.2
659.563	557.2
659.982	544.6
660.38	537.2
660.8	543.5
661.219	554.8
661.617	546.3
662.037	540
662.457	545.9
662.855	525.5
663.275	567.2
663.695	542.1
664.094	536.8
664.514	537.2
664.934	533.4
665.333	546.7
665.753	533.8
666.152	532.7
666.572	534
666.993	549.8
667.392	534.7
667.812	536.6
668.212	541.5
668.632	549.8
669.053	541.1
669.453	548.1
669.874	542.8
670.273	539.6
670.694	530.3
671.116	551.5
671.515	544.9
671.937	539.6
672.337	534
672.758	538.3
673.158	548.7
673.58	532.2
673.98	547.2
674.402	552.4
674.824	533.7
675.224	536.9
675.646	529.1
676.047	537.1
676.469	539.5
676.869	544.1
677.292	545
677.693	531.8
678.115	537.7
678.516	540.6
678.939	540.9
679.34	537.2
679.762	550.9
680.164	540.8
680.586	532.8
680.988	540.8
681.411	560.3
681.812	535.9
682.236	534.7
682.637	529.7
683.061	528.9
683.462	541
683.864	538.7
684.288	548.8
684.69	531.9
685.114	544.7
685.516	545.2
685.94	533.2
686.342	546.4
686.766	536.1
687.168	535.2
687.571	551.9
687.995	540.9
688.398	524.5
688.822	535.4
689.225	555.1
689.628	555.3
690.052	536.4
690.456	542.5
690.88	537.2
691.284	528.9
691.687	544.4
692.112	527.8
692.515	530.7
692.919	544.1
693.344	536.8
693.747	533.9
694.173	533.3
694.577	551.7
694.98	538
695.406	536.1
695.81	544.9
696.214	541.1
696.64	541.1
697.044	536.6
697.448	545.3
697.874	535.1
698.279	540.2
698.684	533.1
699.11	535.4
699.514	535.9
699.919	531.7
700.324	531.9
700.75	539.9
701.156	541.1
701.561	548.1
701.987	544.6
702.393	541.2
702.798	548.6
703.203	538.7
703.63	536.8
704.036	535.5
704.442	539.7
704.847	529.6
705.274	528.5
705.68	539.7
706.086	548.2
706.492	531.9
706.92	533.9
707.326	547.8
707.732	531.3
708.139	527.7
708.545	530.5
708.973	530.5
709.38	536.2
709.786	525.3
710.193	546.4
710.6	535.5
711.028	530.8
711.435	534.4
711.842	538.3
712.249	530.5
712.656	533.8
713.064	545.9
713.492	531.2
713.9	536.5
714.307	542.3
714.715	536.7
715.123	541.6
715.53	537.9
715.938	549.9
716.367	534.4
716.775	533.9
717.184	531.4
717.592	536
718	542.5
718.408	571
718.816	576.5
719.225	539.4
719.633	540.3
720.042	528.4
720.472	533.6
720.881	552.6
721.29	542.9
721.699	531.9
722.108	535.7
722.517	540.2
722.926	534.7
723.335	546.3
723.744	537.7
724.154	530.8
724.563	537.7
724.973	543
725.382	541.5
725.792	536.8
726.202	534.8
726.612	544.6
727.022	534.8
727.432	530.3
779.813	533.4
780.223	573.6
780.634	530.7
781.044	530.5
781.454	533.2
781.865	547.4
782.276	529.3
782.686	543.9
783.097	534.4
783.508	531.7
783.919	538.5
784.33	546
784.741	548.5
785.152	529.9
785.563	522
785.974	533.6
786.386	548
786.776	529.5
787.188	530.5
787.599	526.2
788.011	538.7
788.423	544.1
788.835	534.3
789.247	524.2
789.659	527.5
790.071	532.1
790.483	566.5
790.874	535
791.286	546.2
791.699	533.2
792.111	539.9
792.524	539.3
792.937	539.6
793.349	523.9
793.741	529.8
794.154	530.2
794.567	548.1
794.98	530.8
795.393	527.5
795.785	554.4
796.198	532.6
796.612	531.4
797.026	538.4
797.439	523.3
797.831	527.6
798.245	524.1
798.659	527.3
799.073	535.9
799.487	531.1
799.88	535.4
800.294	537.6
800.708	541
801.123	539.5
801.516	551.4
801.93	526.1
802.345	522.7
802.76	534.8
803.153	542.9
803.568	550.9
803.983	538.7
804.377	540.6
804.792	525.3
805.207	523.9
805.601	534.7
806.016	561.6
806.432	527.8
806.826	561.8
807.242	546.3
807.658	545.3
808.052	533.9
808.468	529.2
808.884	527.3
809.279	532.4
809.695	544.2
810.111	550.5
810.506	534.8
810.922	546.2
811.339	528
811.734	537.5
812.151	531.2
812.546	527.8
812.963	532.2
813.38	541.1
813.776	536.1
814.193	551.7
814.589	524.3
815.006	529.3
815.402	525.2
815.82	532
816.237	529.9
816.633	534.3
817.051	521
817.448	533.8
817.866	526.9
818.262	549.6
818.68	527.2
819.077	529.6
819.495	531.6
819.892	570.4
820.311	529.3
820.708	534.6
821.127	529.7
821.524	543.8
821.943	533.9
822.34	549.5
822.759	534.5
823.157	530.5
823.576	548
823.974	541.2
824.393	540.8
824.791	525
825.189	528.3
825.609	531
826.007	533.6
826.427	522.4
826.826	528.6
827.246	534.3
827.644	519.5
828.043	543.2
828.463	533.5
828.862	538.7
829.261	539.1
829.682	523
830.081	537.8
830.502	524.3
830.901	534.8
831.301	525.6
831.722	527.1
832.121	534.9
832.521	528.3
832.943	531.2
833.342	531.5
833.742	530.1
834.164	530.5
834.564	523.8
834.965	532.8
835.386	531.5
835.787	532.1
836.188	531.9
836.588	529.4
837.01	532.7
837.411	527.3
837.812	534.1
838.213	539.6
838.636	527.7
839.037	593.1
839.438	539.1
839.84	536.7
840.263	536.5
840.664	535.4
841.066	530.7
841.468	533.1
841.891	532.5
842.293	538.2
842.695	539.1
843.098	544.6
843.5	528.9
843.902	537.5
844.326	538.6
844.729	532.5
845.131	542.2
845.534	528.3
845.937	546.7
846.34	548.1
846.764	526.8
847.167	535.4
