#lambda/nm	C1
208.295	470.6
208.67	439.4
209.045	400.5
209.419	406.5
209.794	576.4
210.169	560.6
210.544	678.5
210.919	583.2
211.295	564.4
211.67	573.4
212.045	570.9
212.421	571.8
212.796	606.3
213.172	565.3
213.547	568.3
213.923	572
214.299	573.1
214.675	581.3
215.051	582.5
215.427	581.1
215.803	591.2
216.179	579.9
216.555	565.9
216.932	579.7
217.308	570.9
217.684	576.9
218.061	582.8
218.438	583.4
218.814	566.6
219.191	584
219.568	566.6
219.945	575.7
220.322	588.4
220.699	581.4
221.076	583.9
221.453	582.1
221.83	569
222.208	571.7
222.585	574
222.962	579
223.34	581.6
223.717	569.1
224.095	571.3
224.473	573.5
224.851	570.4
225.229	568.1
225.607	588.9
225.985	565
226.363	582.4
226.741	578.2
227.119	580.1
227.497	583.6
227.876	565.4
228.254	587.1
228.633	583.8
229.011	578.6
229.39	583.3
229.769	583.8
230.148	585
230.527	596.9
230.905	575.2
231.284	578.2
231.664	572.3
232.043	590.4
232.422	583
232.801	573.1
233.181	579.4
233.56	573.9
233.94	576
234.319	565.5
234.699	574.2
235.079	611.5
235.458	619.9
235.838	593.6
236.218	569.2
236.598	572
236.978	573.9
237.358	571.7
237.738	568.6
238.119	583
238.499	567.5
238.88	570.5
239.26	595.7
239.641	562.7
240.021	570.3
240.402	577.9
240.783	575.5
241.163	574.9
241.544	584.3
241.925	575.6
242.306	595.2
242.687	571.7
243.069	575.4
243.45	584.3
243.831	569.6
244.212	573.7
244.594	610.3
244.975	580.2
245.357	580
245.739	568.9
246.12	575.5
246.502	589.3
246.884	572.2
247.266	571.5
247.648	578.5
248.03	598.8
248.412	581.3
248.794	575.9
249.176	562.6
249.559	586.3
249.941	571.2
250.323	563.7
250.706	569.3
251.089	571.6
251.471	575.8
251.854	569.8
252.237	572.1
252.62	583.4
253.002	576.2
253.385	571.4
253.769	590.3
254.152	572.7
254.535	579.7
254.918	566.7
255.301	573.1
255.685	570.8
256.068	566.5
256.452	599.2
256.835	577.6
257.219	583.1
257.603	587.5
257.986	564.3
258.37	575.2
258.754	565.3
259.138	578.4
259.522	583.8
259.906	567.8
260.29	577
260.675	576.3
261.059	581.2
261.443	563.4
261.828	582.3
262.212	579.3
262.597	562.7
262.981	567.3
263.366	581.2
263.751	579.8
264.136	569.4
264.521	573.9
264.906	567.5
265.291	581.2
265.676	570.8
266.061	580.9
266.446	590.7
266.831	579.2
267.217	595.3
267.602	580.9
267.987	582
268.373	569.8
268.759	581.6
269.144	579.1
269.53	572.9
269.916	578.2
270.302	573.8
270.688	580
271.074	577.3
271.46	592.9
271.846	605.5
272.232	575.4
272.618	566.6
273.004	571.6
273.391	580.1
273.777	592.3
274.164	579
274.55	589.8
274.937	582.2
275.324	575.3
275.71	577.2
276.097	581.1
276.484	569.8
276.871	577.7
277.258	579.1
277.645	564.8
278.032	573.9
278.419	579
278.807	584.5
279.194	570.8
279.581	579.7
279.969	583.4
280.356	577.5
280.744	577.4
281.131	596.5
281.519	591.8
281.907	577.5
282.295	575.3
282.682	580.8
283.07	578.8
283.458	588.5
283.846	591
284.235	583.2
284.623	586.5
285.011	569.3
285.399	575.8
285.788	578
286.176	564.2
286.565	588
286.953	580.1
287.342	573.2
287.731	568.9
288.119	567
288.508	568.6
288.897	574.9
289.286	565.4
289.675	578.5
290.064	586.2
290.453	574.9
290.821	576.6
291.21	588
291.599	572.2
291.989	581.4
292.378	586.8
292.768	597.5
293.157	586.1
293.547	587.7
293.936	576
294.326	568.5
294.716	579.4
295.106	574.6
295.496	579.4
295.886	585.2
296.276	579.2
296.666	567.8
297.056	575.3
297.446	569
297.836	592.5
298.227	578.4
298.617	575.3
299.008	590.8
299.398	571.6
299.789	575.5
300.179	583.1
300.57	590.2
300.961	567.7
301.352	580.7
301.742	584.6
302.133	575.4
302.524	575.6
302.915	581.7
303.307	570.3
303.698	586.3
304.089	579.8
304.48	576.4
304.872	581.6
305.263	582.9
305.655	570.3
306.046	580.8
306.438	581
306.829	570.9
307.221	588.6
307.613	582.3
308.005	585.3
308.397	590.1
308.789	600.6
309.181	594.1
309.573	596.7
309.965	588.3
310.357	575.6
310.749	579.4
311.142	569.9
311.534	573.6
311.926	581.4
312.319	574.2
312.711	572.4
313.104	586.7
313.497	577
313.889	613.1
314.282	596.3
314.675	604.1
315.068	586.4
315.461	587.6
315.854	608.9
316.247	585.2
316.64	574
317.033	584.5
317.405	586.6
317.798	573.8
318.192	584.5
318.585	574.2
318.979	581.6
319.372	577.1
319.766	579
320.16	587.2
320.553	587.7
320.947	595.8
321.341	577.8
321.735	583
322.129	566.2
322.523	605.4
322.917	568.4
323.311	588.6
323.705	580.9
324.099	583
324.494	596.9
324.888	585.1
325.282	576.4
325.677	581.8
326.071	585
326.466	588.5
326.861	583.2
327.255	592.2
327.65	592.4
328.045	593.1
328.44	580.7
328.835	583.4
329.23	578.2
329.625	600.3
330.02	570.9
330.415	600.1
330.81	578.8
331.206	583.6
331.601	573.3
331.996	585
332.37	585.6
332.766	570.2
333.161	597.7
333.557	578.1
333.953	578.1
334.348	891.3
334.744	584.7
335.14	578.1
335.536	574.8
335.932	596.4
336.328	575.8
336.724	587.5
337.12	580.2
337.516	582.5
337.913	573.6
338.309	592.3
338.705	571
339.102	589.3
339.498	576.1
339.895	596.4
340.291	575.2
340.688	582.9
341.085	572.6
341.481	580.3
341.878	580.8
342.275	594.6
342.672	570.2
343.069	571.6
343.466	562
343.842	584.6
344.239	572
344.636	574
345.033	570.5
345.431	565.8
345.828	576.5
346.225	572
346.623	579
347.02	576.1
347.418	581.4
347.816	588.2
348.213	568.4
348.611	580.8
349.009	568.2
349.407	583.6
349.805	565.1
350.203	566.1
350.601	585.6
350.999	567.6
351.397	566.2
351.795	574.6
352.193	576.1
352.57	581
352.969	582.2
353.367	567.8
353.766	567
354.164	570.4
354.563	584.4
354.961	575.9
355.36	572.2
355.759	572.9
356.158	558.4
356.557	565.6
356.956	562.5
357.355	565.5
357.754	577.7
358.153	579.1
358.552	592.3
358.951	570.9
359.35	583.1
359.75	566.8
360.149	564.4
360.527	558.2
360.926	556.3
361.326	574.2
361.726	573.2
362.125	566.2
362.525	579.9
362.925	565.8
363.325	578
363.724	573.4
364.124	568.9
364.524	565.4
364.924	571
365.324	579.2
365.725	559.8
366.125	578.9
366.525	569.6
366.904	566.3
367.304	554.4
367.705	589.3
368.105	579.9
368.506	567.7
368.906	568.5
369.307	568.5
369.708	571.2
370.108	563.3
370.509	579.6
370.91	563.7
371.311	572.4
371.712	576.4
372.113	567.1
372.514	559.6
372.894	572.7
373.295	563.1
373.696	577.1
374.097	576.1
374.499	601.1
374.9	573.8
375.301	558.2
375.703	574.3
376.105	562.4
376.506	572.5
376.908	572.9
377.309	576.3
377.711	568
378.113	567.7
378.493	571.8
378.895	568.4
379.297	578.1
379.699	556.5
380.102	575.5
380.504	566.7
380.906	566
381.308	590.9
381.71	565.5
382.113	578.5
382.515	573.2
382.918	573.2
383.299	569.9
383.701	577.2
384.104	565
384.507	549.4
384.909	566.2
385.312	556.8
385.715	564.4
386.118	569.9
386.521	560.3
386.924	578.4
387.327	563.3
387.709	557.3
388.112	556.8
388.515	564.6
388.918	568.3
389.322	574.9
389.725	562.4
390.129	585.8
390.532	577.7
390.936	571.5
391.339	565.7
391.743	570.1
392.125	563.2
392.529	579.5
392.933	582.3
393.337	570.3
393.74	565.9
394.144	572.9
394.548	567
394.953	569.3
395.357	574
395.761	564.8
396.144	570.8
396.548	566.8
396.952	567.8
397.357	571.4
397.761	566.8
398.166	565
398.57	573.3
398.975	556.9
399.379	567
399.763	612.6
400.168	568.2
400.572	568.4
400.977	571.3
401.382	591.1
401.787	574.1
402.192	590
402.597	585.1
403.002	558.4
403.386	576.7
403.791	585.2
404.197	565.2
404.602	569.2
405.007	571.4
405.413	564.7
405.818	565.8
406.224	561.2
406.608	564
407.014	557.3
407.42	578.8
407.825	566.3
408.231	576.1
408.637	573.9
409.043	578.2
409.449	567.2
409.834	562.2
410.24	569.9
410.646	576.2
411.052	572.4
411.458	572.6
411.865	584.2
412.271	577
412.677	573.1
413.062	572.6
413.469	556.5
413.875	594.8
414.282	580.3
414.689	572
415.095	577
415.502	563.5
415.888	572.7
416.294	559.7
416.701	608.8
417.108	565.2
417.515	578.5
417.923	572.7
418.33	591.6
418.715	578.7
419.123	569.9
419.53	566.8
419.937	573.2
420.345	586.6
420.752	567.6
421.16	586.7
421.546	568.7
421.953	577.8
422.361	569.4
422.769	569.1
423.177	559.8
423.585	593.2
423.992	588
424.379	579.4
424.787	584.7
425.195	593
425.603	574.4
426.011	585
426.419	582.5
426.806	572
427.214	570.2
427.623	583.9
428.031	593.7
428.44	573.7
428.848	585.9
429.235	590.2
429.644	579.5
430.053	575.6
430.461	586.2
430.87	606.2
431.279	590.4
431.666	571.9
432.075	581.6
432.484	589.9
432.893	581.8
433.302	608.4
433.711	637.7
434.099	601.6
434.508	597.6
434.918	600.2
435.327	622.7
435.737	627.1
436.125	631.5
436.534	635.8
436.944	644
437.353	655.1
437.763	678.8
438.173	665.6
438.561	686.1
438.971	673.6
439.381	687.4
439.791	706
440.201	695.1
440.589	728.5
440.999	731.4
441.409	734.8
441.819	735
442.23	767
442.619	773.5
443.029	771.1
443.439	782
443.85	797.2
444.26	814.8
444.649	814.9
445.06	811.5
445.471	815.8
445.881	825.3
446.292	845.6
446.682	856.5
447.092	824.8
447.503	898.9
447.914	858.8
448.325	872.5
448.715	869.5
449.126	860.2
449.537	877.1
449.948	874.2
450.338	885.5
450.75	887.3
451.161	886.4
451.572	895.1
451.984	885.2
452.374	883.2
452.786	902.9
453.197	912.1
453.609	921.2
453.999	897.9
454.411	906.1
454.823	917.8
455.235	912.3
455.647	910.2
456.037	924.9
456.449	902.4
456.862	912.3
457.274	928.5
457.665	919.3
458.077	923.4
458.489	926.6
458.902	926.5
459.293	936.3
459.705	924.5
460.118	916.7
460.53	930.3
460.921	927.7
461.334	934.7
461.747	923.2
462.16	942
462.551	939.7
462.964	926.9
463.377	903.7
463.79	919.1
464.182	937.2
464.595	924.8
465.008	932.6
465.421	927.1
465.813	921.1
466.226	935.8
466.64	924.6
467.053	968.4
467.445	928.3
467.859	922.6
468.272	928.8
468.686	926.6
469.078	932.9
469.492	913.9
469.906	929.5
470.298	926.7
470.712	914.9
471.126	941.4
471.54	913.5
471.933	904.4
472.347	919.1
472.761	901.6
473.175	905.5
473.568	903.4
473.982	896.3
474.397	901.5
474.79	903
475.204	906.8
475.619	904.9
476.033	906.2
476.426	903.8
476.841	885.8
477.256	925
477.649	892.1
478.064	892.4
478.479	877.9
478.872	882.5
479.287	871.3
479.702	868.5
480.118	877.2
480.511	885.8
480.927	873.9
481.342	880.1
481.736	878.1
482.151	870.2
482.566	872.7
482.96	881.7
483.376	881.8
483.792	862
484.186	873.1
484.602	868.9
485.017	863.8
485.412	863.3
485.827	867.5
486.243	866
486.638	884.9
487.054	865.2
487.47	872.1
487.865	856.1
488.281	847.3
488.697	839.3
489.092	853.9
489.508	838.4
489.925	852.7
490.32	842.2
490.736	846
491.153	845.1
491.548	843.6
491.964	844.6
492.381	833.3
492.776	840.3
493.193	831.1
493.61	834.8
494.006	829.6
494.422	829.8
494.84	820.2
495.235	832
495.652	820.2
496.069	821.4
496.465	811.6
496.883	808.5
497.3	835.4
497.696	795.5
498.113	812.8
498.509	797.1
498.927	787.6
499.344	791.6
499.741	793
500.158	810.2
500.576	807.4
500.973	798.9
501.39	779.4
501.787	772.5
502.205	781.2
502.623	784.7
503.02	768.1
503.438	776.6
503.856	779.9
504.253	782.5
504.671	777.1
505.068	770.9
505.486	765.8
505.905	781.8
506.302	768.5
506.72	777.5
507.118	757.7
507.536	759.3
507.955	755.8
508.352	769.4
508.771	766.6
509.169	760.3
509.587	746
510.006	745.4
510.404	740.1
510.823	738
511.221	737.9
511.64	735.2
512.038	754.3
512.457	740.9
512.877	735.6
513.275	731.5
513.694	725.9
514.092	734.6
514.512	730.1
514.91	726.7
515.33	719.7
515.749	718.3
516.148	722.5
516.568	718.9
516.966	719.9
517.386	710.5
517.785	720.6
518.205	717.3
518.603	706.9
519.024	700.3
519.444	710.7
519.843	712.9
520.263	711.7
520.662	707.3
521.082	701
521.481	698.7
521.902	702.3
522.301	704.9
522.722	701.1
523.121	698.6
523.542	689.8
523.963	691.1
524.362	695.5
524.783	693.3
525.183	688.7
525.604	687.1
526.003	681.5
526.425	680.2
526.824	691.1
527.246	692.1
527.646	692.1
528.067	676.4
528.467	679.9
528.888	684.9
529.289	671.5
529.71	674.8
530.11	670.1
530.532	669
530.932	661.1
531.354	663.7
531.755	698.4
532.176	669.9
532.577	662.9
532.999	666.6
533.4	657.3
533.822	674.1
534.223	652.6
534.645	658
535.046	650.3
535.468	654.2
535.869	666.5
536.292	646
536.693	642
537.115	651.8
537.516	641.5
537.939	647.9
538.34	665.9
538.742	659.3
539.165	647
539.566	648.9
539.989	639.5
540.391	639.3
540.814	646.2
541.216	640.5
541.639	647.2
542.041	645.9
542.464	637.9
542.866	632.8
543.268	633.3
543.691	636.9
544.093	637.8
544.517	653.7
544.919	619.4
545.343	647.8
545.745	628
546.147	634.4
546.571	630.1
546.974	626.3
547.398	631.4
547.8	641.4
548.224	624.7
548.627	623
549.03	626.6
549.454	616.2
549.857	612.7
550.281	615.7
550.684	620.2
551.087	631.1
551.512	621.6
551.915	626
552.34	617.8
552.743	616.8
553.146	615.9
553.571	622.2
553.975	631.9
554.399	611.7
554.803	664.4
555.207	607.4
555.632	607.5
556.036	615.7
556.461	608.7
556.865	608.7
557.268	604.1
557.694	612.4
558.098	613.3
558.502	619.6
558.927	608
559.332	602.3
559.736	604.4
560.162	617.1
560.566	609.6
560.992	610.7
561.396	604.8
561.801	603
562.227	604.8
562.631	604.3
563.036	603.4
563.462	612.5
563.867	605.5
564.272	592.7
564.698	605.3
565.103	590.5
565.508	617
565.935	601
566.34	596.3
566.745	612.7
567.172	594.7
567.577	614.1
567.982	608
568.409	600.6
568.815	592.3
569.22	593.6
569.626	598.8
570.053	584.2
570.459	592.1
570.865	596.3
571.292	601.3
571.698	597
572.104	583
572.531	586.2
572.937	603.2
573.343	590.3
573.75	591.2
574.177	587.9
574.583	595.7
574.99	587.3
575.396	594.5
575.824	584.3
576.231	593.5
576.637	583
577.065	607.6
577.472	583.9
577.879	587.3
578.286	597.8
578.714	579.5
579.121	587.3
579.528	593.6
579.935	591.3
580.364	584
580.771	567.9
581.178	577
581.585	585.4
582.014	590.1
582.421	578.4
582.829	578.4
583.236	590.3
583.644	578.4
584.073	577.8
584.481	578.5
584.889	571.6
585.296	584.7
585.726	585.2
586.134	566.9
586.542	575.1
586.95	595.8
587.358	571
587.787	573.6
588.196	571.7
588.604	571.6
589.012	572
589.421	573.4
589.851	579.3
590.259	577.2
590.668	572
591.076	610.3
591.485	574
591.894	573.4
592.324	586.7
592.733	590.7
593.142	566.5
593.551	570.5
593.96	600.4
594.369	565.5
594.8	563.5
595.209	569.3
595.618	558.7
596.028	566.9
596.437	561.2
596.847	567.6
597.256	567.9
597.687	572.5
598.097	567.7
598.507	556.3
598.917	571.5
599.327	576.2
599.736	568.5
600.146	577.5
600.556	567.2
600.988	582.3
601.398	566
601.808	578.3
602.219	556.4
602.629	566.9
603.039	570.1
603.45	584.2
603.86	565.3
604.271	581.1
604.703	568
605.114	570.6
605.525	566.3
605.935	570.1
606.346	584.5
606.757	568.7
607.168	564.8
607.579	561.7
607.99	572
608.402	562.6
608.813	563.6
609.224	563.7
609.636	555.2
610.047	555
610.48	566
610.892	568.8
611.303	574.8
611.715	556.8
612.127	554.5
612.539	559
612.95	560.9
613.362	551
613.774	550.4
614.186	556.9
614.599	555.9
615.011	568.2
615.423	558.1
615.835	557.1
616.248	552.1
616.66	566.3
617.073	549.2
617.485	561.5
617.898	571.3
618.311	567
618.723	561
619.136	591
619.549	574.4
619.962	583
620.375	560.9
620.788	568.8
621.201	556.4
621.614	568.8
622.028	557.2
622.441	565.1
622.854	576.9
623.268	551.9
623.681	561.1
624.095	563.8
624.509	570.5
624.922	564.2
625.336	555
625.728	560.5
626.142	567.2
626.556	576.8
626.97	562.3
627.384	557.4
627.799	561.6
628.213	568.8
628.627	554.8
629.041	556.3
629.456	560
629.87	558.6
630.285	563.1
630.699	566.5
631.093	550.1
631.507	558.5
631.922	563.7
632.337	566.1
632.752	546.3
633.167	555.1
633.582	549.5
633.997	555.3
634.412	546.9
634.806	558.2
635.221	545.4
635.637	563.3
636.052	543.2
636.468	558.5
636.883	570
637.299	552.1
637.715	544.3
638.109	552.2
638.525	545.9
638.941	566.5
639.357	554.4
639.773	564.5
640.189	549.3
640.584	552.5
641	550.9
641.416	542.6
641.832	554.1
642.249	551.4
642.665	558.5
643.06	562.3
643.477	562.4
643.894	540.8
644.31	549.3
644.727	560.2
645.123	551.8
645.54	544.4
645.957	555.1
646.374	554.6
646.77	554.9
647.187	584.9
647.604	553.7
648.021	546
648.439	547.1
648.835	556.6
649.252	555.3
649.67	552.1
650.088	555.4
650.484	553.8
650.902	560.6
651.32	558.7
651.738	555.5
652.134	557.3
652.552	567.7
652.971	558
653.389	550.4
653.786	564.9
654.204	556
654.622	547.2
655.019	554.6
655.438	554.5
655.857	555.5
656.275	559.6
656.673	546.6
657.091	622.2
657.51	548.8
657.908	561.7
658.327	566.1
658.746	543
659.144	553.9
659.563	567
659.982	553.5
660.38	543.8
660.8	554.2
661.219	567.2
661.617	556.5
662.037	547.8
662.457	561.7
662.855	542.2
663.275	582.4
663.695	552.1
664.094	545.7
664.514	553.5
664.934	545.8
665.333	557.8
665.753	543.6
666.152	544.4
666.572	549.6
666.993	564.6
667.392	547.7
667.812	547.7
668.212	552.5
668.632	555.8
669.053	550.5
669.453	555.2
669.874	553.8
670.273	556.9
670.694	542.8
671.116	564.1
671.515	563.6
671.937	548
672.337	548.2
672.758	547.8
673.158	559
673.58	542.4
673.98	553.6
674.402	566.9
674.824	554.8
675.224	547.8
675.646	545.8
676.047	552.3
676.469	547.7
676.869	557.7
677.292	552.5
677.693	549.5
678.115	546.7
678.516	554
678.939	556.6
679.34	558.5
679.762	564.4
680.164	557.7
680.586	545.7
680.988	556.6
681.411	571.2
681.812	543
682.236	540.6
682.637	543.2
683.061	537.5
683.462	549.5
683.864	548.7
684.288	555.7
684.69	537.5
685.114	560.5
685.516	557.7
685.94	541.7
686.342	560.4
686.766	546.3
687.168	544.8
687.571	565.6
687.995	556
688.398	544.3
688.822	546.6
689.225	566.4
689.628	569.1
690.052	543.3
690.456	552.9
690.88	549.2
691.284	541.2
691.687	552.8
692.112	540.7
692.515	539.7
692.919	550.7
693.344	554.9
693.747	541
694.173	544.6
694.577	558.7
694.98	548.2
695.406	546.1
695.81	544.5
696.214	552.4
696.64	554.3
697.044	550.6
697.448	557.9
697.874	547.9
698.279	549.2
698.684	539.9
699.11	543.8
699.514	546.1
699.919	551.4
700.324	541.1
700.75	547.1
701.156	545.8
701.561	558.7
701.987	550
702.393	561.9
702.798	562
703.203	550.8
703.63	547.3
704.036	547
704.442	547.6
704.847	542.9
705.274	547.9
705.68	555.4
706.086	558.3
706.492	540.9
706.92	548.3
707.326	557
707.732	538.9
708.139	540.8
708.545	536.1
708.973	542.7
709.38	547
709.786	539.8
710.193	556.2
710.6	545.1
711.028	543.3
711.435	548.5
711.842	549
712.249	546
712.656	541.4
713.064	559.6
713.492	538.7
713.9	542.2
714.307	550.2
714.715	548.6
715.123	549.8
715.53	553
715.938	556.8
716.367	545.9
716.775	549.1
717.184	543.6
717.592	552
718	559.5
718.408	577.1
718.816	588.3
719.225	553.7
719.633	547.3
720.042	538.6
720.472	545.5
720.881	568.9
721.29	550.5
721.699	540.1
722.108	553.2
722.517	547
722.926	537.1
723.335	558.6
723.744	546.3
724.154	547.5
724.563	546.8
724.973	551.8
725.382	546
725.792	543.2
726.202	541.6
726.612	547.7
727.022	544
727.432	541.4
779.813	542
780.223	584.1
780.634	540.9
781.044	538.5
781.454	546.9
781.865	556.9
782.276	542
782.686	550.1
783.097	540.6
783.508	547.9
783.919	546.8
784.33	555
784.741	555.4
785.152	539.5
785.563	532.2
785.974	537.3
786.386	549.5
786.776	545.4
787.188	539
787.599	539
788.011	549.9
788.423	547.8
788.835	542.4
789.247	535.2
789.659	539.9
790.071	541.4
790.483	585.5
790.874	542.7
791.286	554.9
791.699	536.3
792.111	544.1
792.524	544.6
792.937	549.6
793.349	536.7
793.741	541.8
794.154	543.1
794.567	558.7
794.98	537.8
795.393	531.5
795.785	563
796.198	540.2
796.612	543.4
797.026	539.3
797.439	530.7
797.831	545.6
798.245	532.1
798.659	547
799.073	544.2
799.487	536.6
799.88	544.9
800.294	543.5
800.708	542
801.123	547.6
801.516	553.4
801.93	538
802.345	529.5
802.76	545.8
803.153	555.8
803.568	561.6
803.983	552.9
804.377	546.7
804.792	535.7
805.207	530.1
805.601	546.4
806.016	574.2
806.432	540.2
806.826	572.6
807.242	556.1
807.658	550
808.052	538
808.468	541.3
808.884	537.3
809.279	544.1
809.695	550.8
810.111	564.9
810.506	547.7
810.922	562.4
811.339	543.3
811.734	552.8
812.151	540.2
812.546	540.9
812.963	541
813.38	545.5
813.776	541.1
814.193	562.7
814.589	540.7
815.006	542.4
815.402	537.7
815.82	539.9
816.237	542.8
816.633	545.6
817.051	535.5
817.448	550.6
817.866	536.8
818.262	559.2
818.68	541.5
819.077	543.7
819.495	543.8
819.892	582.1
820.311	539.5
820.708	543.9
821.127	534.6
821.524	558.2
821.943	544.2
822.34	557.7
822.759	543.2
823.157	545.2
823.576	556
823.974	554
824.393	553.8
824.791	542.4
825.189	535.6
825.609	540.5
826.007	544.6
826.427	530.3
826.826	543.8
827.246	543
827.644	536
828.043	551.8
828.463	540.4
828.862	546.5
829.261	546.2
829.682	537.4
830.081	546
830.502	537.6
830.901	538.9
831.301	539.6
831.722	534.7
832.121	548.5
832.521	539.6
832.943	544.3
833.342	543.9
833.742	540.3
834.164	540.8
834.564	535.7
834.965	539.9
835.386	535.4
835.787	546.6
836.188	539
836.588	539.6
837.01	537.1
837.411	538
837.812	551.8
838.213	546
838.636	539.6
839.037	606.1
839.438	540.2
839.84	547.7
840.263	549.4
840.664	546.7
841.066	540.8
841.468	542
841.891	542.4
842.293	553.5
842.695	546.3
843.098	545.2
843.5	540.7
843.902	547.9
844.326	549.3
844.729	543.7
845.131	550.7
845.534	544.4
845.937	554.9
846.34	558
846.764	534.2
847.167	547
847.571	538.4
847.974	544.3
848.377	543.4
