#lambda/nm	C1
208.295	469
208.67	440.1
209.045	401.9
209.419	404.7
209.794	588.1
210.169	565.3
210.544	685.6
210.919	585.2
211.295	575.6
211.67	583.8
212.045	578.3
212.421	579.8
212.796	617
213.172	577
213.547	577
213.923	577.5
214.299	574.2
214.675	588.5
215.051	584.6
215.427	582.3
215.803	601
216.179	586.3
216.555	579.5
216.932	588.3
217.308	580.8
217.684	581
218.061	586
218.438	582.6
218.814	576.9
219.191	580
219.568	568.8
219.945	577.3
220.322	590.6
220.699	586.9
221.076	586.8
221.453	589.9
221.83	578.7
222.208	580
222.585	574.4
222.962	587.8
223.34	588.2
223.717	581.9
224.095	574.7
224.473	580.9
224.851	573.7
225.229	568.6
225.607	600.9
225.985	572.4
226.363	584.1
226.741	582.5
227.119	580.1
227.497	596.7
227.876	568.8
228.254	590
228.633	584.1
229.011	584.6
229.39	587.5
229.769	584
230.148	591.2
230.527	600.1
230.905	584.7
231.284	583.3
231.664	578.9
232.043	596.8
232.422	591.8
232.801	581.9
233.181	586.6
233.56	580.2
233.94	578.9
234.319	573.7
234.699	577
235.079	618.3
235.458	619.8
235.838	594.9
236.218	573.7
236.598	568.9
236.978	576.6
237.358	579.1
237.738	577.8
238.119	585.5
238.499	568
238.88	581.8
239.26	596.2
239.641	570.9
240.021	577.1
240.402	586.9
240.783	575.9
241.163	577.9
241.544	578.8
241.925	585.4
242.306	590.8
242.687	573.5
243.069	586.9
243.45	595.8
243.831	571.1
244.212	576.1
244.594	613.6
244.975	593.6
245.357	594.7
245.739	575.5
246.12	580.4
246.502	599.4
246.884	573.8
247.266	582.1
247.648	585.6
248.03	603.8
248.412	588
248.794	587.4
249.176	580.3
249.559	594.8
249.941	571.1
250.323	579.9
250.706	575
251.089	576.7
251.471	585.3
251.854	587.7
252.237	584.7
252.62	589.8
253.002	578.7
253.385	584.2
253.769	596
254.152	580.7
254.535	588.9
254.918	572.9
255.301	579.1
255.685	583.3
256.068	570.5
256.452	600.3
256.835	582.6
257.219	587.9
257.603	589.7
257.986	574.8
258.37	586.1
258.754	572.4
259.138	578.5
259.522	588.7
259.906	576.6
260.29	583.3
260.675	579.1
261.059	582.9
261.443	574.5
261.828	587
262.212	587.2
262.597	571.1
262.981	577.7
263.366	587.8
263.751	580.8
264.136	580.3
264.521	577.5
264.906	575.2
265.291	594.2
265.676	579.6
266.061	593.8
266.446	602.7
266.831	584.2
267.217	599.6
267.602	583.8
267.987	577.9
268.373	578.4
268.759	586.2
269.144	588.1
269.53	580.6
269.916	578.7
270.302	578.5
270.688	582.4
271.074	585.5
271.46	597.7
271.846	612.6
272.232	579.4
272.618	576.7
273.004	579
273.391	595.1
273.777	595.5
274.164	581.5
274.55	593.4
274.937	581.5
275.324	585.9
275.71	586.9
276.097	588.5
276.484	572.1
276.871	581.5
277.258	587
277.645	570.3
278.032	579.6
278.419	575.1
278.807	588.8
279.194	573.1
279.581	576.6
279.969	586.3
280.356	580.6
280.744	580.3
281.131	608.4
281.519	590.9
281.907	579.6
282.295	576.8
282.682	592.7
283.07	587.7
283.458	592
283.846	590.6
284.235	590.5
284.623	588.8
285.011	578.3
285.399	583.2
285.788	583.6
286.176	574
286.565	589.6
286.953	572.5
287.342	582.4
287.731	575.2
288.119	574.9
288.508	579.9
288.897	583.2
289.286	564.6
289.675	581.8
290.064	594.5
290.453	575
290.821	577.8
291.21	596.4
291.599	576.1
291.989	579.1
292.378	584.6
292.768	603.5
293.157	585.2
293.547	592.7
293.936	581.2
294.326	577.4
294.716	588.1
295.106	584.5
295.496	589.2
295.886	592.1
296.276	580.7
296.666	580.2
297.056	575.6
297.446	569.6
297.836	598.1
298.227	582.2
298.617	581.8
299.008	594.7
299.398	581.5
299.789	581.1
300.179	586
300.57	598
300.961	580.4
301.352	580
301.742	592.9
302.133	580.9
302.524	584
302.915	588.2
303.307	579.5
303.698	597.6
304.089	589.2
304.48	579.9
304.872	585.3
305.263	584.7
305.655	577
306.046	590.5
306.438	585.4
306.829	577.4
307.221	594.4
307.613	588.1
308.005	591.2
308.397	594.8
308.789	603.2
309.181	606.8
309.573	601.7
309.965	592.7
310.357	579.6
310.749	587.2
311.142	577.9
311.534	580.2
311.926	592
312.319	582.1
312.711	577.6
313.104	594.6
313.497	578.6
313.889	616.1
314.282	602.8
314.675	607.2
315.068	591.5
315.461	590
315.854	612.6
316.247	591.1
316.64	585.3
317.033	585.7
317.405	593.7
317.798	583.1
318.192	586
318.585	576.6
318.979	587.3
319.372	574.4
319.766	584.6
320.16	596.7
320.553	597.1
320.947	602.8
321.341	584.4
321.735	576.1
322.129	572.7
322.523	610.6
322.917	574.3
323.311	592.3
323.705	584.6
324.099	588.1
324.494	600.8
324.888	594.9
325.282	584
325.677	586.7
326.071	592.2
326.466	598.3
326.861	585.9
327.255	600
327.65	598.9
328.045	598.6
328.44	586.3
328.835	588.4
329.23	577.5
329.625	604.7
330.02	582.1
330.415	605.1
330.81	593.4
331.206	592.1
331.601	579.3
331.996	588.1
332.37	604.1
332.766	579.9
333.161	611.6
333.557	584.8
333.953	584.4
334.348	1016.2
334.744	592.3
335.14	577.9
335.536	576.7
335.932	592.8
336.328	588.4
336.724	595.3
337.12	591.8
337.516	584.6
337.913	583.1
338.309	593.7
338.705	587.1
339.102	589.4
339.498	581.4
339.895	601.3
340.291	581
340.688	588.6
341.085	581.5
341.481	581.3
341.878	585.8
342.275	606.8
342.672	578.7
343.069	580.9
343.466	570.2
343.842	590.1
344.239	580.4
344.636	588.9
345.033	573.3
345.431	577.6
345.828	584
346.225	574
346.623	589.8
347.02	583.6
347.418	589
347.816	593.9
348.213	572.4
348.611	588.4
349.009	574.1
349.407	585.7
349.805	577
350.203	568
350.601	588.3
350.999	573.9
351.397	573.8
351.795	576.9
352.193	583.6
352.57	582.6
352.969	588.3
353.367	566.7
353.766	571.7
354.164	578.8
354.563	584.8
354.961	576.3
355.36	576.3
355.759	577.6
356.158	579.6
356.557	570.1
356.956	571.9
357.355	567.7
357.754	582.3
358.153	582.8
358.552	605.3
358.951	586
359.35	587.6
359.75	575.4
360.149	564.1
360.527	570.7
360.926	566.4
361.326	578.6
361.726	577.2
362.125	573.1
362.525	584
362.925	582
363.325	583.4
363.724	578.8
364.124	565.7
364.524	568.8
364.924	576.6
365.324	584.8
365.725	559.2
366.125	582.6
366.525	579.6
366.904	569.8
367.304	560.1
367.705	593.9
368.105	587.2
368.506	580.1
368.906	574.8
369.307	574.3
369.708	585.5
370.108	570.6
370.509	585.8
370.91	566
371.311	580.4
371.712	580.6
372.113	576.9
372.514	564.5
372.894	577
373.295	572.8
373.696	578.4
374.097	585.6
374.499	601.7
374.9	577.4
375.301	568.2
375.703	581.6
376.105	563.7
376.506	580.4
376.908	578.4
377.309	580.4
377.711	578.4
378.113	567.2
378.493	576.1
378.895	569.1
379.297	580.8
379.699	564.9
380.102	584.2
380.504	577.2
380.906	569.7
381.308	597.8
381.71	577
382.113	580.1
382.515	570.9
382.918	574.2
383.299	573
383.701	583.6
384.104	581.1
384.507	562
384.909	567
385.312	561.1
385.715	565.9
386.118	571.9
386.521	566.3
386.924	582.3
387.327	565.5
387.709	561.1
388.112	558.3
388.515	571.5
388.918	572.3
389.322	579.7
389.725	570.1
390.129	593.4
390.532	578
390.936	570.3
391.339	571.1
391.743	575.1
392.125	567.8
392.529	585.2
392.933	591.1
393.337	575.2
393.74	572.9
394.144	570.4
394.548	566.5
394.953	571.4
395.357	585
395.761	567.2
396.144	579.4
396.548	574.9
396.952	580.9
397.357	580.2
397.761	570.6
398.166	570.3
398.57	569.8
398.975	569.4
399.379	580.5
399.763	617.7
400.168	577.7
400.572	569.7
400.977	577.5
401.382	593.8
401.787	583.8
402.192	593.9
402.597	590.7
403.002	563.8
403.386	587.5
403.791	593
404.197	572.6
404.602	573.3
405.007	574.5
405.413	574.1
405.818	567
406.224	568.9
406.608	567.6
407.014	565.4
407.42	591.4
407.825	569.6
408.231	586.2
408.637	578.6
409.043	589.2
409.449	569.9
409.834	564.9
410.24	571
410.646	588.9
411.052	584.5
411.458	582
411.865	584.3
412.271	589.6
412.677	569.9
413.062	578.7
413.469	565.1
413.875	596.7
414.282	587.7
414.689	577.2
415.095	576.9
415.502	570.6
415.888	579.2
416.294	566.2
416.701	617.6
417.108	572.3
417.515	588.2
417.923	571.4
418.33	598.5
418.715	581.9
419.123	577.4
419.53	575.4
419.937	582.3
420.345	591.5
420.752	575.7
421.16	592.8
421.546	576.8
421.953	587.4
422.361	567.1
422.769	577.3
423.177	576.5
423.585	598.7
423.992	595.2
424.379	590.3
424.787	587.9
425.195	603.3
425.603	583.9
426.011	585.7
426.419	599
426.806	578.3
427.214	578.5
427.623	588.8
428.031	598.9
428.44	583
428.848	594
429.235	598.1
429.644	583.6
430.053	581.8
430.461	599.3
430.87	615
431.279	598.8
431.666	583.7
432.075	596.5
432.484	605.7
432.893	604.8
433.302	629.2
433.711	658.7
434.099	634.8
434.508	635.5
434.918	642.5
435.327	661.2
435.737	672.7
436.125	680
436.534	701.8
436.944	710.1
437.353	731.2
437.763	768.3
438.173	752.9
438.561	785.7
438.971	785.2
439.381	811.5
439.791	836.4
440.201	822.9
440.589	860.1
440.999	880.1
441.409	893.8
441.819	897.5
442.23	941.7
442.619	952.6
443.029	958.6
443.439	986.4
443.85	1008
444.26	1022.5
444.649	1023.2
445.06	1042.9
445.471	1046
445.881	1062.1
446.292	1084.7
446.682	1103.4
447.092	1080.7
447.503	1155
447.914	1118.8
448.325	1122
448.715	1138.7
449.126	1143.3
449.537	1158.3
449.948	1163
450.338	1171.5
450.75	1183.6
451.161	1184.6
451.572	1188
451.984	1190.2
452.374	1190.9
452.786	1200.1
453.197	1209.6
453.609	1228.8
453.999	1212.2
454.411	1220.7
454.823	1232.3
455.235	1236.8
455.647	1235.4
456.037	1227
456.449	1223.7
456.862	1239.2
457.274	1242.4
457.665	1227
458.077	1239
458.489	1248.6
458.902	1246.1
459.293	1263
459.705	1264.2
460.118	1259.7
460.53	1266.4
460.921	1275.5
461.334	1267.6
461.747	1267.7
462.16	1276.3
462.551	1274.9
462.964	1276.4
463.377	1251.8
463.79	1262.7
464.182	1269.4
464.595	1254.1
465.008	1263.2
465.421	1268.1
465.813	1254.7
466.226	1255.1
466.64	1255.3
467.053	1292.7
467.445	1267.4
467.859	1248.8
468.272	1247.5
468.686	1256.5
469.078	1240.4
469.492	1228.9
469.906	1248
470.298	1246.9
470.712	1225.4
471.126	1266.3
471.54	1214.6
471.933	1214.2
472.347	1219.1
472.761	1213.7
473.175	1207.8
473.568	1214.7
473.982	1209.2
474.397	1204.4
474.79	1211.3
475.204	1211.8
475.619	1201.9
476.033	1200
476.426	1199.7
476.841	1186.5
477.256	1205.6
477.649	1184.7
478.064	1176.6
478.479	1177.1
478.872	1174.2
479.287	1168.9
479.702	1175.1
480.118	1181.8
480.511	1170.1
480.927	1162.5
481.342	1157
481.736	1162.5
482.151	1145.8
482.566	1164.8
482.96	1145.1
483.376	1162.3
483.792	1146.7
484.186	1156.6
484.602	1143.8
485.017	1135.3
485.412	1137.9
485.827	1143.5
486.243	1130.3
486.638	1156.4
487.054	1144.6
487.47	1140.7
487.865	1112.1
488.281	1115.2
488.697	1097.6
489.092	1102.6
489.508	1101.9
489.925	1105.3
490.32	1089.3
490.736	1088.3
491.153	1088.2
491.548	1084.2
491.964	1090.2
492.381	1069
492.776	1085.3
493.193	1060.5
493.61	1075.2
494.006	1059.7
494.422	1070.1
494.84	1051.4
495.235	1053.7
495.652	1048.2
496.069	1049
496.465	1027
496.883	1042.7
497.3	1055.3
497.696	1027
498.113	1029.9
498.509	1010.2
498.927	1012.6
499.344	1015.6
499.741	1013.1
500.158	1017.3
500.576	1012.6
500.973	1000.4
501.39	984.5
501.787	991.1
502.205	986.4
502.623	984.6
503.02	973.8
503.438	964.2
503.856	966
504.253	975.8
504.671	963.3
505.068	962.9
505.486	966.9
505.905	986.5
506.302	949.5
506.72	959.5
507.118	934
507.536	941.9
507.955	935.8
508.352	934.9
508.771	942.3
509.169	928.4
509.587	914.8
510.006	913
510.404	901.7
510.823	900.3
511.221	904.1
511.64	903.1
512.038	913.1
512.457	903.8
512.877	904.3
513.275	893
513.694	887.5
514.092	885.1
514.512	896.3
514.91	878.9
515.33	874.9
515.749	867.5
516.148	870
516.568	872.4
516.966	871.5
517.386	860.9
517.785	857.3
518.205	853.1
518.603	854.4
519.024	845.6
519.444	845.1
519.843	857.2
520.263	849.2
520.662	846.3
521.082	831
521.481	837.2
521.902	830
522.301	831.3
522.722	828.9
523.121	824.1
523.542	810
523.963	816
524.362	816.7
524.783	813.4
525.183	804.5
525.604	810.7
526.003	798
526.425	793.7
526.824	801.5
527.246	804.6
527.646	800
528.067	795.1
528.467	785.2
528.888	785.9
529.289	783.4
529.71	786.4
530.11	778
530.532	776.6
530.932	762.3
531.354	760
531.755	796.1
532.176	767.4
532.577	759.1
532.999	756.9
533.4	753.3
533.822	758.8
534.223	746
534.645	744.9
535.046	737.5
535.468	742.5
535.869	753.5
536.292	727.6
536.693	740.3
537.115	737.6
537.516	735.9
537.939	724.4
538.34	753.3
538.742	738.9
539.165	736.3
539.566	731.5
539.989	719.8
540.391	717.2
540.814	730.9
541.216	724.7
541.639	719.7
542.041	730
542.464	720.5
542.866	714.7
543.268	708.8
543.691	719.6
544.093	720.5
544.517	728.7
544.919	694.9
545.343	725.8
545.745	699.9
546.147	705.8
546.571	699
546.974	700.5
547.398	701.4
547.8	720.6
548.224	701.4
548.627	693.5
549.03	701.4
549.454	693.7
549.857	685.8
550.281	676.5
550.684	688.2
551.087	699.4
551.512	686.9
551.915	689.8
552.34	677.3
552.743	674.6
553.146	680.6
553.571	675.2
553.975	691.8
554.399	666.1
554.803	718.6
555.207	669.7
555.632	670.7
556.036	677.3
556.461	661
556.865	665.2
557.268	652.3
557.694	660.9
558.098	668.1
558.502	661.7
558.927	659.7
559.332	657.3
559.736	658.1
560.162	659.4
560.566	653.2
560.992	660
561.396	648.6
561.801	649.1
562.227	649.8
562.631	647.8
563.036	648.3
563.462	656.9
563.867	646.4
564.272	637.7
564.698	649.6
565.103	638.2
565.508	657.9
565.935	639
566.34	638.4
566.745	653.5
567.172	638.5
567.577	660.1
567.982	648.4
568.409	635.3
568.815	629.6
569.22	634.4
569.626	642.3
570.053	617.8
570.459	637.9
570.865	637.9
571.292	641.2
571.698	638.7
572.104	616.3
572.531	624.1
572.937	633.2
573.343	626.3
573.75	625.9
574.177	622.8
574.583	625
574.99	623.5
575.396	632.2
575.824	613.5
576.231	628.7
576.637	613
577.065	644.3
577.472	617.6
577.879	618
578.286	624.2
578.714	606.7
579.121	616.2
579.528	619.3
579.935	626.1
580.364	619.7
580.771	604.3
581.178	609.2
581.585	612.8
582.014	612.6
582.421	609.6
582.829	606
583.236	619.5
583.644	603
584.073	604.9
584.481	608.1
584.889	600.9
585.296	605.4
585.726	610.6
586.134	600.4
586.542	605
586.95	617
587.358	594.2
587.787	605.4
588.196	592.6
588.604	594.7
589.012	596.7
589.421	595
589.851	591.1
590.259	598.6
590.668	597.9
591.076	635.9
591.485	595.5
591.894	597.4
592.324	612.8
592.733	605.6
593.142	586.4
593.551	594.5
593.96	632.6
594.369	588.3
594.8	587.5
595.209	590.1
595.618	576.3
596.028	591.9
596.437	586.5
596.847	593.4
597.256	591.3
597.687	593.7
598.097	590.7
598.507	577.1
598.917	584.7
599.327	595.3
599.736	591.6
600.146	596.5
600.556	590.6
600.988	594.9
601.398	588.1
601.808	595
602.219	569.1
602.629	581.8
603.039	588
603.45	608.2
603.86	582.5
604.271	597.1
604.703	584
605.114	582.7
605.525	585.2
605.935	583
606.346	601.4
606.757	586.6
607.168	581.8
607.579	574.1
607.99	593.2
608.402	574.2
608.813	585.8
609.224	575.6
609.636	569.1
610.047	573.8
610.48	577.6
610.892	580.6
611.303	583.9
611.715	572.9
612.127	566.7
612.539	572.7
612.95	578.3
613.362	565.3
613.774	569.7
614.186	575.9
614.599	575.7
615.011	585.3
615.423	565.8
615.835	571.1
616.248	566.5
616.66	577.2
617.073	566.1
617.485	570.3
617.898	581.7
618.311	577.9
618.723	571.1
619.136	599.8
619.549	588.2
619.962	599.9
620.375	572.2
620.788	572.3
621.201	566
621.614	581.2
622.028	570.6
622.441	579.7
622.854	589.1
623.268	567.4
623.681	578.3
624.095	573
624.509	580.2
624.922	581.6
625.336	564.5
625.728	576.2
626.142	584.7
626.556	590
626.97	579.5
627.384	564.5
627.799	570.4
628.213	584
628.627	562.8
629.041	564.8
629.456	568.7
629.87	564.6
630.285	581
630.699	577.7
631.093	567.3
631.507	573.4
631.922	572.3
632.337	582.1
632.752	555.1
633.167	569
633.582	567.2
633.997	562.3
634.412	562.6
634.806	568.1
635.221	554.8
635.637	578
636.052	559.2
636.468	571.6
636.883	582.4
637.299	561.1
637.715	554.2
638.109	561.1
638.525	552.8
638.941	577.1
639.357	570.6
639.773	577.2
640.189	561
640.584	560.5
641	565.9
641.416	553.9
641.832	561.5
642.249	562.2
642.665	558.2
643.06	573.1
643.477	573.5
643.894	558.1
644.31	568.5
644.727	566
645.123	557.5
645.54	556.1
645.957	559.4
646.374	563.2
646.77	563.2
647.187	587.9
647.604	566.9
648.021	549.6
648.439	556.3
648.835	565.1
649.252	566.1
649.67	561.5
650.088	564.1
650.484	566.5
650.902	568.7
651.32	569.5
651.738	558.3
652.134	567.1
652.552	576.8
652.971	567.9
653.389	564.8
653.786	582.6
654.204	566.1
654.622	553.3
655.019	560.8
655.438	567.6
655.857	563.4
656.275	562.4
656.673	548.2
657.091	626.5
657.51	555.5
657.908	566
658.327	571.1
658.746	549.6
659.144	559.1
659.563	567.9
659.982	559.8
660.38	552.5
660.8	556.5
661.219	564.1
661.617	566
662.037	559
662.457	565.1
662.855	552.2
663.275	592
663.695	560.5
664.094	555.9
664.514	566.5
664.934	555.9
665.333	572.6
665.753	551.1
666.152	552.6
666.572	557.5
666.993	567.4
667.392	556.7
667.812	560.4
668.212	562
668.632	569.2
669.053	558.4
669.453	564.9
669.874	556
670.273	565.3
670.694	550.6
671.116	564
671.515	568.7
671.937	558.3
672.337	551.9
672.758	556.6
673.158	569.1
673.58	544
673.98	557.6
674.402	568.6
674.824	560.7
675.224	554.1
675.646	551.5
676.047	549.3
676.469	562
676.869	559.7
677.292	566.3
677.693	556.7
678.115	553.4
678.516	562.2
678.939	560.5
679.34	561.4
679.762	569.9
680.164	565.3
680.586	552
680.988	557.9
681.411	580.2
681.812	557.6
682.236	546.8
682.637	553.5
683.061	545.5
683.462	556
683.864	555.4
684.288	566.6
684.69	548.4
685.114	566.8
685.516	565.4
685.94	546.7
686.342	565.3
686.766	551.2
687.168	560.1
687.571	577.7
687.995	557.1
688.398	546.8
688.822	553.1
689.225	572.8
689.628	576.9
690.052	560.6
690.456	557.5
690.88	558.2
691.284	545.1
691.687	562.2
692.112	545.2
692.515	541.5
692.919	557
693.344	558.4
693.747	552.9
694.173	544.8
694.577	567.8
694.98	556.6
695.406	552.6
695.81	562.2
696.214	559
696.64	557.2
697.044	557.5
697.448	568.2
697.874	551.8
698.279	557.3
698.684	543.1
699.11	550.8
699.514	554.7
699.919	549.8
700.324	544.3
700.75	555.6
701.156	556
701.561	566.3
701.987	560
702.393	560.7
702.798	568.4
703.203	552.4
703.63	549.5
704.036	550.4
704.442	561
704.847	546.4
705.274	550.7
705.68	555.5
706.086	559.8
706.492	544.8
706.92	549.8
707.326	567.1
707.732	554.8
708.139	546.8
708.545	549.7
708.973	548.9
709.38	556.6
709.786	548.5
710.193	565.9
710.6	557.9
711.028	545.4
711.435	548.3
711.842	550.6
712.249	554.4
712.656	551.3
713.064	559.1
713.492	546.9
713.9	551.1
714.307	559.3
714.715	555.2
715.123	562.9
715.53	560.5
715.938	567.5
716.367	559.9
716.775	552.5
717.184	548.4
717.592	556.3
718	560.7
718.408	587.3
718.816	592.6
719.225	557.7
719.633	552.7
720.042	546.2
720.472	550.5
720.881	570.8
721.29	559.5
721.699	548.2
722.108	550.7
722.517	553.3
722.926	547.7
723.335	561.8
723.744	550.6
724.154	553.3
724.563	554.7
724.973	555.7
725.382	552.4
725.792	548.6
726.202	549.2
726.612	567.9
727.022	551.2
727.432	548.5
779.813	541.1
780.223	595.6
780.634	551
781.044	541.7
781.454	546.5
781.865	565.3
782.276	541.5
782.686	561.1
783.097	551.2
783.508	543.9
783.919	553.2
784.33	559.6
784.741	562.6
785.152	546.8
785.563	537.3
785.974	543.4
786.386	556.2
786.776	546.6
787.188	555.3
787.599	544.5
788.011	560.5
788.423	550.6
788.835	545.4
789.247	541.3
789.659	544.8
790.071	545
790.483	590.6
790.874	542.9
791.286	556.3
791.699	548.4
792.111	551.5
792.524	555.2
792.937	550.3
793.349	537.2
793.741	548.8
794.154	543.5
794.567	573.7
794.98	549.3
795.393	541
795.785	568
796.198	541
796.612	551.9
797.026	555.8
797.439	538.3
797.831	549.3
798.245	541.8
798.659	545.9
799.073	546.8
799.487	545.2
799.88	546.6
800.294	548.9
800.708	548.5
801.123	546.9
801.516	565.7
801.93	541.2
802.345	537.7
802.76	545.8
803.153	560.2
803.568	560.1
803.983	552
804.377	553.2
804.792	537.8
805.207	538.3
805.601	553
806.016	580.2
806.432	541.2
806.826	580
807.242	557.1
807.658	551.8
808.052	549.3
808.468	549.1
808.884	541.7
809.279	551.2
809.695	563.7
810.111	573.3
810.506	555.1
810.922	570.2
811.339	543.4
811.734	555.3
812.151	548.2
812.546	542.6
812.963	544.8
813.38	555.5
813.776	549.2
814.193	570.9
814.589	545.8
815.006	546.1
815.402	546.4
815.82	546.2
816.237	552.2
816.633	548.2
817.051	537.5
817.448	553.1
817.866	539.8
818.262	564.8
818.68	545
819.077	540.1
819.495	548.1
819.892	585.4
820.311	545.6
820.708	539.9
821.127	541.5
821.524	559.2
821.943	545.2
822.34	566.4
822.759	552.7
823.157	549.7
823.576	562.5
823.974	553.8
824.393	555.5
824.791	548.2
825.189	544
825.609	545.8
826.007	550.2
826.427	540.2
826.826	543.1
827.246	549.6
827.644	531.7
828.043	559.1
828.463	543.6
828.862	558.4
829.261	558.2
829.682	534.1
830.081	551.5
830.502	541.2
830.901	553.2
831.301	543.5
831.722	540.7
832.121	547.9
832.521	545.2
832.943	550
833.342	546.1
833.742	541.9
834.164	542.3
834.564	540.6
834.965	544.4
835.386	548.4
835.787	544.7
836.188	549.7
836.588	546.4
837.01	546.7
837.411	539.3
837.812	548.8
838.213	548.2
838.636	544.9
839.037	613.1
839.438	549.7
839.84	550.9
840.263	554.6
840.664	550.3
841.066	551
841.468	556.1
841.891	543.5
842.293	551.1
842.695	555.4
843.098	563.3
843.5	546.2
