#lambda/nm	C1
208.295	474.3
208.67	441.4
209.045	403
209.419	406.5
209.794	577
210.169	558.7
210.544	668.5
210.919	572.1
211.295	559.6
211.67	576.6
212.045	568.2
212.421	565.4
212.796	605.1
213.172	562.6
213.547	571.1
213.923	570.2
214.299	564.8
214.675	577.6
215.051	575.3
215.427	577.7
215.803	582.5
216.179	571.9
216.555	563.5
216.932	579
217.308	570.2
217.684	569.9
218.061	578
218.438	573.9
218.814	566.8
219.191	577.4
219.568	561.8
219.945	572
220.322	574.2
220.699	573.4
221.076	579.5
221.453	567.8
221.83	559
222.208	561.4
222.585	561.4
222.962	566.3
223.34	566.9
223.717	567.2
224.095	567.5
224.473	570.5
224.851	565.8
225.229	560
225.607	581.8
225.985	558.2
226.363	567.5
226.741	568.5
227.119	567.8
227.497	580.1
227.876	561.8
228.254	581.1
228.633	573.3
229.011	567
229.39	573.3
229.769	578.7
230.148	571.9
230.527	588.4
230.905	565.1
231.284	573.7
231.664	561.4
232.043	579.8
232.422	577.8
232.801	564.5
233.181	572.7
233.56	566
233.94	571.4
234.319	556.6
234.699	564.6
235.079	605.3
235.458	602.7
235.838	582.2
236.218	560.9
236.598	556.4
236.978	559.3
237.358	566.2
237.738	567.2
238.119	571.7
238.499	556.9
238.88	564.6
239.26	582.7
239.641	557.8
240.021	566.9
240.402	567.7
240.783	568.3
241.163	566.5
241.544	569.5
241.925	567.6
242.306	583.4
242.687	559.3
243.069	570.5
243.45	577.7
243.831	567.9
244.212	572.9
244.594	607.6
244.975	576
245.357	575.2
245.739	566.1
246.12	574.4
246.502	583.3
246.884	574.5
247.266	564.2
247.648	574.8
248.03	591.7
248.412	577.2
248.794	572.3
249.176	559.1
249.559	577.3
249.941	567.1
250.323	560.8
250.706	559.7
251.089	570.2
251.471	571
251.854	565.6
252.237	569.4
252.62	578.8
253.002	566.4
253.385	574
253.769	581.4
254.152	569.2
254.535	581.1
254.918	562.7
255.301	565.2
255.685	572
256.068	560.2
256.452	591.5
256.835	574.9
257.219	572.7
257.603	582.8
257.986	560.8
258.37	574.3
258.754	562
259.138	570
259.522	581.1
259.906	564.2
260.29	567.8
260.675	569.8
261.059	573.9
261.443	560.2
261.828	573.2
262.212	575.5
262.597	563
262.981	563
263.366	571.5
263.751	574.4
264.136	565
264.521	567.9
264.906	563.8
265.291	578.4
265.676	567.5
266.061	577.3
266.446	585.7
266.831	569.1
267.217	592.4
267.602	574.4
267.987	570.4
268.373	564.3
268.759	575.3
269.144	580
269.53	566
269.916	568.7
270.302	566
270.688	576.2
271.074	571.3
271.46	584.1
271.846	603.2
272.232	571.1
272.618	566
273.004	570.6
273.391	580
273.777	581.8
274.164	566.3
274.55	583.4
274.937	570.5
275.324	572.2
275.71	579
276.097	574.9
276.484	564.8
276.871	571.5
277.258	575.4
277.645	557.8
278.032	567.8
278.419	575.4
278.807	577.8
279.194	563.1
279.581	565.5
279.969	578.3
280.356	578.3
280.744	575.2
281.131	599.7
281.519	582.3
281.907	566.5
282.295	569.3
282.682	583.6
283.07	577.7
283.458	583.2
283.846	583.2
284.235	582.8
284.623	579
285.011	564.1
285.399	573.1
285.788	571.6
286.176	561.7
286.565	584.6
286.953	560.9
287.342	567.5
287.731	562
288.119	561.3
288.508	563.7
288.897	565
289.286	565.4
289.675	577.3
290.064	582.9
290.453	567.6
290.821	574.3
291.21	584.6
291.599	567.9
291.989	574.7
292.378	581.2
292.768	591.5
293.157	574.7
293.547	582.9
293.936	567.8
294.326	571.5
294.716	572.3
295.106	567.9
295.496	577.8
295.886	587.3
296.276	573.2
296.666	563.4
297.056	567
297.446	563.2
297.836	592.6
298.227	566.4
298.617	574.1
299.008	584.4
299.398	571.3
299.789	570.1
300.179	576.6
300.57	586.4
300.961	571
301.352	570.1
301.742	578.7
302.133	575.8
302.524	567.5
302.915	572.9
303.307	562.8
303.698	583.6
304.089	577.3
304.48	572.8
304.872	577.6
305.263	570.9
305.655	566.4
306.046	573.4
306.438	574.2
306.829	563
307.221	584.3
307.613	576.8
308.005	584.8
308.397	587.8
308.789	592.2
309.181	595.5
309.573	589.8
309.965	586
310.357	572.8
310.749	578.4
311.142	561.3
311.534	568.6
311.926	576.9
312.319	579.8
312.711	561.7
313.104	588.7
313.497	571.1
313.889	607.3
314.282	592.1
314.675	593.7
315.068	574.6
315.461	577.3
315.854	597.8
316.247	581.5
316.64	568.2
317.033	568.2
317.405	573.3
317.798	569.9
318.192	573.1
318.585	558.4
318.979	575.8
319.372	565.2
319.766	572.2
320.16	577.4
320.553	581.3
320.947	590.9
321.341	561.9
321.735	576.8
322.129	559.9
322.523	589.5
322.917	559.1
323.311	573
323.705	569.6
324.099	579
324.494	585.3
324.888	579.2
325.282	570.3
325.677	572.6
326.071	580.9
326.466	576.9
326.861	580.2
327.255	578.2
327.65	582.8
328.045	585.3
328.44	574.4
328.835	574.4
329.23	565.4
329.625	596.4
330.02	566.7
330.415	590.6
330.81	571.9
331.206	570.1
331.601	569.5
331.996	580.6
332.37	578.6
332.766	562.3
333.161	586.4
333.557	570.3
333.953	576.4
334.348	967.9
334.744	572
335.14	564.2
335.536	562.8
335.932	582.2
336.328	571.3
336.724	574.4
337.12	568.4
337.516	576.8
337.913	570.4
338.309	585.3
338.705	565.8
339.102	577.9
339.498	567.7
339.895	584.9
340.291	568.6
340.688	580.4
341.085	564.2
341.481	570.6
341.878	572.7
342.275	591.9
342.672	565.1
343.069	569
343.466	560.3
343.842	575
344.239	566.9
344.636	572.1
345.033	562.4
345.431	566.6
345.828	572.6
346.225	564.9
346.623	572
347.02	562.1
347.418	574.1
347.816	581.6
348.213	560.1
348.611	575
349.009	568.3
349.407	587.6
349.805	562.2
350.203	560.5
350.601	582.1
350.999	567.4
351.397	560.4
351.795	571.1
352.193	572.4
352.57	574.8
352.969	579.7
353.367	560.1
353.766	561.8
354.164	565.6
354.563	586.7
354.961	570.1
355.36	567
355.759	566.5
356.158	562
356.557	564.3
356.956	563.1
357.355	559.1
357.754	569.6
358.153	571.4
358.552	591.4
358.951	567.7
359.35	578.5
359.75	567.5
360.149	559.1
360.527	560.4
360.926	561.6
361.326	570.4
361.726	562.9
362.125	557.3
362.525	575.6
362.925	566.7
363.325	568.6
363.724	573.2
364.124	569.5
364.524	563
364.924	564.7
365.324	579.2
365.725	554.1
366.125	570.9
366.525	565.7
366.904	560.8
367.304	554
367.705	584.6
368.105	577
368.506	567
368.906	566.3
369.307	564.9
369.708	565.9
370.108	556.5
370.509	572.9
370.91	558.5
371.311	568.7
371.712	571.5
372.113	565.1
372.514	555
372.894	562.3
373.295	557.4
373.696	576.3
374.097	571.2
374.499	594.5
374.9	565.4
375.301	557.4
375.703	567.2
376.105	553.8
376.506	569.8
376.908	572.5
377.309	563.5
377.711	563.5
378.113	561.3
378.493	569.3
378.895	556.3
379.297	574.6
379.699	555.2
380.102	569.5
380.504	565.3
380.906	558.3
381.308	594
381.71	564.5
382.113	570.2
382.515	568.7
382.918	568.3
383.299	570.6
383.701	569
384.104	569.4
384.507	547.4
384.909	566
385.312	551.3
385.715	552.5
386.118	560.9
386.521	558.4
386.924	576.3
387.327	556.4
387.709	558.7
388.112	550.1
388.515	558.7
388.918	557
389.322	570.7
389.725	559.3
390.129	585.9
390.532	567.9
390.936	556.9
391.339	555.5
391.743	572.2
392.125	554.7
392.529	573.3
392.933	581.2
393.337	566
393.74	568.4
394.144	567.5
394.548	553.6
394.953	558.3
395.357	576
395.761	556.8
396.144	567.1
396.548	566.3
396.952	563.6
397.357	565
397.761	565.2
398.166	565.4
398.57	563.4
398.975	558
399.379	565.1
399.763	605.4
400.168	563.8
400.572	558.6
400.977	559.4
401.382	583.2
401.787	571.8
402.192	589.9
402.597	577.6
403.002	552.7
403.386	578.5
403.791	582.8
404.197	556.6
404.602	564
405.007	564.7
405.413	563.1
405.818	557.1
406.224	560
406.608	561.8
407.014	560.6
407.42	584.4
407.825	556.4
408.231	573.6
408.637	563.8
409.043	569.8
409.449	556.5
409.834	559.9
410.24	569.6
410.646	575.8
411.052	573.1
411.458	568.9
411.865	569.6
412.271	565.6
412.677	566.2
413.062	566.2
413.469	553.6
413.875	584.4
414.282	569.6
414.689	565.5
415.095	565
415.502	559.2
415.888	562.2
416.294	550.1
416.701	598.9
417.108	556.6
417.515	565.8
417.923	559.9
418.33	578.6
418.715	573.1
419.123	562.5
419.53	558.6
419.937	568.8
420.345	575.3
420.752	563.8
421.16	577.1
421.546	563.2
421.953	568.4
422.361	563.9
422.769	566.1
423.177	561.8
423.585	587.3
423.992	583.4
424.379	576.9
424.787	573.7
425.195	578.9
425.603	571.1
426.011	572.6
426.419	574.7
426.806	568.1
427.214	568.1
427.623	574.9
428.031	580.8
428.44	569.3
428.848	578.3
429.235	578.2
429.644	575.2
430.053	576.6
430.461	589.5
430.87	606
431.279	594.1
431.666	583.4
432.075	601.5
432.484	614.5
432.893	615.4
433.302	641.8
433.711	677.3
434.099	655.9
434.508	661.9
434.918	673.2
435.327	704
435.737	719.2
436.125	730.9
436.534	750.4
436.944	772.9
437.353	786
437.763	830
438.173	828.3
438.561	860.8
438.971	856.9
439.381	886
439.791	908.7
440.201	914.4
440.589	956
440.999	983.3
441.409	1002.8
441.819	1007.4
442.23	1035.5
442.619	1039.6
443.029	1054.3
443.439	1077.3
443.85	1095.4
444.26	1125.1
444.649	1139.7
445.06	1156.7
445.471	1151
445.881	1168.4
446.292	1211.5
446.682	1229.4
447.092	1203.4
447.503	1271.9
447.914	1226.5
448.325	1232.2
448.715	1252.1
449.126	1252.9
449.537	1264.9
449.948	1285.6
450.338	1286.7
450.75	1304.4
451.161	1299.8
451.572	1315.3
451.984	1298.2
452.374	1304.2
452.786	1325.9
453.197	1337.8
453.609	1341.7
453.999	1329.5
454.411	1328.2
454.823	1356.7
455.235	1355.4
455.647	1364.1
456.037	1355.5
456.449	1343.4
456.862	1358
457.274	1373.6
457.665	1357.2
458.077	1372
458.489	1372.3
458.902	1359
459.293	1367.8
459.705	1365.3
460.118	1353
460.53	1370.5
460.921	1372.6
461.334	1366.8
461.747	1365.8
462.16	1372.6
462.551	1361.1
462.964	1358.6
463.377	1359.1
463.79	1360.8
464.182	1364.4
464.595	1352.7
465.008	1350.3
465.421	1350.9
465.813	1337.4
466.226	1363.2
466.64	1362
467.053	1391
467.445	1359.5
467.859	1353.7
468.272	1347.4
468.686	1349.2
469.078	1339.4
469.492	1331.9
469.906	1341.3
470.298	1331.2
470.712	1318.1
471.126	1356
471.54	1308
471.933	1317.4
472.347	1322.8
472.761	1326.2
473.175	1301.3
473.568	1317.8
473.982	1303.6
474.397	1298.6
474.79	1308.7
475.204	1298.3
475.619	1291.1
476.033	1290.1
476.426	1286.9
476.841	1280
477.256	1300.1
477.649	1269.1
478.064	1279.2
478.479	1270
478.872	1254.6
479.287	1247
479.702	1258.4
480.118	1247
480.511	1245.2
480.927	1235
481.342	1244.7
481.736	1243.9
482.151	1237.7
482.566	1250.5
482.96	1241.9
483.376	1241.4
483.792	1212.8
484.186	1224.2
484.602	1213.1
485.017	1213.6
485.412	1221
485.827	1213.4
486.243	1205.7
486.638	1228.1
487.054	1211.4
487.47	1202.7
487.865	1189.3
488.281	1170.6
488.697	1170.4
489.092	1165.7
489.508	1159.9
489.925	1173.8
490.32	1154
490.736	1151.9
491.153	1149.4
491.548	1141.2
491.964	1143.1
492.381	1122.6
492.776	1139.6
493.193	1131.8
493.61	1128.8
494.006	1117.5
494.422	1120.8
494.84	1097.4
495.235	1114.7
495.652	1098.7
496.069	1089.5
496.465	1077.5
496.883	1085.9
497.3	1101.8
497.696	1073
498.113	1080.9
498.509	1053.7
498.927	1054
499.344	1051.1
499.741	1041.4
500.158	1051.5
500.576	1046.3
500.973	1040.9
501.39	1029.7
501.787	1023.4
502.205	1028.6
502.623	1022.1
503.02	1006.5
503.438	1012.3
503.856	1010.1
504.253	1017
504.671	999.6
505.068	1001.8
505.486	985.3
505.905	1006.7
506.302	981.6
506.72	994.1
507.118	963.2
507.536	963.6
507.955	961.5
508.352	968.1
508.771	955.8
509.169	958.5
509.587	947.3
510.006	944.1
510.404	934.5
510.823	926.3
511.221	935.2
511.64	932.4
512.038	936.4
512.457	916.8
512.877	912
513.275	903.2
513.694	909.9
514.092	919.3
514.512	909.3
514.91	902.8
515.33	895
515.749	900.1
516.148	895.7
516.568	889.2
516.966	879.8
517.386	876.8
517.785	873.1
518.205	870.6
518.603	862.9
519.024	866.9
519.444	866.8
519.843	862.4
520.263	856.4
520.662	858.3
521.082	841.1
521.481	843.3
521.902	833.6
522.301	833.7
522.722	837.6
523.121	826.8
523.542	819.2
523.963	819.7
524.362	817.8
524.783	827.1
525.183	815.7
525.604	814.9
526.003	803.3
526.425	805.5
526.824	810.6
527.246	812.1
527.646	801.5
528.067	794.6
528.467	795.7
528.888	794.3
529.289	788.6
529.71	780.8
530.11	776.3
530.532	785
530.932	771.3
531.354	766.8
531.755	802.3
532.176	776.7
532.577	765
532.999	767.4
533.4	762.2
533.822	767.5
534.223	753.7
534.645	755.4
535.046	742.3
535.468	747.4
535.869	754.9
536.292	739
536.693	747.3
537.115	744.9
537.516	735
537.939	745
538.34	750.4
538.742	744.3
539.165	733.2
539.566	726.9
539.989	733.2
540.391	734.8
540.814	719.7
541.216	725.6
541.639	731.6
542.041	733.3
542.464	721.7
542.866	716.1
543.268	712.6
543.691	726
544.093	724.2
544.517	733.8
544.919	706.2
545.343	739
545.745	700.3
546.147	708.3
546.571	708.1
546.974	700.2
547.398	714.5
547.8	706.8
548.224	697.3
548.627	692.1
549.03	702.5
549.454	685.7
549.857	683.4
550.281	688.7
550.684	686.4
551.087	691.4
551.512	692.3
551.915	683.6
552.34	682.5
552.743	675.1
553.146	685.1
553.571	679.2
553.975	692.8
554.399	666.3
554.803	717.8
555.207	667.3
555.632	664.2
556.036	674.2
556.461	661.4
556.865	669
557.268	654.4
557.694	660.6
558.098	666.9
558.502	665.6
558.927	651.7
559.332	654.2
559.736	655.5
560.162	660.6
560.566	651.9
560.992	659.4
561.396	648.5
561.801	649
562.227	651.4
562.631	648.9
563.036	650.9
563.462	651.8
563.867	641.7
564.272	630.4
564.698	644.1
565.103	635.4
565.508	654.8
565.935	647.4
566.34	635.3
566.745	642.9
567.172	632.4
567.577	650.3
567.982	647
568.409	642.7
568.815	627.6
569.22	628.8
569.626	634.2
570.053	609.9
570.459	630.8
570.865	629.6
571.292	634.5
571.698	629.8
572.104	610.7
572.531	624.7
572.937	629.1
573.343	620.1
573.75	619.9
574.177	621.2
574.583	629.3
574.99	614
575.396	617.2
575.824	613.7
576.231	614.8
576.637	608.9
577.065	637.2
577.472	608.3
577.879	612.2
578.286	626.6
578.714	606.7
579.121	610
579.528	618
579.935	613.3
580.364	602.3
580.771	594.2
581.178	598.7
581.585	610.2
582.014	611.3
582.421	599.2
582.829	601.8
583.236	608.5
583.644	597.8
584.073	600
584.481	598.7
584.889	595.1
585.296	603.2
585.726	595.2
586.134	588
586.542	594.1
586.95	611.8
587.358	590.6
587.787	597.5
588.196	581.8
588.604	592.2
589.012	595.2
589.421	585
589.851	584.9
590.259	593.1
590.668	584.4
591.076	622.8
591.485	582.1
591.894	582.5
592.324	600.9
592.733	598.2
593.142	579.3
593.551	589
593.96	615.5
594.369	572.4
594.8	576.3
595.209	586
595.618	569.5
596.028	574.2
596.437	574.4
596.847	580.6
597.256	587.6
597.687	579.9
598.097	584.1
598.507	576
598.917	582.6
599.327	582.2
599.736	581.7
600.146	589.2
600.556	578.3
600.988	586.8
601.398	575.5
601.808	585.7
602.219	558.6
602.629	569.5
603.039	571
603.45	598.2
603.86	569.1
604.271	586.7
604.703	571.1
605.114	570.2
605.525	566.3
605.935	571.5
606.346	587.4
606.757	571.1
607.168	566.9
607.579	566.1
607.99	575
608.402	567.5
608.813	569.6
609.224	567.6
609.636	554.5
610.047	558.3
610.48	563.3
610.892	573.2
611.303	568.2
611.715	561.2
612.127	561.3
612.539	561.3
612.95	569.1
613.362	556.4
613.774	553.7
614.186	562.6
614.599	558.1
615.011	574
615.423	558.3
615.835	557.7
616.248	562
616.66	565.3
617.073	557.1
617.485	564.3
617.898	568.8
618.311	560.4
618.723	563.8
619.136	587.5
619.549	568.1
619.962	582.3
620.375	558.7
620.788	564.2
621.201	553.8
621.614	564.7
622.028	562.1
622.441	566.2
622.854	578.8
623.268	551.4
623.681	563.2
624.095	556.9
624.509	572.9
624.922	567.8
625.336	554.1
625.728	563.5
626.142	571.3
626.556	575.4
626.97	569.4
627.384	558
627.799	560.6
628.213	570.1
628.627	563.4
629.041	550.5
629.456	558.2
629.87	553.9
630.285	565.8
630.699	568.5
631.093	557.6
631.507	563.2
631.922	560
632.337	571
632.752	553.3
633.167	556.5
633.582	556.7
633.997	554.4
634.412	554.8
634.806	552.8
635.221	543.7
635.637	563.9
636.052	546.9
636.468	560.6
636.883	571.2
637.299	553.1
637.715	545
638.109	563.7
638.525	547.7
638.941	565.1
639.357	559.2
639.773	565.9
640.189	550.7
640.584	553.8
641	554.5
641.416	543.4
641.832	555.4
642.249	552.1
642.665	553.4
643.06	561.2
643.477	563
643.894	542
644.31	552.9
644.727	553.3
645.123	545.4
645.54	546.3
645.957	558.4
646.374	558
646.77	552.8
647.187	581.1
647.604	554.3
648.021	541
648.439	546.6
648.835	556.4
649.252	558.3
649.67	549
650.088	554.9
650.484	553.6
650.902	555.1
651.32	558.5
651.738	550.5
652.134	552.2
652.552	567.7
652.971	557.9
653.389	552.5
653.786	562.6
654.204	551.5
654.622	542.4
655.019	554.1
655.438	552.5
655.857	555
656.275	551
656.673	551.6
657.091	617.3
657.51	550.5
657.908	559.4
658.327	566.4
658.746	544.8
659.144	549.7
659.563	560.2
659.982	552.6
660.38	544
660.8	552.4
661.219	561.8
661.617	558.6
662.037	548.7
662.457	561.8
662.855	536.6
663.275	575.2
663.695	552.8
664.094	549.4
664.514	556.7
664.934	542.4
665.333	559.2
665.753	542.9
666.152	540.6
666.572	542.6
666.993	565
667.392	548.6
667.812	551.5
668.212	547
668.632	557.4
669.053	547.2
669.453	555.5
669.874	548.1
670.273	547.5
670.694	545.4
671.116	562.4
671.515	557.5
671.937	543.9
672.337	546.9
672.758	549
673.158	558
673.58	541.1
673.98	551.6
674.402	555.8
674.824	547.1
675.224	544.7
675.646	541.7
676.047	545
676.469	546.2
676.869	555.2
677.292	552.9
677.693	538.6
678.115	540.6
678.516	550.1
678.939	555.5
679.34	544
679.762	557.3
680.164	552.3
680.586	539.2
680.988	550.7
681.411	569.7
681.812	544.9
682.236	543.2
682.637	540
683.061	536.3
683.462	555.8
683.864	541.6
684.288	550.1
684.69	536.9
685.114	554.2
685.516	553.5
685.94	544
686.342	553
686.766	538.7
687.168	542
687.571	564.5
687.995	549.7
688.398	539.4
688.822	535
689.225	556.9
689.628	565.1
690.052	542.4
690.456	545.4
690.88	548.8
691.284	538.3
691.687	548.1
692.112	539.4
692.515	535.9
692.919	544.3
693.344	547.2
693.747	540.7
694.173	540.7
694.577	551.3
694.98	544
695.406	539.9
695.81	545.5
696.214	552.8
696.64	540.6
697.044	541.2
697.448	551.4
697.874	538.5
698.279	544.8
698.684	532.3
699.11	534
699.514	538.8
699.919	542.4
700.324	536.6
700.75	538.7
701.156	539
701.561	552.3
701.987	547.4
702.393	551.3
702.798	556
703.203	544.3
703.63	539.3
704.036	538.2
704.442	546
704.847	536.8
705.274	539.7
705.68	545.6
706.086	549.9
706.492	532
706.92	544
707.326	547.5
707.732	532.5
708.139	531.4
708.545	536.6
708.973	531.2
709.38	541.4
709.786	527
710.193	552.5
710.6	536.4
711.028	533.5
711.435	538.8
711.842	537.1
712.249	539.6
712.656	540.4
713.064	548.5
713.492	532.3
713.9	535.1
714.307	539.9
714.715	542.7
715.123	541
715.53	542.1
715.938	549.6
716.367	540.3
716.775	540.8
717.184	533.5
717.592	537.9
718	546.6
718.408	569.2
718.816	576.5
719.225	544.9
719.633	543.4
720.042	534.2
720.472	538.7
720.881	557.2
721.29	549.1
721.699	536.9
722.108	542.8
722.517	544
722.926	541.7
723.335	548.5
723.744	540.3
724.154	539.1
724.563	543.2
724.973	544.4
725.382	542.1
725.792	540.7
726.202	531.5
726.612	547.6
727.022	539.8
727.432	537.4
779.813	539.8
780.223	579.1
780.634	538.9
781.044	539.7
781.454	539.6
781.865	554.2
782.276	534.2
782.686	543.1
783.097	544.8
783.508	537.4
783.919	543.1
784.33	547
784.741	553.9
785.152	535.1
785.563	528.6
785.974	537.8
786.386	550.4
786.776	540.7
787.188	540.7
787.599	530.9
788.011	544.4
788.423	542.4
788.835	537.8
789.247	529.9
789.659	532.8
790.071	538.7
790.483	581.2
790.874	535.6
791.286	546.6
791.699	530.5
792.111	539.9
792.524	541.5
792.937	540.2
793.349	533.7
793.741	535.2
794.154	530.4
794.567	555.5
794.98	537.9
795.393	529
795.785	550.4
796.198	531.9
796.612	535.5
797.026	536.3
797.439	526.4
797.831	538.9
798.245	524.8
798.659	538.4
799.073	535
799.487	533.1
799.88	541.8
800.294	544
800.708	542.3
801.123	543
801.516	559.5
801.93	532.1
802.345	527.3
802.76	541.4
803.153	551.9
803.568	554
803.983	547.8
804.377	542.9
804.792	530.9
805.207	532.4
805.601	540.3
806.016	573.3
806.432	539.2
806.826	565.7
807.242	548.7
807.658	545.1
808.052	534.5
808.468	535.4
808.884	534.4
809.279	536.5
809.695	547.3
810.111	558.3
810.506	546
810.922	560.3
811.339	528.4
811.734	548.7
812.151	536
812.546	538.9
812.963	539.5
813.38	543.2
813.776	543.2
814.193	562.6
814.589	530.6
815.006	539.4
815.402	532.3
815.82	532.6
816.237	543.1
816.633	541.8
817.051	529.7
817.448	541
817.866	528.8
818.262	553.1
818.68	538.8
819.077	535.1
819.495	541.1
819.892	575.7
820.311	533.4
820.708	539.1
821.127	537
821.524	547.4
821.943	543
822.34	552.7
822.759	541.7
823.157	544
823.576	547.2
823.974	539.3
824.393	551.1
824.791	535.1
825.189	533.8
825.609	540.3
826.007	541.2
826.427	530
826.826	536.8
827.246	545.8
827.644	526.5
828.043	551.1
828.463	530.2
828.862	548.6
829.261	548.2
829.682	533.5
830.081	542.7
830.502	537.6
830.901	543
831.301	540.5
831.722	530.4
832.121	539.1
832.521	531.8
832.943	538
833.342	541
833.742	528.3
834.164	533.7
834.564	534.8
834.965	540.1
835.386	534.4
835.787	536.9
836.188	536.6
836.588	535.8
837.01	536.4
837.411	532.6
837.812	545.3
838.213	542.2
838.636	531
839.037	600.6
839.438	539.9
839.84	541.9
840.263	541.4
840.664	541.7
841.066	532.5
841.468	540.2
841.891	532.4
842.293	547
842.695	544.6
843.098	543.8
843.5	534.2
843.902	540.3
