#lambda/nm	C1
208.295	466
208.67	440.1
209.045	402.4
209.419	405.1
209.794	585.5
210.169	567.7
210.544	681.7
210.919	580.5
211.295	571.2
211.67	584.7
212.045	579.7
212.421	578.6
212.796	612
213.172	576
213.547	581.7
213.923	580.3
214.299	571.5
214.675	585.4
215.051	586.4
215.427	589
215.803	604.7
216.179	584.5
216.555	569.1
216.932	592.4
217.308	580.8
217.684	579.4
218.061	587.9
218.438	585.9
218.814	576.2
219.191	591.4
219.568	575
219.945	577.6
220.322	583
220.699	588
221.076	586.7
221.453	588.3
221.83	573.9
222.208	573
222.585	579.3
222.962	588
223.34	584.3
223.717	585.7
224.095	584.1
224.473	582
224.851	576.5
225.229	572.9
225.607	599
225.985	569.2
226.363	585.3
226.741	585.9
227.119	583.3
227.497	591.8
227.876	570.9
228.254	592
228.633	585.5
229.011	584.3
229.39	590.2
229.769	585.1
230.148	591.6
230.527	598.5
230.905	580.1
231.284	581.8
231.664	577.6
232.043	588.4
232.422	588
232.801	577.8
233.181	592.2
233.56	578.5
233.94	585
234.319	573.8
234.699	576.3
235.079	619.2
235.458	622.6
235.838	601.7
236.218	570.6
236.598	569.8
236.978	578.2
237.358	579
237.738	570.8
238.119	585.7
238.499	575.1
238.88	583.7
239.26	598.4
239.641	570.6
240.021	577.2
240.402	578.5
240.783	578.7
241.163	577.5
241.544	587.1
241.925	580.2
242.306	599.6
242.687	572.8
243.069	584.1
243.45	587.6
243.831	576.4
244.212	577.1
244.594	614.9
244.975	592.9
245.357	584
245.739	576.2
246.12	584.6
246.502	597.8
246.884	580.3
247.266	574.2
247.648	584
248.03	602.6
248.412	582.2
248.794	589.1
249.176	576.6
249.559	591.6
249.941	574.2
250.323	573.4
250.706	577.8
251.089	581.6
251.471	586.5
251.854	583.3
252.237	587
252.62	592.1
253.002	585.7
253.385	581.5
253.769	598.7
254.152	585.1
254.535	591.5
254.918	575.7
255.301	577.6
255.685	579.5
256.068	571.8
256.452	611.8
256.835	591.2
257.219	590.4
257.603	593.2
257.986	571.8
258.37	585.1
258.754	577.3
259.138	583.2
259.522	595.7
259.906	577.9
260.29	582.8
260.675	578.4
261.059	582.2
261.443	572.9
261.828	589.5
262.212	586.5
262.597	565.1
262.981	582.6
263.366	589.6
263.751	585.1
264.136	578.2
264.521	580
264.906	573.6
265.291	594
265.676	579.5
266.061	588.5
266.446	602.4
266.831	585.8
267.217	608.7
267.602	584.1
267.987	587.1
268.373	582.7
268.759	595.2
269.144	591.1
269.53	584.9
269.916	579.4
270.302	573.2
270.688	591.7
271.074	586.3
271.46	594.2
271.846	610.3
272.232	580.5
272.618	573
273.004	580.4
273.391	588.4
273.777	595
274.164	588.6
274.55	599.9
274.937	581.8
275.324	578.3
275.71	586.7
276.097	589.4
276.484	573.4
276.871	584.6
277.258	589.7
277.645	565.9
278.032	583.4
278.419	579.7
278.807	588.9
279.194	572.9
279.581	576.7
279.969	591.1
280.356	582.7
280.744	582.3
281.131	603.3
281.519	593.8
281.907	581.7
282.295	577.3
282.682	594.4
283.07	580.2
283.458	592.4
283.846	594.8
284.235	597
284.623	591.3
285.011	572
285.399	587.2
285.788	581.5
286.176	572.6
286.565	599.8
286.953	578.4
287.342	577.6
287.731	579
288.119	571.9
288.508	584.3
288.897	576.7
289.286	570.1
289.675	585.9
290.064	592.2
290.453	584.5
290.821	581.9
291.21	598.2
291.599	580.5
291.989	583.8
292.378	595.5
292.768	600.7
293.157	589.2
293.547	591
293.936	581.7
294.326	575.9
294.716	585.2
295.106	583
295.496	592.6
295.886	593.3
296.276	585.7
296.666	579
297.056	576.1
297.446	577.1
297.836	603.4
298.227	578.2
298.617	583.4
299.008	596.7
299.398	584.9
299.789	576.2
300.179	585.5
300.57	591.2
300.961	578.2
301.352	577.9
301.742	592.2
302.133	584.1
302.524	585.1
302.915	585
303.307	576.4
303.698	588.1
304.089	587.9
304.48	585.6
304.872	589.6
305.263	582.6
305.655	575.6
306.046	586.9
306.438	584.1
306.829	576.4
307.221	599.2
307.613	591.1
308.005	592.8
308.397	601.8
308.789	603.2
309.181	601.5
309.573	598.7
309.965	594.6
310.357	580.9
310.749	591.8
311.142	576.5
311.534	579.5
311.926	588.8
312.319	582.3
312.711	579.1
313.104	590.6
313.497	581.8
313.889	618.3
314.282	596.4
314.675	607.3
315.068	583.1
315.461	589
315.854	617.8
316.247	590.7
316.64	585.1
317.033	585.2
317.405	592.1
317.798	585.3
318.192	584.4
318.585	578.4
318.979	594.2
319.372	575.3
319.766	587.1
320.16	589.1
320.553	598.6
320.947	607.5
321.341	581.8
321.735	581.1
322.129	571.3
322.523	610.9
322.917	570.9
323.311	588.5
323.705	581.4
324.099	588.2
324.494	599.6
324.888	600.8
325.282	583.2
325.677	593.8
326.071	591.3
326.466	594.9
326.861	588
327.255	592.1
327.65	598.5
328.045	599.5
328.44	586.4
328.835	588.8
329.23	583.1
329.625	603.4
330.02	579.5
330.415	601.6
330.81	587.5
331.206	583.3
331.601	584.9
331.996	591.5
332.37	597.3
332.766	572.2
333.161	605.5
333.557	582.7
333.953	589
334.348	1005.4
334.744	587.6
335.14	579.1
335.536	580.4
335.932	596.7
336.328	582.4
336.724	593.4
337.12	585.9
337.516	588.5
337.913	587.3
338.309	599.2
338.705	587.3
339.102	593.9
339.498	580.2
339.895	597.4
340.291	581.2
340.688	596.3
341.085	573.2
341.481	583
341.878	582.5
342.275	601.4
342.672	571.9
343.069	577.9
343.466	572.8
343.842	595.5
344.239	577.5
344.636	582.8
345.033	576.9
345.431	572.8
345.828	579.3
346.225	575.6
346.623	586.5
347.02	578.3
347.418	597.5
347.816	596.1
348.213	576.2
348.611	595.6
349.009	570.1
349.407	595.6
349.805	577.2
350.203	565.5
350.601	599.1
350.999	578.6
351.397	572.3
351.795	583.2
352.193	587.1
352.57	583.9
352.969	597.7
353.367	574.6
353.766	567.3
354.164	579.4
354.563	590.1
354.961	583.2
355.36	580.3
355.759	578.7
356.158	575.2
356.557	573.4
356.956	566.7
357.355	562.2
357.754	585
358.153	586.9
358.552	599.1
358.951	576.3
359.35	587.4
359.75	578.3
360.149	572.2
360.527	564.6
360.926	569.8
361.326	581.1
361.726	576.6
362.125	575.2
362.525	582.3
362.925	580.7
363.325	577.7
363.724	579.2
364.124	572.8
364.524	575.9
364.924	579.3
365.324	590.9
365.725	564.4
366.125	576.6
366.525	575.1
366.904	566
367.304	560.3
367.705	596.3
368.105	589.8
368.506	570
368.906	575
369.307	583.6
369.708	580.1
370.108	569.5
370.509	585.2
370.91	568
371.311	584.3
371.712	581.2
372.113	575.8
372.514	566
372.894	578.8
373.295	572.2
373.696	586
374.097	584.3
374.499	607
374.9	584.6
375.301	562.1
375.703	580.7
376.105	570.3
376.506	575.3
376.908	576.1
377.309	579.5
377.711	570.8
378.113	568.2
378.493	579
378.895	574
379.297	585.8
379.699	564.3
380.102	583.8
380.504	572.6
380.906	570.6
381.308	594.7
381.71	578.5
382.113	583.9
382.515	574.5
382.918	578.3
383.299	574.5
383.701	583.6
384.104	585.7
384.507	560.9
384.909	573.7
385.312	564.8
385.715	568
386.118	573.8
386.521	566.5
386.924	580.8
387.327	569.5
387.709	566.9
388.112	562.8
388.515	574
388.918	577.3
389.322	580.9
389.725	569.9
390.129	592.3
390.532	579.8
390.936	566.2
391.339	568.3
391.743	575.1
392.125	570.3
392.529	582.7
392.933	591.4
393.337	576.8
393.74	571.4
394.144	575.7
394.548	565.2
394.953	567.2
395.357	576.5
395.761	567.8
396.144	574.7
396.548	575.4
396.952	568.5
397.357	575.8
397.761	572.5
398.166	576.7
398.57	568.3
398.975	568.1
399.379	579
399.763	619
400.168	576.5
400.572	575.7
400.977	571.1
401.382	591.8
401.787	582.7
402.192	599
402.597	589.1
403.002	559.8
403.386	589.5
403.791	586.5
404.197	567.2
404.602	573.4
405.007	575.2
405.413	576.4
405.818	562.8
406.224	569.7
406.608	568.7
407.014	569.1
407.42	587
407.825	570.6
408.231	577.2
408.637	574.2
409.043	590.9
409.449	570.2
409.834	567.2
410.24	577.1
410.646	589.2
411.052	590.3
411.458	583.1
411.865	581.9
412.271	581.3
412.677	574.8
413.062	579.7
413.469	568.8
413.875	603.6
414.282	587.1
414.689	584.2
415.095	580.1
415.502	572.3
415.888	578.3
416.294	563.9
416.701	619.6
417.108	567.5
417.515	583.7
417.923	572.6
418.33	596.6
418.715	587.8
419.123	577.1
419.53	573.6
419.937	579.9
420.345	588.1
420.752	574.2
421.16	594.1
421.546	585.1
421.953	587.6
422.361	570.8
422.769	577.1
423.177	570.1
423.585	600.3
423.992	591.3
424.379	591
424.787	584.1
425.195	591.2
425.603	577.7
426.011	586.8
426.419	583.8
426.806	579.9
427.214	578.8
427.623	594.2
428.031	595
428.44	588.8
428.848	589.1
429.235	589.4
429.644	584.3
430.053	581
430.461	589.8
430.87	602.3
431.279	591
431.666	572.5
432.075	584
432.484	588.6
432.893	578.5
433.302	600.3
433.711	624
434.099	590.2
434.508	586.9
434.918	580.2
435.327	599.9
435.737	597.1
436.125	599.4
436.534	600.2
436.944	608.6
437.353	609.1
437.763	632.1
438.173	607.1
438.561	626.2
438.971	612.4
439.381	626.1
439.791	633.6
440.201	614.1
440.589	642
440.999	656.2
441.409	646.7
441.819	645
442.23	664.3
442.619	671.8
443.029	670.7
443.439	681.2
443.85	682
444.26	694.5
444.649	694.2
445.06	694.5
445.471	693
445.881	697.2
446.292	723.2
446.682	728
447.092	699.8
447.503	765.3
447.914	717.4
448.325	730.9
448.715	725.7
449.126	722.4
449.537	732.5
449.948	734
450.338	739.1
450.75	742.5
451.161	744.9
451.572	753.6
451.984	745.3
452.374	724.4
452.786	745.3
453.197	753.9
453.609	760
453.999	735.4
454.411	748.7
454.823	762.6
455.235	755.8
455.647	746.1
456.037	748.3
456.449	737.1
456.862	756.5
457.274	752.1
457.665	742.9
458.077	764.2
458.489	768.2
458.902	753.7
459.293	761.5
459.705	763
460.118	755
460.53	766.1
460.921	775.3
461.334	763.3
461.747	768
462.16	776.7
462.551	773.5
462.964	767.8
463.377	751.1
463.79	763.9
464.182	778.4
464.595	748.9
465.008	771.6
465.421	773.4
465.813	749.8
466.226	769
466.64	767.2
467.053	807.1
467.445	770.7
467.859	764.2
468.272	762.5
468.686	774.9
469.078	756.5
469.492	744.8
469.906	760.9
470.298	763.9
470.712	754.5
471.126	787.5
471.54	750.9
471.933	754.9
472.347	755.7
472.761	759.1
473.175	743.9
473.568	751.8
473.982	744.2
474.397	753.3
474.79	758.2
475.204	764.2
475.619	753.2
476.033	758.9
476.426	758.7
476.841	745.7
477.256	777.3
477.649	747.6
478.064	744
478.479	742.9
478.872	747.2
479.287	732.3
479.702	741.3
480.118	740.1
480.511	746.7
480.927	734.3
481.342	734.3
481.736	751.3
482.151	731.5
482.566	745.9
482.96	730.8
483.376	747.1
483.792	730.6
484.186	736.1
484.602	732.2
485.017	733.4
485.412	730.5
485.827	736.7
486.243	736.2
486.638	752
487.054	738.8
487.47	746.5
487.865	727.4
488.281	726.2
488.697	720.5
489.092	724.9
489.508	720.1
489.925	730.1
490.32	713.1
490.736	714.8
491.153	723.5
491.548	718.8
491.964	728.9
492.381	703.4
492.776	721.7
493.193	718.7
493.61	724
494.006	709.3
494.422	713.5
494.84	707.5
495.235	720.9
495.652	711.6
496.069	712
496.465	700.8
496.883	709.1
497.3	730
497.696	704
498.113	703.9
498.509	697.6
498.927	694.7
499.344	693.7
499.741	693.2
500.158	707.7
500.576	707.1
500.973	705.5
501.39	685.4
501.787	691.7
502.205	691.3
502.623	686.5
503.02	679.3
503.438	688.9
503.856	683.4
504.253	686.1
504.671	687
505.068	678.9
505.486	680.2
505.905	703.2
506.302	685.7
506.72	688.3
507.118	670.3
507.536	682.3
507.955	681.1
508.352	678.4
508.771	682.2
509.169	684.3
509.587	666.2
510.006	665.3
510.404	656.2
510.823	654.8
511.221	665.7
511.64	670.2
512.038	681.7
512.457	658.1
512.877	659.1
513.275	653.7
513.694	660.4
514.092	658.6
514.512	659.1
514.91	654.6
515.33	660.2
515.749	656.1
516.148	659.3
516.568	655
516.966	649.9
517.386	649.7
517.785	650.9
518.205	653.1
518.603	648.1
519.024	646
519.444	649.8
519.843	654.1
520.263	651.2
520.662	652.2
521.082	648.3
521.481	646.6
521.902	646.7
522.301	646.9
522.722	647.5
523.121	635.7
523.542	637.4
523.963	636
524.362	639
524.783	648.4
525.183	629.3
525.604	649.4
526.003	632.7
526.425	628.5
526.824	636.4
527.246	644
527.646	641.9
528.067	633.9
528.467	627
528.888	640.1
529.289	626.9
529.71	631.4
530.11	624
530.532	625.1
530.932	624.4
531.354	622.6
531.755	654
532.176	629.1
532.577	620.8
532.999	628.5
533.4	619.7
533.822	624
534.223	619.2
534.645	620.7
535.046	623
535.468	614.1
535.869	627.1
536.292	605.5
536.693	613.2
537.115	619.6
537.516	615.9
537.939	611.8
538.34	631.5
538.742	626.5
539.165	613.7
539.566	615.9
539.989	601.4
540.391	607.1
540.814	612.2
541.216	612.9
541.639	613.9
542.041	622.4
542.464	601.6
542.866	604.6
543.268	603.9
543.691	617.1
544.093	613.5
544.517	633.2
544.919	595.8
545.343	631.9
545.745	600.9
546.147	610.9
546.571	602.5
546.974	598.4
547.398	605.9
547.8	614.8
548.224	596.6
548.627	594.2
549.03	607.1
549.454	595.6
549.857	592.5
550.281	594.8
550.684	595.6
551.087	609.6
551.512	609
551.915	610.4
552.34	591.9
552.743	592.5
553.146	603.6
553.571	601.9
553.975	611.3
554.399	586.4
554.803	643.6
555.207	590.6
555.632	586.9
556.036	600.6
556.461	588.4
556.865	593.9
557.268	581.4
557.694	584.6
558.098	594.7
558.502	596.4
558.927	589.3
559.332	592.2
559.736	590.6
560.162	602.9
560.566	590.9
560.992	592.8
561.396	588.9
561.801	587.7
562.227	588.3
562.631	585.3
563.036	588.6
563.462	592
563.867	593.7
564.272	577.9
564.698	589.2
565.103	577
565.508	603.9
565.935	586.7
566.34	581.8
566.745	592.5
567.172	581.5
567.577	601.4
567.982	592.7
568.409	585.9
568.815	577.6
569.22	593.7
569.626	584.5
570.053	576.6
570.459	585.8
570.865	588.3
571.292	591.6
571.698	585.5
572.104	573.9
572.531	583
572.937	592.9
573.343	576.3
573.75	580.6
574.177	580.3
574.583	585.8
574.99	578
575.396	586.3
575.824	581.6
576.231	581.5
576.637	570.3
577.065	602.5
577.472	576.5
577.879	579.1
578.286	593.8
578.714	573.3
579.121	575
579.528	577.4
579.935	582.3
580.364	573.4
580.771	560.2
581.178	571.7
581.585	583.5
582.014	585.7
582.421	571.8
582.829	572.3
583.236	584.4
583.644	570.6
584.073	570.7
584.481	572.7
584.889	567.2
585.296	576
585.726	577.9
586.134	563
586.542	575.5
586.95	588.9
587.358	562.5
587.787	573
588.196	563.1
588.604	568.5
589.012	575.3
589.421	565.3
589.851	560.2
590.259	571.9
590.668	562.7
591.076	602
591.485	565.4
591.894	572.6
592.324	586.4
592.733	582.3
593.142	555.4
593.551	567.8
593.96	602.9
594.369	559.9
594.8	564.3
595.209	560.2
595.618	555.5
596.028	569
596.437	559.8
596.847	566.8
597.256	574.4
597.687	568.1
598.097	568.6
598.507	554.1
598.917	571
599.327	572.4
599.736	570.9
600.146	576.2
600.556	569.7
600.988	578.5
601.398	567.1
601.808	582.9
602.219	558.1
602.629	568.5
603.039	570.7
603.45	595.2
603.86	566.8
604.271	583.1
604.703	575.1
605.114	566.1
605.525	566
605.935	566.7
606.346	585.2
606.757	573
607.168	568.4
607.579	558
607.99	577.7
608.402	563.6
608.813	571.5
609.224	563.5
609.636	557.9
610.047	557.9
610.48	571.7
610.892	569.8
611.303	571.5
611.715	562
612.127	557.7
612.539	561.9
612.95	563.9
613.362	559
613.774	548.8
614.186	562
614.599	561.1
615.011	572.9
615.423	556.6
615.835	558.3
616.248	552.7
616.66	568.3
617.073	557.4
617.485	558.6
617.898	568.3
618.311	563.8
618.723	558.7
619.136	587.9
619.549	578.1
619.962	585.3
620.375	559.3
620.788	564
621.201	557.2
621.614	567.6
622.028	562.9
622.441	566.5
622.854	576.7
623.268	553.3
623.681	563.3
624.095	562.2
624.509	569.6
624.922	567.5
625.336	555.4
625.728	568.1
626.142	569.2
626.556	578.1
626.97	563.6
627.384	559.2
627.799	558.5
628.213	571.6
628.627	557.8
629.041	557.2
629.456	556.8
629.87	558.5
630.285	568.1
630.699	575.9
631.093	559.6
631.507	567
631.922	570.2
632.337	579
632.752	550.7
633.167	561.2
633.582	558.3
633.997	555.6
634.412	555.7
634.806	564.7
635.221	553.8
635.637	570
636.052	549.1
636.468	565.9
636.883	581.6
637.299	565.7
637.715	551.4
638.109	562
638.525	552.4
638.941	567.4
639.357	560.9
639.773	571.3
640.189	556.3
640.584	558.9
641	558
641.416	549.2
641.832	556.6
642.249	560.1
642.665	552.5
643.06	562.7
643.477	571
643.894	547.2
644.31	556.6
644.727	561.4
645.123	556.6
645.54	547.9
645.957	557.7
646.374	562.3
646.77	557.6
647.187	586.8
647.604	564
648.021	543.1
648.439	558
648.835	562.6
649.252	556.9
649.67	557.9
650.088	561.3
650.484	562.9
650.902	563
651.32	567.1
651.738	558.7
652.134	564.5
652.552	578.7
652.971	565
653.389	556.1
653.786	567.8
654.204	557.8
654.622	550.4
655.019	552.2
655.438	557.4
655.857	561.1
656.275	558.6
656.673	548.6
657.091	625.3
657.51	551
657.908	564.2
658.327	574.3
658.746	544.9
659.144	556
659.563	566.6
659.982	562.3
660.38	551.5
660.8	552.8
661.219	571
661.617	559.8
662.037	560
662.457	568.1
662.855	545.5
663.275	586.5
663.695	555.7
664.094	550.7
664.514	558.1
664.934	546.5
665.333	562.7
665.753	548.2
666.152	546.1
666.572	550.7
666.993	565.1
667.392	552.5
667.812	557.4
668.212	546.9
668.632	561.8
669.053	553.9
669.453	559.9
669.874	563.9
670.273	559.9
670.694	545.4
671.116	567.2
671.515	565.7
671.937	560
672.337	553.4
672.758	554.8
673.158	562.5
673.58	549.5
673.98	556.7
674.402	567.3
674.824	553.2
675.224	546.7
675.646	543.5
676.047	547.9
676.469	553.3
676.869	559.1
677.292	557.6
677.693	550.5
678.115	553.7
678.516	558.9
678.939	555.6
679.34	553.9
679.762	566
680.164	564.8
680.586	546.9
680.988	555.5
681.411	577.5
681.812	550.8
682.236	542.2
682.637	549
683.061	544.4
683.462	556.3
683.864	545.7
684.288	560.3
684.69	541.2
685.114	564.9
685.516	560.4
685.94	547.1
686.342	567.7
686.766	547.3
687.168	549
687.571	569.8
687.995	551.1
688.398	542.4
688.822	553.4
689.225	569.5
689.628	571
690.052	558.3
690.456	554.5
690.88	559.5
691.284	544.5
691.687	555.8
692.112	542.7
692.515	543.5
692.919	551.6
693.344	550.3
693.747	554.8
694.173	549.1
694.577	566.9
694.98	553.9
695.406	552.5
695.81	556.6
696.214	556.5
696.64	559.4
697.044	556.2
697.448	563.8
697.874	553.9
698.279	555.7
698.684	547.7
699.11	550.1
699.514	556.1
699.919	551.2
700.324	547
700.75	557.1
701.156	557.2
701.561	564.5
701.987	559
702.393	562.4
702.798	561.9
703.203	552.4
703.63	548.1
704.036	551.7
704.442	550.8
704.847	550.8
705.274	553.8
705.68	557.4
706.086	558.3
706.492	544.2
706.92	545.2
707.326	561.2
707.732	548.2
708.139	546.1
708.545	542.3
708.973	551
709.38	555.6
709.786	540
710.193	567.2
710.6	551.4
711.028	544.1
711.435	554.3
711.842	548.3
712.249	548.2
712.656	560.4
713.064	562.3
713.492	546.7
713.9	551.9
714.307	555.3
714.715	552.9
715.123	552.2
715.53	559.3
715.938	561.3
716.367	551.7
716.775	550.7
717.184	542.1
717.592	551.1
718	562.5
718.408	586
718.816	597.1
719.225	557.1
719.633	550.3
720.042	546.7
720.472	550
720.881	579.8
721.29	558.3
721.699	545.3
722.108	553.6
722.517	556.7
722.926	552.9
723.335	561.5
723.744	554.8
724.154	545.9
724.563	554.1
724.973	560.6
725.382	551.4
725.792	559.7
726.202	548.3
726.612	557.2
727.022	550.1
727.432	543.5
779.813	550
780.223	593.1
780.634	552.1
781.044	549.6
781.454	553.3
781.865	570.3
782.276	544.8
782.686	559.6
783.097	548.7
783.508	547.8
783.919	554.9
784.33	566.2
784.741	568
785.152	549.6
785.563	540.1
785.974	550.9
786.386	557.6
786.776	551.3
787.188	547.4
787.599	542.3
788.011	560
788.423	553.8
788.835	553.2
789.247	537.8
789.659	547.2
790.071	543.5
790.483	584.1
790.874	548
791.286	558.1
791.699	547.7
792.111	548.2
792.524	553.7
792.937	546.7
793.349	542.8
793.741	539.9
794.154	545.1
794.567	573.8
794.98	547.8
795.393	539.2
795.785	563.9
796.198	543.6
796.612	548.5
797.026	546.3
797.439	538.7
797.831	550.3
798.245	542.5
798.659	545.8
799.073	551.2
799.487	541.7
799.88	543.5
800.294	550.5
800.708	548.5
801.123	548.9
801.516	565.7
801.93	536.5
802.345	540
802.76	548.9
803.153	559.6
803.568	565.1
803.983	560.2
804.377	552.6
804.792	543.2
805.207	534.9
805.601	553
806.016	582.2
806.432	546.3
806.826	575.9
807.242	560.4
807.658	549.3
808.052	538.1
808.468	548.1
808.884	547.1
809.279	555.2
809.695	567
810.111	570.6
810.506	551.8
810.922	566.9
811.339	546.3
811.734	555.6
812.151	544.4
812.546	548
812.963	549.3
813.38	550.7
813.776	549.5
814.193	573.2
814.589	542.3
815.006	545.7
815.402	541.5
815.82	544.7
816.237	548.6
816.633	549.8
817.051	541.1
817.448	551.4
817.866	538.5
818.262	574.4
818.68	545.1
819.077	544.4
819.495	546.9
819.892	587.5
820.311	546.2
820.708	548.4
821.127	545.2
821.524	561.3
821.943	547.8
822.34	572
822.759	550
823.157	547.4
823.576	559
823.974	553.4
824.393	558.7
824.791	540.9
825.189	541.8
825.609	543.3
826.007	549.3
826.427	535.5
826.826	547.2
827.246	548.4
827.644	532.3
828.043	557.1
828.463	544.8
828.862	556.4
829.261	551
829.682	537.4
830.081	550.7
830.502	541.3
830.901	549.9
831.301	543.3
831.722	539
832.121	546.6
832.521	539.7
832.943	546.9
833.342	547.9
833.742	535.5
834.164	542
834.564	536.7
834.965	545.3
835.386	541.8
835.787	545.1
836.188	549.3
836.588	547.1
837.01	547.6
837.411	534.8
837.812	554.7
838.213	553.3
838.636	542.5
839.037	614.9
839.438	550.4
839.84	550.1
840.263	549
840.664	552.7
841.066	543
841.468	548
841.891	541.6
842.293	556.8
842.695	559.3
843.098	560.7
843.5	544.4
843.902	548.6
844.326	552.5
844.729	549
845.131	558.5
845.534	549
845.937	561.8
846.34	559.5
846.764	548.2
847.167	552.8
847.571	542.2
847.974	552.2
