#lambda/nm	C1
208.295	470.3
208.67	436.5
209.045	403.1
209.419	408.3
209.794	591.8
210.169	569
210.544	686.8
210.919	587.4
211.295	577.5
211.67	584.3
212.045	582.5
212.421	578.9
212.796	614.8
213.172	578.3
213.547	581.5
213.923	582.2
214.299	576.8
214.675	590
215.051	588.6
215.427	586.1
215.803	603.9
216.179	581.6
216.555	576.9
216.932	597.4
217.308	585.7
217.684	581.7
218.061	595.1
218.438	584.6
218.814	574.7
219.191	590.5
219.568	579.9
219.945	577.7
220.322	590.2
220.699	586.4
221.076	588.6
221.453	588.6
221.83	572
222.208	577
222.585	578.4
222.962	583.9
223.34	588.2
223.717	584.8
224.095	581.7
224.473	582.2
224.851	571.9
225.229	574.8
225.607	593.3
225.985	572.7
226.363	585.1
226.741	584.4
227.119	578.2
227.497	589.9
227.876	571.2
228.254	584.7
228.633	589.8
229.011	578
229.39	582.9
229.769	579.7
230.148	583.6
230.527	601.6
230.905	582
231.284	580.7
231.664	583.1
232.043	594.4
232.422	585.7
232.801	578.6
233.181	581.1
233.56	579.2
233.94	583.9
234.319	566.9
234.699	575.2
235.079	618.3
235.458	618.1
235.838	597.4
236.218	572.9
236.598	572.9
236.978	580.2
237.358	580.2
237.738	580.4
238.119	579.5
238.499	575.6
238.88	578.7
239.26	598.1
239.641	577.1
240.021	579.5
240.402	583.6
240.783	580.8
241.163	581.4
241.544	580.8
241.925	583.5
242.306	593.1
242.687	576.5
243.069	586.8
243.45	591.8
243.831	574.7
244.212	579.6
244.594	618.1
244.975	587.2
245.357	588.6
245.739	576.4
246.12	594.3
246.502	596.5
246.884	582.9
247.266	577.2
247.648	588.5
248.03	606.3
248.412	583.8
248.794	592
249.176	581
249.559	585.9
249.941	577.7
250.323	576.5
250.706	571.6
251.089	577.3
251.471	589.7
251.854	584.5
252.237	583.4
252.62	590.9
253.002	581.9
253.385	584.8
253.769	594.7
254.152	580.9
254.535	585.9
254.918	577
255.301	580.1
255.685	577.9
256.068	577.6
256.452	606.3
256.835	592.7
257.219	583.4
257.603	596.9
257.986	577.9
258.37	590.1
258.754	574.4
259.138	585.6
259.522	593.1
259.906	577.4
260.29	587.4
260.675	578.5
261.059	582.7
261.443	573.2
261.828	588.3
262.212	586.7
262.597	573.9
262.981	576.7
263.366	591.8
263.751	587.9
264.136	582.3
264.521	578.3
264.906	579.6
265.291	587.5
265.676	580.7
266.061	592.5
266.446	600.2
266.831	584.8
267.217	600.5
267.602	584.6
267.987	583.5
268.373	577.3
268.759	583.9
269.144	585.9
269.53	580.4
269.916	579.8
270.302	579.4
270.688	585.2
271.074	589.5
271.46	595.3
271.846	617.3
272.232	581.2
272.618	579.3
273.004	583.2
273.391	598.2
273.777	591.3
274.164	588.4
274.55	600.2
274.937	590.2
275.324	579.2
275.71	594.3
276.097	592.8
276.484	575.6
276.871	591.4
277.258	584
277.645	568.6
278.032	582
278.419	583.6
278.807	586.8
279.194	579.1
279.581	580.3
279.969	591.3
280.356	593
280.744	589
281.131	604.9
281.519	595.6
281.907	582.1
282.295	577.9
282.682	587.8
283.07	587.3
283.458	586.9
283.846	594.3
284.235	591.1
284.623	590.1
285.011	572.1
285.399	586.2
285.788	588.8
286.176	573.7
286.565	594.3
286.953	577.1
287.342	581.9
287.731	579.8
288.119	575.4
288.508	577.9
288.897	587.7
289.286	576.4
289.675	580.1
290.064	592.4
290.453	580.3
290.821	582.9
291.21	597
291.599	580.9
291.989	585
292.378	595.7
292.768	600.9
293.157	590.5
293.547	595.7
293.936	584.1
294.326	585.2
294.716	583.7
295.106	578.2
295.496	590.4
295.886	591.8
296.276	577.2
296.666	578
297.056	573.2
297.446	573.8
297.836	601.1
298.227	585.1
298.617	589.1
299.008	599.9
299.398	586.8
299.789	584.1
300.179	589.1
300.57	603.5
300.961	579.2
301.352	578.8
301.742	587.5
302.133	584.4
302.524	585.9
302.915	589.4
303.307	577
303.698	595
304.089	597.2
304.48	584.2
304.872	591.5
305.263	583.2
305.655	580.6
306.046	578.4
306.438	589.3
306.829	574.7
307.221	598.3
307.613	590.3
308.005	594.4
308.397	600.1
308.789	609.4
309.181	613.1
309.573	600.3
309.965	602.9
310.357	581.2
310.749	594.5
311.142	580.4
311.534	578.6
311.926	595.5
312.319	584.7
312.711	581.8
313.104	604
313.497	585.9
313.889	625.8
314.282	604.4
314.675	610.2
315.068	589.8
315.461	593.1
315.854	613.3
316.247	593
316.64	579.5
317.033	585.8
317.405	594.7
317.798	585.4
318.192	595.4
318.585	575.3
318.979	591.9
319.372	579.4
319.766	584.7
320.16	594.3
320.553	601.5
320.947	609.7
321.341	578.2
321.735	586.2
322.129	572.2
322.523	603.8
322.917	576.3
323.311	599
323.705	589.4
324.099	590.7
324.494	600.1
324.888	591.7
325.282	585.4
325.677	585.6
326.071	590.6
326.466	594.9
326.861	583.2
327.255	596.6
327.65	592.6
328.045	596.7
328.44	590.9
328.835	588.7
329.23	576.3
329.625	604.8
330.02	580.5
330.415	602.7
330.81	585.5
331.206	584.8
331.601	582.1
331.996	589.4
332.37	591.3
332.766	579.2
333.161	601.3
333.557	580.9
333.953	584.1
334.348	1007.4
334.744	588.8
335.14	584.6
335.536	579.6
335.932	589.6
336.328	585.9
336.724	590.5
337.12	584.3
337.516	582.3
337.913	585.7
338.309	597.6
338.705	581
339.102	593.8
339.498	581.3
339.895	601.5
340.291	579
340.688	593.9
341.085	581.7
341.481	585.4
341.878	581.6
342.275	598.8
342.672	575.3
343.069	577.6
343.466	573.6
343.842	593.6
344.239	583.4
344.636	584.6
345.033	577.4
345.431	570.9
345.828	583.8
346.225	576.8
346.623	592.9
347.02	580.6
347.418	592.3
347.816	594.7
348.213	572.7
348.611	584.3
349.009	576
349.407	590.8
349.805	567.1
350.203	576.2
350.601	590.6
350.999	576.5
351.397	574.9
351.795	580.8
352.193	593.8
352.57	586.3
352.969	588.6
353.367	572.9
353.766	576.7
354.164	578.8
354.563	594.8
354.961	582.3
355.36	575.1
355.759	579.5
356.158	569.5
356.557	575.5
356.956	574.4
357.355	569.4
357.754	584.7
358.153	582.2
358.552	601.5
358.951	581.2
359.35	588.2
359.75	576.6
360.149	571
360.527	564.7
360.926	572.7
361.326	579.1
361.726	577.8
362.125	570
362.525	583.3
362.925	575.5
363.325	585.8
363.724	581.1
364.124	583.2
364.524	569.2
364.924	575.8
365.324	587.4
365.725	563.5
366.125	585.4
366.525	579
366.904	576.1
367.304	561.4
367.705	599.8
368.105	591.8
368.506	577.6
368.906	576.4
369.307	581.3
369.708	584.7
370.108	568.2
370.509	581.6
370.91	572.2
371.311	579
371.712	580.4
372.113	578.7
372.514	567.5
372.894	576.4
373.295	570.5
373.696	588.7
374.097	589.9
374.499	604.8
374.9	582.1
375.301	567.6
375.703	579.4
376.105	574.2
376.506	582.1
376.908	587.2
377.309	578.2
377.711	577.8
378.113	571.3
378.493	578.7
378.895	571
379.297	586.4
379.699	561
380.102	584.1
380.504	573.8
380.906	572.8
381.308	604.8
381.71	573.5
382.113	584.4
382.515	575.3
382.918	581.4
383.299	577.3
383.701	583.7
384.104	578.7
384.507	563
384.909	574.1
385.312	562
385.715	563.3
386.118	572.9
386.521	567
386.924	585.3
387.327	576.5
387.709	568.4
388.112	560.2
388.515	573.9
388.918	575.4
389.322	583.1
389.725	573.1
390.129	592.6
390.532	580.2
390.936	575.3
391.339	571.4
391.743	575.6
392.125	566.8
392.529	589
392.933	589.7
393.337	580.8
393.74	577.3
394.144	577.4
394.548	564.7
394.953	571.2
395.357	581.2
395.761	572.5
396.144	576.3
396.548	575.7
396.952	574.3
397.357	570.6
397.761	569.2
398.166	573.2
398.57	571.3
398.975	563.8
399.379	576.3
399.763	625.6
400.168	573.2
400.572	573.3
400.977	575.3
401.382	594.4
401.787	585.7
402.192	593.5
402.597	596.5
403.002	568.2
403.386	592.2
403.791	595.9
404.197	575.1
404.602	576.6
405.007	574
405.413	572
405.818	571
406.224	567.5
406.608	576.5
407.014	570.5
407.42	591.7
407.825	575.7
408.231	583.6
408.637	577.5
409.043	592.1
409.449	566.8
409.834	571.6
410.24	574.7
410.646	580.3
411.052	583.1
411.458	585.9
411.865	592.5
412.271	582.7
412.677	575.8
413.062	582.3
413.469	566.6
413.875	600.6
414.282	586.1
414.689	582.9
415.095	583
415.502	568
415.888	573.7
416.294	563.1
416.701	613.9
417.108	568.2
417.515	581.7
417.923	570.3
418.33	591.3
418.715	588.8
419.123	573.6
419.53	574.6
419.937	580.5
420.345	590.6
420.752	575.7
421.16	585.6
421.546	573.6
421.953	588.3
422.361	569.5
422.769	574.3
423.177	571.8
423.585	600.8
423.992	595
424.379	589
424.787	587.8
425.195	597.1
425.603	573.9
426.011	587.3
426.419	591.9
426.806	577.2
427.214	581.1
427.623	593.3
428.031	592.3
428.44	587.3
428.848	588.1
429.235	596.5
429.644	577.5
430.053	576.3
430.461	594.5
430.87	606.6
431.279	588.3
431.666	572.4
432.075	577.7
432.484	581.2
432.893	582
433.302	600.5
433.711	619.2
434.099	587.3
434.508	576.3
434.918	571.1
435.327	589.5
435.737	586.2
436.125	582.6
436.534	577.6
436.944	586.7
437.353	583.9
437.763	601.1
438.173	576.8
438.561	592
438.971	573
439.381	586.6
439.791	589.7
440.201	569.1
440.589	588.3
440.999	590.8
441.409	587.2
441.819	579.4
442.23	589.3
442.619	596
443.029	588
443.439	591.8
443.85	598.5
444.26	610.4
444.649	601.1
445.06	597.3
445.471	587.5
445.881	594.4
446.292	608.4
446.682	614.7
447.092	584.2
447.503	643.4
447.914	599.5
448.325	595.3
448.715	592.8
449.126	589.1
449.537	596.4
449.948	598.6
450.338	605.3
450.75	601.8
451.161	602.4
451.572	604.1
451.984	596.5
452.374	583.4
452.786	595.4
453.197	605.3
453.609	609.3
453.999	587.2
454.411	590.5
454.823	610.1
455.235	606.5
455.647	601.6
456.037	609.6
456.449	589
456.862	602.7
457.274	605.1
457.665	588.9
458.077	602.9
458.489	611.8
458.902	599.6
459.293	607.4
459.705	598
460.118	594.1
460.53	604.1
460.921	602.3
461.334	608
461.747	602.1
462.16	616.2
462.551	615.8
462.964	607.3
463.377	599
463.79	598.8
464.182	609.1
464.595	594.8
465.008	609.2
465.421	603.3
465.813	597.4
466.226	606
466.64	597
467.053	642.9
467.445	613.3
467.859	602.9
468.272	602.6
468.686	614.1
469.078	592.8
469.492	587.7
469.906	605.7
470.298	608.6
470.712	595.9
471.126	633.2
471.54	587.8
471.933	596
472.347	603.4
472.761	593.5
473.175	590.6
473.568	600.9
473.982	592.4
474.397	599.4
474.79	596.8
475.204	604.8
475.619	597.5
476.033	600.4
476.426	598.6
476.841	592.8
477.256	617.8
477.649	594.9
478.064	593.2
478.479	591.5
478.872	587.9
479.287	581.8
479.702	589.8
480.118	594.9
480.511	594.3
480.927	583
481.342	587.8
481.736	596.1
482.151	592.9
482.566	601.7
482.96	602.7
483.376	607.7
483.792	591.8
484.186	601.2
484.602	592.7
485.017	598.8
485.412	592.4
485.827	601.7
486.243	587.5
486.638	617.7
487.054	602.6
487.47	608.8
487.865	595.3
488.281	591.1
488.697	591
489.092	594.9
489.508	581
489.925	602
490.32	589.4
490.736	591.5
491.153	599.2
491.548	595.1
491.964	598.8
492.381	574.6
492.776	600.5
493.193	594.1
493.61	602.4
494.006	590
494.422	598.7
494.84	583.5
495.235	599.5
495.652	598.5
496.069	589
496.465	576.9
496.883	590.2
497.3	611.3
497.696	576.2
498.113	593.3
498.509	576.7
498.927	579.7
499.344	590.4
499.741	583.8
500.158	592.9
500.576	593
500.973	588.7
501.39	577.6
501.787	577.3
502.205	587
502.623	578.6
503.02	581.1
503.438	578.8
503.856	575.9
504.253	584.6
504.671	587.8
505.068	575.9
505.486	583.1
505.905	604.6
506.302	585.7
506.72	595.3
507.118	577.4
507.536	581
507.955	583.1
508.352	590.3
508.771	585.5
509.169	592
509.587	574.4
510.006	580.5
510.404	570.9
510.823	573.7
511.221	578.7
511.64	570.5
512.038	595.3
512.457	582.8
512.877	580.7
513.275	576.2
513.694	578.8
514.092	576.5
514.512	581.4
514.91	581.2
515.33	580.4
515.749	575.8
516.148	581.6
516.568	578.5
516.966	576.2
517.386	570.7
517.785	579.9
518.205	574
518.603	568.7
519.024	567.5
519.444	580
519.843	583.4
520.263	580.8
520.662	582.8
521.082	574.4
521.481	573.9
521.902	572.3
522.301	577.6
522.722	579.7
523.121	572.1
523.542	570.4
523.963	573.7
524.362	576.3
524.783	576.4
525.183	571.6
525.604	577.9
526.003	567.3
526.425	568.5
526.824	582.5
527.246	586.7
527.646	590.8
528.067	575.5
528.467	577.2
528.888	576.7
529.289	574.2
529.71	572.6
530.11	569.9
530.532	570.5
530.932	566.6
531.354	565.8
531.755	601.8
532.176	581.1
532.577	574.5
532.999	576.3
533.4	568.5
533.822	584.2
534.223	570.7
534.645	573.4
535.046	566.3
535.468	575.2
535.869	584.2
536.292	571.4
536.693	569
537.115	571.1
537.516	564
537.939	574.5
538.34	587.6
538.742	577.2
539.165	568.6
539.566	576.5
539.989	566.6
540.391	565.2
540.814	566.7
541.216	563.7
541.639	570.5
542.041	579.6
542.464	567.7
542.866	568.3
543.268	564.8
543.691	574.2
544.093	582.7
544.517	592.2
544.919	561
545.343	595
545.745	562.2
546.147	569.6
546.571	564.5
546.974	564.9
547.398	570.8
547.8	581.5
548.224	562.5
548.627	559.4
549.03	573.7
549.454	563.1
549.857	554.5
550.281	564.1
550.684	564.7
551.087	582.3
551.512	566.1
551.915	577.8
552.34	561
552.743	560
553.146	574.3
553.571	566.2
553.975	587.8
554.399	555.9
554.803	615.6
555.207	564.8
555.632	559.3
556.036	569.8
556.461	558.2
556.865	561.5
557.268	558.4
557.694	560.6
558.098	571.3
558.502	567.2
558.927	556.2
559.332	563.5
559.736	568.7
560.162	575.1
560.566	568.8
560.992	573.8
561.396	562.9
561.801	564
562.227	571.8
562.631	564.6
563.036	565.6
563.462	574.1
563.867	573
564.272	553.2
564.698	568.1
565.103	559.4
565.508	583.7
565.935	572.3
566.34	564.7
566.745	572.9
567.172	562.6
567.577	585.6
567.982	574.5
568.409	567
568.815	556.8
569.22	569.6
569.626	576.9
570.053	554.4
570.459	558.1
570.865	568.1
571.292	569.3
571.698	568.9
572.104	548.5
572.531	561.4
572.937	573.7
573.343	562.8
573.75	568.6
574.177	564.6
574.583	568.5
574.99	562.9
575.396	566.1
575.824	560.6
576.231	567.9
576.637	559.8
577.065	584.5
577.472	559.7
577.879	561.7
578.286	582.9
578.714	554
579.121	556.5
579.528	565.9
579.935	571.5
580.364	566.3
580.771	546.9
581.178	553.9
581.585	563.9
582.014	567.2
582.421	555.5
582.829	557.5
583.236	569.2
583.644	557.6
584.073	560.2
584.481	563.8
584.889	558
585.296	566.8
585.726	566.8
586.134	551.6
586.542	556.2
586.95	582.5
587.358	553.2
587.787	560.2
588.196	545.7
588.604	559.8
589.012	564.1
589.421	551.9
589.851	557.9
590.259	562.1
590.668	557.4
591.076	595
591.485	551.6
591.894	557.9
592.324	574.7
592.733	573.8
593.142	552.2
593.551	562.6
593.96	593.1
594.369	548.2
594.8	552.8
595.209	556.4
595.618	546.3
596.028	551.3
596.437	550.3
596.847	561.5
597.256	565.6
597.687	561.4
598.097	561.4
598.507	548.8
598.917	560.8
599.327	564.4
599.736	563.4
600.146	571.1
600.556	561.2
600.988	573.7
601.398	548.1
601.808	570.9
602.219	550.4
602.629	560.8
603.039	566.8
603.45	586.6
603.86	564.9
604.271	580.8
604.703	564.1
605.114	556.4
605.525	563.9
605.935	562.6
606.346	578.7
606.757	565.4
607.168	564.1
607.579	553.2
607.99	573.8
608.402	561
608.813	562.8
609.224	552.5
609.636	555.4
610.047	551.2
610.48	555.8
610.892	564.1
611.303	564.1
611.715	554.5
612.127	548.6
612.539	557.8
612.95	560
613.362	551.1
613.774	553.8
614.186	554.6
614.599	553.7
615.011	568.9
615.423	544.5
615.835	552.4
616.248	548.1
616.66	560.5
617.073	547.4
617.485	552.9
617.898	563
618.311	556.5
618.723	553.1
619.136	583.6
619.549	569.4
619.962	576.9
620.375	552.6
620.788	561.9
621.201	556
621.614	560.4
622.028	563.1
622.441	563.7
622.854	566
623.268	550
623.681	559.5
624.095	557
624.509	565.1
624.922	568.9
625.336	543.7
625.728	562.6
626.142	561.6
626.556	578.9
626.97	563.5
627.384	557.8
627.799	560.6
628.213	567.7
628.627	550.2
629.041	547.7
629.456	553.1
629.87	556.7
630.285	564.3
630.699	564.9
631.093	553.5
631.507	558.6
631.922	560.2
632.337	572.6
632.752	546.7
633.167	553.1
633.582	559.3
633.997	552.2
634.412	554.9
634.806	562.7
635.221	550.9
635.637	565.1
636.052	545.8
636.468	560.1
636.883	579.3
637.299	556.1
637.715	544.4
638.109	553.9
638.525	550.5
638.941	568.4
639.357	555.5
639.773	568.4
640.189	547.8
640.584	557.8
641	562.4
641.416	550.7
641.832	556.2
642.249	554.7
642.665	556.9
643.06	560.9
643.477	567.3
643.894	542.3
644.31	554.4
644.727	557
645.123	553
645.54	546.2
645.957	559.2
646.374	563.5
646.77	552.2
647.187	590.6
647.604	559.9
648.021	541.5
648.439	545
648.835	559.4
649.252	558.7
649.67	554.9
650.088	558.8
650.484	558.6
650.902	561.2
651.32	563.4
651.738	553.4
652.134	554
652.552	579.5
652.971	559.5
653.389	554.9
653.786	562.8
654.204	554.2
654.622	547.5
655.019	550.4
655.438	565.5
655.857	561.7
656.275	561.2
656.673	545.7
657.091	617.6
657.51	551.7
657.908	561.2
658.327	574.7
658.746	546.4
659.144	555.8
659.563	563.2
659.982	559.8
660.38	552.5
660.8	559.7
661.219	570.2
661.617	561.1
662.037	560.1
662.457	562.9
662.855	543.5
663.275	589.1
663.695	560.8
664.094	556.7
664.514	560.8
664.934	545
665.333	563.1
665.753	557.9
666.152	549.3
666.572	551.4
666.993	569.2
667.392	551.6
667.812	551.2
668.212	550.4
668.632	569.7
669.053	553.6
669.453	560.7
669.874	561.9
670.273	558.6
670.694	551.4
671.116	569
671.515	566
671.937	558.7
672.337	556.2
672.758	554.4
673.158	566.5
673.58	549.9
673.98	558.5
674.402	568.1
674.824	553.5
675.224	551.6
675.646	543.5
676.047	549.5
676.469	550
676.869	565.9
677.292	557.9
677.693	544.6
678.115	554
678.516	557.6
678.939	562
679.34	551.8
679.762	562.6
680.164	563.5
680.586	550.5
680.988	559.9
681.411	581.6
681.812	553.6
682.236	549.4
682.637	551.9
683.061	541.8
683.462	556.7
683.864	553.2
684.288	560.9
684.69	544.8
685.114	565.3
685.516	560.7
685.94	546.4
686.342	564.1
686.766	549.4
687.168	547.1
687.571	570.8
687.995	551.3
688.398	541.1
688.822	550.8
689.225	571.1
689.628	568.3
690.052	553
690.456	558
690.88	554.5
691.284	542.7
691.687	562.4
692.112	547.2
692.515	551.1
692.919	557.9
693.344	553.4
693.747	553.1
694.173	551.4
694.577	566.5
694.98	550.6
695.406	553.3
695.81	554.8
696.214	559.8
696.64	557.4
697.044	557.4
697.448	564.2
697.874	557.4
698.279	552.4
698.684	542.5
699.11	551.6
699.514	545.6
699.919	547.5
700.324	547.2
700.75	551.9
701.156	546.7
701.561	561.8
701.987	556.3
702.393	563.2
702.798	567.6
703.203	553.8
703.63	546.6
704.036	547.2
704.442	548.1
704.847	542.8
705.274	544.3
705.68	558.3
706.086	562.3
706.492	547.9
706.92	550.1
707.326	563.6
707.732	551.5
708.139	544.3
708.545	543.3
708.973	553
709.38	553.4
709.786	539.1
710.193	566.9
710.6	550.8
711.028	539
711.435	545.8
711.842	551.7
712.249	549.4
712.656	551.1
713.064	562.5
713.492	543.6
713.9	549.1
714.307	552.9
714.715	553.7
715.123	554.9
715.53	552.4
715.938	555.9
716.367	553.6
716.775	551.3
717.184	549.4
717.592	546.3
718	564.9
718.408	582.4
718.816	599
719.225	554.3
719.633	556.5
720.042	544.8
720.472	555.9
720.881	567.1
721.29	557.9
721.699	543.7
722.108	552.7
722.517	556.2
722.926	545
723.335	562.7
723.744	551
724.154	550.6
724.563	554.4
724.973	552.7
725.382	553.4
725.792	551.6
726.202	543.1
726.612	561.6
727.022	555.3
727.432	547
779.813	548
780.223	587.4
780.634	551.6
781.044	547.8
781.454	553.2
781.865	560.2
782.276	542.7
782.686	557.2
783.097	549.1
783.508	545.1
783.919	553.1
784.33	567.4
784.741	564.7
785.152	543.8
785.563	543.8
785.974	544.7
786.386	565.2
786.776	547.5
787.188	554.7
787.599	545.4
788.011	561.1
788.423	556.2
788.835	543.1
789.247	541.6
789.659	548
790.071	547
790.483	589.9
790.874	552.7
791.286	554.4
791.699	544.4
792.111	555.1
792.524	556.4
792.937	551.7
793.349	542
793.741	549.2
794.154	544.4
794.567	575
794.98	551.3
795.393	535.2
795.785	569.4
796.198	548.4
796.612	552.2
797.026	550.4
797.439	538.3
797.831	549.8
798.245	540.8
798.659	545.1
799.073	554.1
799.487	551.3
799.88	556.8
800.294	549.4
800.708	555.2
801.123	550.1
801.516	569.7
801.93	542.3
802.345	538
802.76	555.2
803.153	565.6
803.568	567.6
803.983	555.2
804.377	554.9
804.792	537.6
805.207	539
805.601	551.3
806.016	578.2
806.432	550
806.826	574.8
807.242	564.2
807.658	555.9
808.052	546.5
808.468	544.9
808.884	553.4
809.279	552.6
809.695	565.5
810.111	573.5
810.506	554.7
810.922	569.2
811.339	539.5
811.734	561.5
812.151	546.1
812.546	547.4
812.963	548.3
813.38	556.3
813.776	551.7
814.193	568.7
814.589	541.1
815.006	545.6
815.402	546.6
815.82	545.8
816.237	551.8
816.633	553.4
817.051	539.9
817.448	557
817.866	539.1
818.262	571.4
818.68	541.4
819.077	546.5
819.495	547.8
819.892	583.1
820.311	542.5
820.708	546.5
821.127	550
821.524	560.2
821.943	551.4
822.34	565.5
822.759	554.5
823.157	547.9
823.576	562
823.974	558.1
824.393	553.6
824.791	544.7
825.189	543.1
825.609	544.7
826.007	546.8
826.427	538.7
826.826	552.3
827.246	554.8
827.644	540.5
828.043	560.7
828.463	545.6
828.862	555.6
829.261	550.1
829.682	543.4
830.081	559.1
830.502	543.9
830.901	555.2
831.301	544.4
831.722	539.4
832.121	544.9
832.521	541.7
832.943	544.5
833.342	552.5
833.742	546.4
834.164	546.4
834.564	540.9
834.965	543.6
835.386	544.9
835.787	553.2
836.188	549.1
836.588	548.2
837.01	545.2
837.411	543.5
837.812	556.1
838.213	552.1
838.636	544.4
839.037	611.4
839.438	552.5
839.84	550.1
840.263	556.5
840.664	551.2
841.066	547.6
841.468	548
841.891	545.7
842.293	557.1
842.695	552.2
843.098	557.5
843.5	549.2
843.902	551.9
844.326	553.2
844.729	547.5
845.131	564.6
845.534	551.8
845.937	557.8
