#lambda/nm	C1
208.295	468.9
208.67	441.5
209.045	398.1
209.419	406
209.794	578
210.169	552.8
210.544	665.7
210.919	569.1
211.295	561.9
211.67	576.8
212.045	566.8
212.421	570.1
212.796	606
213.172	566.3
213.547	569.2
213.923	565.1
214.299	565.2
214.675	578
215.051	569.5
215.427	578
215.803	587.9
216.179	570.3
216.555	560
216.932	582.3
217.308	571.7
217.684	568.6
218.061	578.1
218.438	572.4
218.814	563.5
219.191	569.9
219.568	563.5
219.945	568.9
220.322	572.3
220.699	568.1
221.076	580.9
221.453	571.7
221.83	563.3
222.208	571.2
222.585	562
222.962	570.2
223.34	574.9
223.717	570
224.095	567
224.473	573.4
224.851	567.3
225.229	561.7
225.607	587.4
225.985	565
226.363	568
226.741	568.8
227.119	567.6
227.497	579.3
227.876	560.3
228.254	580.3
228.633	576.8
229.011	572
229.39	572.8
229.769	571.8
230.148	575.9
230.527	583
230.905	569.8
231.284	566.8
231.664	569.2
232.043	583
232.422	573.1
232.801	566.2
233.181	572
233.56	566.8
233.94	567.6
234.319	558.3
234.699	569.2
235.079	605.2
235.458	600.3
235.838	587.9
236.218	566.2
236.598	558.8
236.978	562.8
237.358	559.1
237.738	560.4
238.119	572.5
238.499	556.9
238.88	571.6
239.26	583
239.641	560.1
240.021	562.7
240.402	567
240.783	567.1
241.163	570.1
241.544	569.9
241.925	567.5
242.306	581.7
242.687	563.7
243.069	568.4
243.45	578.3
243.831	557.2
244.212	575
244.594	599.5
244.975	578.7
245.357	574.9
245.739	566.1
246.12	575.9
246.502	581.5
246.884	565.8
247.266	563.5
247.648	573.4
248.03	586.6
248.412	572.4
248.794	573.8
249.176	565.5
249.559	580.6
249.941	562.9
250.323	559.6
250.706	561.2
251.089	568.1
251.471	570.5
251.854	568.4
252.237	570.2
252.62	575.4
253.002	569.4
253.385	564.6
253.769	583.9
254.152	565.3
254.535	573.9
254.918	558.8
255.301	575
255.685	564.4
256.068	565.2
256.452	590.2
256.835	573
257.219	577
257.603	581.6
257.986	561
258.37	566.7
258.754	564
259.138	572.8
259.522	577.4
259.906	561.6
260.29	577.2
260.675	565.3
261.059	573.9
261.443	561.3
261.828	576.5
262.212	575.2
262.597	551.8
262.981	566.9
263.366	576.6
263.751	565.7
264.136	563.3
264.521	569.4
264.906	564.1
265.291	581.1
265.676	573.4
266.061	574.4
266.446	586.8
266.831	573.7
267.217	589.5
267.602	575.9
267.987	575.1
268.373	565.4
268.759	575
269.144	576.5
269.53	569.7
269.916	568.8
270.302	569
270.688	575.7
271.074	574.2
271.46	579
271.846	605.4
272.232	571.9
272.618	571.1
273.004	571.5
273.391	576.8
273.777	583.2
274.164	574.8
274.55	588.3
274.937	573.9
275.324	566.2
275.71	578.5
276.097	577.6
276.484	564
276.871	570.9
277.258	572.5
277.645	555.5
278.032	566.4
278.419	564.7
278.807	574.1
279.194	564.8
279.581	562
279.969	573.1
280.356	573
280.744	567.6
281.131	593.5
281.519	578.3
281.907	569.3
282.295	566.3
282.682	582.3
283.07	570.7
283.458	578
283.846	583.3
284.235	577.3
284.623	584
285.011	559
285.399	572.3
285.788	565.1
286.176	556
286.565	580.6
286.953	564.8
287.342	564.3
287.731	564.4
288.119	559.6
288.508	569.1
288.897	567.9
289.286	559
289.675	573.2
290.064	571.5
290.453	561.4
290.821	569.5
291.21	581.1
291.599	566.3
291.989	571.9
292.378	577.1
292.768	590.8
293.157	573.7
293.547	575.6
293.936	572
294.326	568.9
294.716	575
295.106	568
295.496	576.1
295.886	573.9
296.276	572.3
296.666	562.6
297.056	563.7
297.446	560.7
297.836	580.1
298.227	565.8
298.617	571.3
299.008	581.8
299.398	570.2
299.789	567.3
300.179	578.3
300.57	582.4
300.961	567.2
301.352	566.6
301.742	575.7
302.133	567.5
302.524	571.3
302.915	571.8
303.307	562.1
303.698	577.2
304.089	574
304.48	567.5
304.872	570.3
305.263	569.6
305.655	558.6
306.046	572.6
306.438	575.9
306.829	568.6
307.221	587.2
307.613	575
308.005	584
308.397	582.5
308.789	597.5
309.181	593.1
309.573	588.7
309.965	579.1
310.357	568.9
310.749	573.9
311.142	558
311.534	561
311.926	578.4
312.319	572
312.711	565.1
313.104	587.8
313.497	570.9
313.889	610.5
314.282	586.3
314.675	596.7
315.068	572.9
315.461	579.6
315.854	597
316.247	573.9
316.64	574.9
317.033	576.1
317.405	579.7
317.798	567
318.192	575.3
318.585	562.9
318.979	574.8
319.372	568.2
319.766	567.4
320.16	581.4
320.553	582.3
320.947	591
321.341	568.7
321.735	571.9
322.129	563.1
322.523	594.2
322.917	567.9
323.311	579.6
323.705	570.7
324.099	576.8
324.494	587.2
324.888	577.5
325.282	571.1
325.677	576.3
326.071	573.5
326.466	582.8
326.861	578.1
327.255	580.4
327.65	578.6
328.045	583.2
328.44	570.5
328.835	568.3
329.23	563.3
329.625	592.1
330.02	564.3
330.415	591
330.81	571.3
331.206	575.6
331.601	562.3
331.996	578.9
332.37	578.4
332.766	554.7
333.161	590
333.557	564.6
333.953	572.4
334.348	899.7
334.744	569
335.14	565.3
335.536	562.6
335.932	579.9
336.328	569.5
336.724	572.8
337.12	569.7
337.516	575
337.913	570.2
338.309	583.9
338.705	570.5
339.102	579.5
339.498	565
339.895	584.7
340.291	570.4
340.688	575.8
341.085	567.5
341.481	560.6
341.878	562.6
342.275	584.8
342.672	564.1
343.069	569
343.466	557
343.842	574.9
344.239	567.9
344.636	571.8
345.033	565.4
345.431	562.9
345.828	571
346.225	562.4
346.623	580.3
347.02	569.3
347.418	577.4
347.816	587.6
348.213	559.3
348.611	573.9
349.009	563.5
349.407	582.5
349.805	561.7
350.203	559
350.601	580.4
350.999	565
351.397	561.8
351.795	567.9
352.193	573.9
352.57	571.6
352.969	579.2
353.367	559.1
353.766	564.6
354.164	568.4
354.563	573.1
354.961	566.9
355.36	566.4
355.759	566.9
356.158	561.2
356.557	561.3
356.956	559.6
357.355	556.4
357.754	568.9
358.153	573.1
358.552	592.1
358.951	562.1
359.35	573.9
359.75	567.5
360.149	560.6
360.527	552.2
360.926	560.2
361.326	568.8
361.726	569.2
362.125	563.2
362.525	572.6
362.925	568.3
363.325	563.3
363.724	572.7
364.124	560.9
364.524	560.4
364.924	561.2
365.324	577.5
365.725	555
366.125	566
366.525	565.8
366.904	559.6
367.304	553.5
367.705	584.5
368.105	577.9
368.506	564.6
368.906	564.4
369.307	571.8
369.708	566.2
370.108	555.3
370.509	573.3
370.91	562.2
371.311	566.6
371.712	572.5
372.113	559.4
372.514	548.8
372.894	558.4
373.295	559.8
373.696	572.6
374.097	572.4
374.499	588.2
374.9	561.6
375.301	548.7
375.703	565.3
376.105	557.5
376.506	568.2
376.908	566.5
377.309	564.5
377.711	565.9
378.113	556.5
378.493	561.7
378.895	557.4
379.297	573.6
379.699	554.3
380.102	567.8
380.504	563.6
380.906	560.7
381.308	585.9
381.71	563.2
382.113	568.7
382.515	566.5
382.918	565.7
383.299	562.5
383.701	568
384.104	564
384.507	546.9
384.909	555.1
385.312	550.6
385.715	548.8
386.118	561.3
386.521	553.4
386.924	568.9
387.327	556.2
387.709	547.8
388.112	544.7
388.515	563.9
388.918	559.8
389.322	566.1
389.725	555.7
390.129	581.1
390.532	562.3
390.936	554.7
391.339	554.4
391.743	567.1
392.125	559.3
392.529	564.2
392.933	571.6
393.337	563.8
393.74	567.8
394.144	567.5
394.548	557.8
394.953	559.7
395.357	565.4
395.761	559.4
396.144	563.3
396.548	561.1
396.952	563.7
397.357	564.3
397.761	561.3
398.166	555.7
398.57	561.6
398.975	552
399.379	569.4
399.763	606.5
400.168	565.7
400.572	560.8
400.977	558.6
401.382	577.8
401.787	573.8
402.192	567.4
402.597	576.3
403.002	550.4
403.386	576.8
403.791	580.5
404.197	558.7
404.602	562.9
405.007	552.6
405.413	556.7
405.818	556.6
406.224	555.1
406.608	560.8
407.014	556.1
407.42	574.7
407.825	551.6
408.231	573.8
408.637	570.1
409.043	575.9
409.449	557.1
409.834	556.4
410.24	564.6
410.646	572.1
411.052	571.7
411.458	567.7
411.865	568.8
412.271	570.5
412.677	558.5
413.062	573
413.469	552.1
413.875	591.2
414.282	573.3
414.689	562.2
415.095	571.8
415.502	555.9
415.888	566.4
416.294	549.2
416.701	597.9
417.108	559.1
417.515	569.7
417.923	565.4
418.33	576.6
418.715	569.8
419.123	561.4
419.53	560.9
419.937	563.2
420.345	577
420.752	560.3
421.16	572.8
421.546	562.7
421.953	563.7
422.361	555
422.769	565.1
423.177	559
423.585	583.7
423.992	576
424.379	572.4
424.787	576.6
425.195	581.7
425.603	561.3
426.011	570.3
426.419	574.9
426.806	565.7
427.214	565.9
427.623	575.8
428.031	583.6
428.44	566.4
428.848	572.3
429.235	580.2
429.644	571.7
430.053	562.7
430.461	581
430.87	593.1
431.279	573.5
431.666	565
432.075	573.9
432.484	581.9
432.893	571.8
433.302	597.1
433.711	620.8
434.099	588
434.508	586
434.918	587.5
435.327	606.6
435.737	602.4
436.125	612.8
436.534	621.8
436.944	626.6
437.353	635.7
437.763	653.7
438.173	637
438.561	662.5
438.971	644.1
439.381	663.5
439.791	669.8
440.201	656.1
440.589	691.4
440.999	699.3
441.409	700.3
441.819	694.7
442.23	718.5
442.619	725
443.029	726.6
443.439	737.8
443.85	747.3
444.26	753.4
444.649	751.3
445.06	751.9
445.471	747.2
445.881	760.1
446.292	784
446.682	787.9
447.092	764.7
447.503	822.3
447.914	791.4
448.325	791
448.715	798
449.126	791.7
449.537	790.7
449.948	806.2
450.338	799
450.75	814
451.161	811.4
451.572	816.5
451.984	818.2
452.374	804
452.786	820.9
453.197	828.5
453.609	840.4
453.999	828.2
454.411	825.5
454.823	841.7
455.235	829.2
455.647	831.6
456.037	836.6
456.449	819.6
456.862	838.7
457.274	842.4
457.665	828.7
458.077	845.5
458.489	844.6
458.902	834.6
459.293	848.2
459.705	847.7
460.118	829.6
460.53	838.8
460.921	837
461.334	852
461.747	840.5
462.16	856.8
462.551	858.7
462.964	860
463.377	831.9
463.79	845.9
464.182	850.9
464.595	844.6
465.008	842.1
465.421	845.7
465.813	836.9
466.226	838.9
466.64	835.5
467.053	870.1
467.445	840
467.859	839.9
468.272	835.2
468.686	851.2
469.078	826.5
469.492	826.9
469.906	837.6
470.298	846.3
470.712	823.7
471.126	864.3
471.54	819.1
471.933	819.9
472.347	823.5
472.761	818.1
473.175	816.1
473.568	819.5
473.982	816.3
474.397	817.1
474.79	824.9
475.204	832.3
475.619	813.9
476.033	822.7
476.426	820.9
476.841	811.6
477.256	832.1
477.649	805.8
478.064	799
478.479	807.8
478.872	798.5
479.287	792.1
479.702	806.5
480.118	812.6
480.511	805.8
480.927	796.7
481.342	792.1
481.736	805.9
482.151	796.4
482.566	813
482.96	800
483.376	810.3
483.792	793.4
484.186	798.4
484.602	789.8
485.017	787.6
485.412	785.4
485.827	797.4
486.243	792.8
486.638	814.9
487.054	801.3
487.47	802.6
487.865	789
488.281	783.8
488.697	780.4
489.092	784.9
489.508	776.5
489.925	785.7
490.32	775.8
490.736	780
491.153	781.2
491.548	773.7
491.964	782.8
492.381	767.9
492.776	774.3
493.193	770.2
493.61	774.3
494.006	769.3
494.422	769.5
494.84	755.8
495.235	766
495.652	754
496.069	762.8
496.465	750.6
496.883	757.5
497.3	775.9
497.696	748.2
498.113	755.7
498.509	726
498.927	733.3
499.344	736.2
499.741	727.5
500.158	744.2
500.576	745.9
500.973	734.8
501.39	720
501.787	723.7
502.205	730.9
502.623	731.2
503.02	716
503.438	719.1
503.856	723.6
504.253	724
504.671	720.1
505.068	719.5
505.486	711.7
505.905	738.1
506.302	714.4
506.72	725.9
507.118	708.8
507.536	709.2
507.955	708.9
508.352	715.1
508.771	707.9
509.169	709.7
509.587	701.7
510.006	705
510.404	694.1
510.823	695.8
511.221	693.7
511.64	701.3
512.038	708.6
512.457	690.6
512.877	690.1
513.275	685.9
513.694	694.4
514.092	684.6
514.512	688.9
514.91	684.8
515.33	684.4
515.749	684.4
516.148	681.1
516.568	687
516.966	679.2
517.386	676.2
517.785	674.3
518.205	677.6
518.603	665
519.024	661.7
519.444	665.1
519.843	674.1
520.263	666.8
520.662	667.3
521.082	663.6
521.481	664.2
521.902	665.8
522.301	660.8
522.722	662.4
523.121	658.1
523.542	653.6
523.963	652
524.362	654.9
524.783	656.4
525.183	648.9
525.604	651.5
526.003	648.4
526.425	642.1
526.824	651.2
527.246	652.8
527.646	649.3
528.067	645.1
528.467	645.1
528.888	642.9
529.289	643.4
529.71	640.6
530.11	634.1
530.532	628.8
530.932	631.2
531.354	630.8
531.755	670.5
532.176	640.3
532.577	638.1
532.999	634.1
533.4	626
533.822	645
534.223	623.6
534.645	629.5
535.046	629.1
535.468	626.3
535.869	639.8
536.292	620.1
536.693	624.1
537.115	623.5
537.516	612
537.939	624.5
538.34	635.8
538.742	634.8
539.165	617.2
539.566	623.7
539.989	613.4
540.391	616.8
540.814	620.4
541.216	617.1
541.639	618
542.041	621.9
542.464	612.3
542.866	614.9
543.268	608.7
543.691	616.9
544.093	619.6
544.517	627.2
544.919	609
545.343	636.2
545.745	607.5
546.147	609.9
546.571	606.3
546.974	601.3
547.398	613.3
547.8	623.4
548.224	603.5
548.627	599.3
549.03	608.9
549.454	602.3
549.857	595.9
550.281	603.8
550.684	601.8
551.087	612.2
551.512	611.8
551.915	607.2
552.34	604.5
552.743	602.4
553.146	599.4
553.571	602
553.975	617.5
554.399	589
554.803	642.9
555.207	593.4
555.632	586.6
556.036	606.6
556.461	587.6
556.865	599.6
557.268	587.2
557.694	590.2
558.098	594.6
558.502	596.2
558.927	583.9
559.332	589.9
559.736	593.7
560.162	601.1
560.566	587.2
560.992	600
561.396	591.9
561.801	585.8
562.227	594.5
562.631	588.8
563.036	585
563.462	589.9
563.867	587.9
564.272	571.2
564.698	586
565.103	569.2
565.508	597.3
565.935	586.2
566.34	581.3
566.745	590.5
567.172	577.1
567.577	592.8
567.982	594.3
568.409	594.6
568.815	574.5
569.22	580.3
569.626	591.2
570.053	564.3
570.459	580.7
570.865	583.8
571.292	582.3
571.698	581.3
572.104	563.9
572.531	575.2
572.937	586.4
573.343	578.6
573.75	572.9
574.177	574
574.583	586.8
574.99	573.6
575.396	583.7
575.824	567.2
576.231	578.2
576.637	567.5
577.065	595.5
577.472	567.5
577.879	570.3
578.286	583.4
578.714	560.4
579.121	561
579.528	574.4
579.935	578.5
580.364	572.6
580.771	559.2
581.178	560.2
581.585	578.4
582.014	575.1
582.421	561.2
582.829	564
583.236	582.1
583.644	564.7
584.073	566.3
584.481	567.2
584.889	562.7
585.296	577.2
585.726	571.7
586.134	562.6
586.542	568
586.95	584.7
587.358	558.7
587.787	565.6
588.196	559.4
588.604	561.2
589.012	565.2
589.421	559.5
589.851	558.7
590.259	567.5
590.668	559.8
591.076	598.2
591.485	558.4
591.894	564
592.324	575.1
592.733	575.5
593.142	553.6
593.551	558.4
593.96	592.8
594.369	555.8
594.8	549.9
595.209	554
595.618	544.8
596.028	557.7
596.437	553.9
596.847	555.9
597.256	563.4
597.687	561.1
598.097	561.2
598.507	551.1
598.917	564.8
599.327	566.3
599.736	557.2
600.146	562.5
600.556	559.7
600.988	569.1
601.398	552.2
601.808	569.8
602.219	547.3
602.629	561.1
603.039	562
603.45	577.6
603.86	558.2
604.271	566.1
604.703	555.7
605.114	553.1
605.525	557.8
605.935	560.2
606.346	578.7
606.757	559.2
607.168	552.9
607.579	546.5
607.99	570.9
608.402	552.1
608.813	560
609.224	549
609.636	548.9
610.047	544.8
610.48	552.9
610.892	558.7
611.303	562.2
611.715	555.2
612.127	546.7
612.539	551.1
612.95	555.7
613.362	540.4
613.774	542
614.186	547.2
614.599	548
615.011	559.4
615.423	549.1
615.835	545.3
616.248	545.4
616.66	558.6
617.073	543.8
617.485	549.1
617.898	559.3
618.311	553.9
618.723	551.6
619.136	570.6
619.549	564.7
619.962	570.3
620.375	544.7
620.788	549.2
621.201	551.3
621.614	555.7
622.028	548.3
622.441	551.4
622.854	563.1
623.268	541.8
623.681	552.9
624.095	549.9
624.509	554.8
624.922	556.6
625.336	538.6
625.728	552.7
626.142	558.3
626.556	563.7
626.97	554.6
627.384	544.6
627.799	548.9
628.213	564.3
628.627	548.6
629.041	548.2
629.456	547.2
629.87	553.9
630.285	559
630.699	556.3
631.093	550.6
631.507	554.3
631.922	553.8
632.337	560.3
632.752	541.5
633.167	552.3
633.582	546.3
633.997	547.9
634.412	544.2
634.806	549.3
635.221	539.8
635.637	556.2
636.052	540.8
636.468	548.4
636.883	563.8
637.299	551.7
637.715	533.8
638.109	547.7
638.525	533.4
638.941	562.4
639.357	553.8
639.773	559.3
640.189	544.6
640.584	549.5
641	555.8
641.416	538.4
641.832	547.3
642.249	544.4
642.665	548
643.06	554.7
643.477	552
643.894	539.5
644.31	542.4
644.727	549.6
645.123	545.3
645.54	544.7
645.957	551
646.374	553.3
646.77	545.9
647.187	573.8
647.604	549.3
648.021	532.1
648.439	542.5
648.835	549.9
649.252	550.6
649.67	549
650.088	552.1
650.484	550.5
650.902	548.3
651.32	552.5
651.738	547.5
652.134	548.2
652.552	561
652.971	550.8
653.389	544.8
653.786	558
654.204	548.9
654.622	539.9
655.019	546.8
655.438	554.5
655.857	548
656.275	551
656.673	542.8
657.091	608.2
657.51	542.4
657.908	554.5
658.327	564.7
658.746	529.2
659.144	542.4
659.563	557.7
659.982	552.3
660.38	538.6
660.8	545.8
661.219	555.8
661.617	548.9
662.037	542.4
662.457	555.5
662.855	537.1
663.275	573.9
663.695	547.9
664.094	539
664.514	542.3
664.934	536.8
665.333	549.5
665.753	543.8
666.152	534.1
666.572	539.6
666.993	554.5
667.392	540.8
667.812	548.8
668.212	533.5
668.632	552.2
669.053	540.2
669.453	549.1
669.874	545.1
670.273	543
670.694	537.7
671.116	557.9
671.515	553
671.937	543.1
672.337	538.8
672.758	541
673.158	547.1
673.58	535.9
673.98	543.7
674.402	554.8
674.824	541.7
675.224	540.8
675.646	531.3
676.047	540.5
676.469	543.1
676.869	552
677.292	541.4
677.693	533.3
678.115	540.3
678.516	547.9
678.939	544.8
679.34	544.5
679.762	553.3
680.164	553.2
680.586	538.3
680.988	550.1
681.411	566.7
681.812	540.7
682.236	535.2
682.637	533.9
683.061	535.1
683.462	546.2
683.864	538.2
684.288	547.7
684.69	541.6
685.114	552.8
685.516	552.3
685.94	533.5
686.342	551.7
686.766	539
687.168	539.8
687.571	555.4
687.995	545.4
688.398	534.4
688.822	545.3
689.225	555.1
689.628	551
690.052	545.5
690.456	545.9
690.88	543.6
691.284	537.8
691.687	542.6
692.112	535
692.515	537
692.919	544.7
693.344	545.1
693.747	543.5
694.173	538.8
694.577	555.6
694.98	545.8
695.406	536.2
695.81	542.2
696.214	549.2
696.64	547.1
697.044	538.6
697.448	551.1
697.874	539
698.279	544.1
698.684	532.8
699.11	533.9
699.514	534.6
699.919	533.6
700.324	533.7
700.75	540.8
701.156	547.8
701.561	550.1
701.987	542.1
702.393	552
702.798	551.4
703.203	543.9
703.63	536.2
704.036	538.1
704.442	542
704.847	535
705.274	539.3
705.68	546.2
706.086	549.3
706.492	530
706.92	541
707.326	553.4
707.732	539.5
708.139	529.8
708.545	530.4
708.973	534.3
709.38	541.8
709.786	531.2
710.193	556.6
710.6	542.5
711.028	532.7
711.435	536.1
711.842	539.1
712.249	533.3
712.656	537.2
713.064	550.4
713.492	537
713.9	542.2
714.307	544.9
714.715	535
715.123	538.5
715.53	542.2
715.938	549.5
716.367	542.1
716.775	538.9
717.184	532.8
717.592	537.9
718	547.6
718.408	568.1
718.816	577.1
719.225	544.4
719.633	538.5
720.042	535
720.472	533.5
720.881	558.7
721.29	544.1
721.699	534.9
722.108	546.1
722.517	543
722.926	539
723.335	551.2
723.744	537.9
724.154	543.4
724.563	538.6
724.973	539.4
725.382	540.2
725.792	539.9
726.202	532.9
726.612	548.9
727.022	537
727.432	532.2
779.813	538
780.223	577.2
780.634	535.3
781.044	528
781.454	537.2
781.865	550
782.276	531.2
782.686	552.5
783.097	540.2
783.508	538.9
783.919	537.8
784.33	549.4
784.741	551.9
785.152	537.4
785.563	526.4
785.974	532.5
786.386	550.2
786.776	538.8
787.188	535.5
787.599	534.7
788.011	543.7
788.423	543.6
788.835	532.4
789.247	531.3
789.659	533.5
790.071	539.6
790.483	580.3
790.874	538
791.286	539.4
791.699	541.1
792.111	542.9
792.524	542.1
792.937	538.2
793.349	532.6
793.741	533.3
794.154	535.7
794.567	553.5
794.98	537.5
795.393	538.1
795.785	554.3
796.198	533.4
796.612	538.2
797.026	536.5
797.439	526.6
797.831	538.5
798.245	526.3
798.659	540.2
799.073	536.3
799.487	535.5
799.88	542
800.294	537.8
800.708	544.6
801.123	540.6
801.516	557.3
801.93	531.1
802.345	525.4
802.76	541
803.153	551.5
803.568	546.5
803.983	543.8
804.377	541.2
804.792	525.3
805.207	525.8
805.601	538.7
806.016	573.2
806.432	527.5
806.826	557.4
807.242	543.3
807.658	539.7
808.052	534.6
808.468	539.5
808.884	533.2
809.279	543.4
809.695	548.3
810.111	563.2
810.506	542.9
810.922	554.9
811.339	538.1
811.734	547.9
812.151	538.3
812.546	532.2
812.963	534.7
813.38	544.3
813.776	539.7
814.193	555.1
814.589	532.4
815.006	534.3
815.402	530.1
815.82	534
816.237	540.1
816.633	533.2
817.051	530.7
817.448	533.7
817.866	530.1
818.262	551.5
818.68	533
819.077	531.6
819.495	538.3
819.892	571.9
820.311	532.8
820.708	534.2
821.127	537.3
821.524	545.3
821.943	539
822.34	547.9
822.759	540.3
823.157	543.2
823.576	550.3
823.974	546.7
824.393	546.9
824.791	535.1
825.189	533.5
825.609	538.4
826.007	535
826.427	522.2
826.826	529.6
827.246	540.6
827.644	525.4
828.043	543.2
828.463	532.1
828.862	550
829.261	537.9
829.682	525.6
830.081	548
830.502	529.4
830.901	537.5
831.301	529.3
831.722	532
832.121	531.1
832.521	529
832.943	539
833.342	537.3
833.742	524.9
834.164	533.6
834.564	527.9
834.965	533.4
835.386	536.3
835.787	539.3
836.188	534.3
836.588	537.7
837.01	541.7
837.411	527.6
837.812	545.6
838.213	540
838.636	538.5
839.037	595.9
839.438	537.8
839.84	535.7
840.263	544.2
840.664	537.4
841.066	534.8
841.468	539.4
841.891	531
842.293	544.1
842.695	544
843.098	543.7
843.5	533.5
843.902	537.5
844.326	539
844.729	537.9
845.131	546.5
845.534	529.9
845.937	552.4
846.34	550
846.764	532.4
847.167	537.3
847.571	531.9
847.974	539.7
848.377	534.4
848.781	578.6
849.184	547
