#lambda/nm	C1
208.295	471
208.67	438.5
209.045	404.8
209.419	406.6
209.794	583.7
210.169	568.1
210.544	690.2
210.919	583.6
211.295	571.2
211.67	580
212.045	583.6
212.421	574.5
212.796	614.2
213.172	575.1
213.547	573.6
213.923	582.8
214.299	572.2
214.675	589.6
215.051	586
215.427	583.6
215.803	601.8
216.179	585.5
216.555	572.7
216.932	591.1
217.308	580.1
217.684	580.4
218.061	591.6
218.438	582.1
218.814	574.5
219.191	591
219.568	572.9
219.945	579.4
220.322	587.7
220.699	585.3
221.076	584.5
221.453	585.3
221.83	577.1
222.208	575.8
222.585	579.9
222.962	586.6
223.34	586.7
223.717	583
224.095	579.2
224.473	584.1
224.851	578.4
225.229	578.4
225.607	595.1
225.985	569
226.363	579.2
226.741	581.7
227.119	579.8
227.497	594.8
227.876	571
228.254	586
228.633	588.8
229.011	583.2
229.39	586.5
229.769	587.9
230.148	587.8
230.527	601.2
230.905	580.8
231.284	583.4
231.664	576.6
232.043	593.6
232.422	590
232.801	576.1
233.181	587.4
233.56	583.9
233.94	580.7
234.319	566.2
234.699	583.3
235.079	621.1
235.458	618.2
235.838	594.2
236.218	572.9
236.598	569.1
236.978	575.7
237.358	574.7
237.738	578.3
238.119	589.9
238.499	567.6
238.88	580.5
239.26	592
239.641	564.9
240.021	579.5
240.402	579.5
240.783	571.7
241.163	581.8
241.544	584.9
241.925	581.4
242.306	598
242.687	576.5
243.069	582.8
243.45	589.9
243.831	575.5
244.212	582.7
244.594	621.8
244.975	584.5
245.357	586.7
245.739	574.5
246.12	584.2
246.502	598.1
246.884	583.8
247.266	580.9
247.648	584.1
248.03	604.4
248.412	589.7
248.794	588.9
249.176	571.8
249.559	592.8
249.941	575.1
250.323	571.2
250.706	577.1
251.089	580
251.471	577.2
251.854	579.6
252.237	580.5
252.62	588.8
253.002	577.3
253.385	579.4
253.769	596.8
254.152	586.2
254.535	589.4
254.918	579.1
255.301	576.1
255.685	578.3
256.068	574.1
256.452	604.3
256.835	583.1
257.219	586.3
257.603	595.3
257.986	573
258.37	583.5
258.754	574.3
259.138	587.7
259.522	589.3
259.906	582.3
260.29	587
260.675	582.1
261.059	582.1
261.443	578.6
261.828	589.9
262.212	586
262.597	572.2
262.981	576
263.366	587.2
263.751	582.4
264.136	577.3
264.521	580.3
264.906	576.1
265.291	593.7
265.676	584.8
266.061	588.5
266.446	604.6
266.831	581.5
267.217	601.3
267.602	586
267.987	587
268.373	583.4
268.759	593.1
269.144	582.5
269.53	580.8
269.916	579.4
270.302	582.8
270.688	581.2
271.074	585.3
271.46	588.4
271.846	611.8
272.232	579
272.618	569.6
273.004	577.9
273.391	593.3
273.777	594.7
274.164	581.7
274.55	591.9
274.937	578.6
275.324	579.8
275.71	587.4
276.097	591.2
276.484	574.1
276.871	583.9
277.258	587.1
277.645	577.5
278.032	583.6
278.419	577.4
278.807	586.6
279.194	576.6
279.581	573.7
279.969	583.6
280.356	581.9
280.744	584.4
281.131	610.6
281.519	587.8
281.907	576.1
282.295	581.5
282.682	594.3
283.07	584
283.458	592.5
283.846	597.3
284.235	593.2
284.623	590.9
285.011	573.5
285.399	580.1
285.788	583.7
286.176	574.2
286.565	594.3
286.953	574.6
287.342	573.9
287.731	575.5
288.119	568.9
288.508	577.5
288.897	582.4
289.286	570.3
289.675	582.5
290.064	597.7
290.453	582.7
290.821	582.2
291.21	596.1
291.599	581.8
291.989	581.8
292.378	592.8
292.768	601.9
293.157	589.5
293.547	589.5
293.936	579
294.326	576.3
294.716	587.3
295.106	584.2
295.496	593.1
295.886	587.4
296.276	580.5
296.666	585
297.056	580.6
297.446	574.2
297.836	603
298.227	583.3
298.617	589
299.008	601.1
299.398	580.2
299.789	580.4
300.179	587.6
300.57	602.3
300.961	577.4
301.352	585.2
301.742	592.2
302.133	580.6
302.524	585.7
302.915	581.4
303.307	572.4
303.698	590.7
304.089	586.8
304.48	581.7
304.872	590.9
305.263	580.6
305.655	581.4
306.046	585
306.438	598.1
306.829	583.1
307.221	591.6
307.613	589.3
308.005	590.6
308.397	598.6
308.789	603.9
309.181	609.2
309.573	601.8
309.965	597.3
310.357	578.8
310.749	586.6
311.142	578.4
311.534	583.4
311.926	597.3
312.319	585.1
312.711	573.4
313.104	593.2
313.497	580.3
313.889	614.8
314.282	601.3
314.675	606.8
315.068	585.6
315.461	589.7
315.854	610.7
316.247	586.8
316.64	590.4
317.033	588.6
317.405	593.2
317.798	587.6
318.192	590.8
318.585	574.2
318.979	590.6
319.372	579.2
319.766	584.6
320.16	591.8
320.553	596.5
320.947	604.9
321.341	581.7
321.735	579.3
322.129	573.4
322.523	605.4
322.917	575.4
323.311	591.3
323.705	587.6
324.099	588.1
324.494	599.7
324.888	598.8
325.282	585
325.677	591.1
326.071	589.4
326.466	595.8
326.861	588.1
327.255	601.7
327.65	596.6
328.045	601.7
328.44	588.2
328.835	586.7
329.23	580.4
329.625	606.9
330.02	572.7
330.415	605.6
330.81	586.2
331.206	585.5
331.601	576.4
331.996	594.6
332.37	597
332.766	575.8
333.161	608.8
333.557	581.1
333.953	579.5
334.348	864.1
334.744	583.7
335.14	580.3
335.536	581.9
335.932	601.1
336.328	586.9
336.724	588.1
337.12	583.5
337.516	586
337.913	584.1
338.309	598.9
338.705	583.1
339.102	594.2
339.498	578.6
339.895	592.3
340.291	573.8
340.688	585.1
341.085	576.2
341.481	578.2
341.878	583.2
342.275	605.4
342.672	581.6
343.069	575.5
343.466	578
343.842	595.9
344.239	580.5
344.636	586.3
345.033	567.8
345.431	578.8
345.828	584.8
346.225	574.1
346.623	596.9
347.02	581.8
347.418	587.9
347.816	599.7
348.213	568.8
348.611	594.5
349.009	574.1
349.407	592.9
349.805	570.5
350.203	575.6
350.601	592.6
350.999	572.4
351.397	575.9
351.795	577.7
352.193	587
352.57	589.6
352.969	590.6
353.367	571
353.766	573.5
354.164	577.1
354.563	587
354.961	578.3
355.36	576.8
355.759	575.8
356.158	572.5
356.557	575.4
356.956	575.1
357.355	570.9
357.754	574.8
358.153	578.3
358.552	602.7
358.951	580.2
359.35	589.2
359.75	577.7
360.149	576.9
360.527	572
360.926	570.1
361.326	577.4
361.726	580.7
362.125	573.1
362.525	583.8
362.925	571.2
363.325	579
363.724	577.8
364.124	576.3
364.524	573.1
364.924	575.5
365.324	587.9
365.725	561.5
366.125	581.1
366.525	569.4
366.904	568.6
367.304	559
367.705	595.6
368.105	585.5
368.506	569.6
368.906	582.2
369.307	575.7
369.708	583.1
370.108	565.4
370.509	583.5
370.91	570.6
371.311	577.5
371.712	578.9
372.113	570.3
372.514	564.8
372.894	575.1
373.295	569.8
373.696	583
374.097	583.7
374.499	603.8
374.9	581.8
375.301	572.1
375.703	575.4
376.105	567.9
376.506	575
376.908	577.3
377.309	577.7
377.711	579.6
378.113	568.5
378.493	576.4
378.895	568.9
379.297	583
379.699	564.5
380.102	578.4
380.504	576.5
380.906	570.5
381.308	596.7
381.71	576.2
382.113	582
382.515	571.3
382.918	580.3
383.299	574.7
383.701	579.6
384.104	580.6
384.507	560.1
384.909	571.3
385.312	563.3
385.715	563.4
386.118	572.6
386.521	564.2
386.924	584.7
387.327	570.1
387.709	561.7
388.112	563.2
388.515	569.9
388.918	577.2
389.322	581.9
389.725	572.2
390.129	598.5
390.532	574.4
390.936	570.5
391.339	571.8
391.743	577.3
392.125	568.8
392.529	583
392.933	582.8
393.337	575.3
393.74	577.7
394.144	573.4
394.548	567.5
394.953	568.1
395.357	586.8
395.761	571.4
396.144	573
396.548	574.5
396.952	569.7
397.357	580.4
397.761	574.4
398.166	576.6
398.57	574.7
398.975	560.2
399.379	569
399.763	620.7
400.168	577.1
400.572	569.4
400.977	569.8
401.382	588.2
401.787	579.8
402.192	593.5
402.597	588.2
403.002	564.1
403.386	583
403.791	589.8
404.197	565.6
404.602	577.8
405.007	571.7
405.413	572.9
405.818	568.9
406.224	568.5
406.608	569.5
407.014	563.6
407.42	590.9
407.825	569.9
408.231	585.8
408.637	578.6
409.043	590.5
409.449	572.2
409.834	563
410.24	573.4
410.646	588
411.052	587.9
411.458	575.9
411.865	577.5
412.271	588.9
412.677	575.3
413.062	581.1
413.469	567.9
413.875	596.4
414.282	592.8
414.689	582.8
415.095	581.3
415.502	568.9
415.888	576.3
416.294	562.3
416.701	616.4
417.108	570.5
417.515	587.5
417.923	575.5
418.33	595.9
418.715	586.5
419.123	572.1
419.53	572.3
419.937	579.8
420.345	591.2
420.752	576.5
421.16	593.4
421.546	577.7
421.953	589.1
422.361	571.6
422.769	577.5
423.177	573.1
423.585	602.3
423.992	598.3
424.379	588.9
424.787	591.9
425.195	599
425.603	576.2
426.011	588.2
426.419	591.1
426.806	576.3
427.214	580.8
427.623	584.6
428.031	594.6
428.44	583.5
428.848	594.6
429.235	599.4
429.644	581.1
430.053	579
430.461	599.3
430.87	611.2
431.279	600.5
431.666	578.1
432.075	598.1
432.484	609.9
432.893	602.8
433.302	631.7
433.711	656.2
434.099	629.3
434.508	625
434.918	634.8
435.327	664
435.737	669.8
436.125	673.2
436.534	702.6
436.944	707.8
437.353	736.7
437.763	768.2
438.173	753.5
438.561	789.3
438.971	783.8
439.381	810.5
439.791	835.2
440.201	834.4
440.589	862.9
440.999	888.5
441.409	901.9
441.819	906.3
442.23	944.6
442.619	964.2
443.029	974.2
443.439	992.9
443.85	1017.4
444.26	1043.3
444.649	1043.1
445.06	1048.8
445.471	1063.2
445.881	1073.3
446.292	1106.4
446.682	1128.1
447.092	1106
447.503	1177.1
447.914	1146.6
448.325	1153.7
448.715	1162.3
449.126	1161.8
449.537	1168.4
449.948	1187.3
450.338	1192.1
450.75	1217.5
451.161	1215.7
451.572	1220.4
451.984	1216.6
452.374	1216.7
452.786	1224.3
453.197	1253.6
453.609	1256.4
453.999	1248.1
454.411	1255.9
454.823	1275.1
455.235	1264
455.647	1262
456.037	1260.4
456.449	1246.8
456.862	1276.1
457.274	1278.9
457.665	1263.4
458.077	1280.1
458.489	1286.8
458.902	1280.4
459.293	1286.2
459.705	1286.4
460.118	1294.7
460.53	1302
460.921	1305.9
461.334	1309.4
461.747	1294.7
462.16	1311.1
462.551	1316.6
462.964	1301.9
463.377	1287.8
463.79	1299.9
464.182	1302.5
464.595	1290.6
465.008	1296.6
465.421	1295.7
465.813	1289.1
466.226	1302.9
466.64	1279.5
467.053	1336
467.445	1293.3
467.859	1279.1
468.272	1277.3
468.686	1287.6
469.078	1264.3
469.492	1257.1
469.906	1272.7
470.298	1276.3
470.712	1262.2
471.126	1300.2
471.54	1257.7
471.933	1267.7
472.347	1269.6
472.761	1255.7
473.175	1250.9
473.568	1239.9
473.982	1230.5
474.397	1245.3
474.79	1249.6
475.204	1244.9
475.619	1226.5
476.033	1235
476.426	1231.6
476.841	1225.5
477.256	1244
477.649	1219.2
478.064	1214.5
478.479	1223.9
478.872	1211.8
479.287	1207.8
479.702	1207.5
480.118	1212.5
480.511	1202.9
480.927	1198.4
481.342	1203.9
481.736	1202
482.151	1190.5
482.566	1199.3
482.96	1185.3
483.376	1193.9
483.792	1173.1
484.186	1181.6
484.602	1171.7
485.017	1168.3
485.412	1166.6
485.827	1175.1
486.243	1168.3
486.638	1184.9
487.054	1150.7
487.47	1162
487.865	1145.7
488.281	1143.8
488.697	1133.4
489.092	1135.7
489.508	1118
489.925	1147.5
490.32	1107.9
490.736	1119.9
491.153	1124.8
491.548	1109.8
491.964	1130.2
492.381	1086.2
492.776	1106.1
493.193	1103.3
493.61	1106.8
494.006	1093
494.422	1098.7
494.84	1086.2
495.235	1095.2
495.652	1076
496.069	1073.7
496.465	1065.8
496.883	1069.1
497.3	1085.2
497.696	1061
498.113	1066.9
498.509	1049.1
498.927	1029.1
499.344	1032.4
499.741	1034.6
500.158	1042
500.576	1039.6
500.973	1038.8
501.39	1022.7
501.787	1008
502.205	1020.1
502.623	1008
503.02	1001.3
503.438	996.3
503.856	999.8
504.253	997.1
504.671	990.9
505.068	978
505.486	976.6
505.905	994
506.302	981.8
506.72	981.4
507.118	958.1
507.536	956.8
507.955	956.1
508.352	960.4
508.771	960.5
509.169	948.7
509.587	926.5
510.006	934.8
510.404	928.4
510.823	928.4
511.221	925.9
511.64	923.4
512.038	932.7
512.457	922.9
512.877	921.4
513.275	906.7
513.694	908.5
514.092	907.4
514.512	910.7
514.91	903.7
515.33	895.8
515.749	888.6
516.148	902.1
516.568	891.4
516.966	880.8
517.386	876.1
517.785	875.8
518.205	859.3
518.603	864.2
519.024	866.8
519.444	861.3
519.843	868.4
520.263	857
520.662	854.2
521.082	851
521.481	853.3
521.902	847.1
522.301	847.6
522.722	843
523.121	835.4
523.542	829.9
523.963	828.8
524.362	825.7
524.783	833.2
525.183	825.5
525.604	826.7
526.003	813.7
526.425	803.1
526.824	819
527.246	813.4
527.646	814.1
528.067	804.6
528.467	799.8
528.888	796.3
529.289	794.5
529.71	790.7
530.11	789.6
530.532	782.5
530.932	773.8
531.354	770.8
531.755	811.4
532.176	778.2
532.577	770.6
532.999	769.9
533.4	765.4
533.822	778.4
534.223	763.3
534.645	757.2
535.046	763.1
535.468	751.1
535.869	759.9
536.292	754.3
536.693	747.4
537.115	745.4
537.516	746.7
537.939	739.8
538.34	757.7
538.742	748.5
539.165	744.8
539.566	740.3
539.989	733.3
540.391	729.8
540.814	728.4
541.216	738.4
541.639	734.5
542.041	739.3
542.464	724.6
542.866	723.3
543.268	713.2
543.691	727.2
544.093	734.2
544.517	746.8
544.919	707.9
545.343	743.3
545.745	712.4
546.147	719.1
546.571	707.4
546.974	705.7
547.398	714.5
547.8	724.8
548.224	706.5
548.627	704.2
549.03	714.7
549.454	696.1
549.857	690.9
550.281	690.4
550.684	693.6
551.087	711.1
551.512	699
551.915	696.3
552.34	698.8
552.743	689
553.146	691.5
553.571	693.3
553.975	703.1
554.399	678.8
554.803	733.9
555.207	672.2
555.632	667
556.036	684.8
556.461	667.7
556.865	683.3
557.268	663.5
557.694	674.2
558.098	671
558.502	676.1
558.927	663.3
559.332	665.6
559.736	662.3
560.162	671.1
560.566	658.9
560.992	664.2
561.396	653.5
561.801	655.7
562.227	651.4
562.631	649.1
563.036	653.3
563.462	662.1
563.867	653.6
564.272	638.4
564.698	656.5
565.103	641.3
565.508	665.9
565.935	654.5
566.34	650.1
566.745	654.5
567.172	642.4
567.577	655.1
567.982	648.2
568.409	645
568.815	634.1
569.22	640.1
569.626	646.7
570.053	622.4
570.459	633.2
570.865	636.4
571.292	637.4
571.698	631.3
572.104	619.4
572.531	626.4
572.937	640.5
573.343	630.4
573.75	625.8
574.177	627.5
574.583	630.4
574.99	630.6
575.396	628.2
575.824	620.4
576.231	635.6
576.637	620.1
577.065	644.2
577.472	620.3
577.879	620.4
578.286	640
578.714	622.1
579.121	615.4
579.528	628
579.935	621.3
580.364	616.3
580.771	602.5
581.178	611.9
581.585	619.7
582.014	624.2
582.421	609.3
582.829	610.4
583.236	623.1
583.644	608.9
584.073	610.8
584.481	607.9
584.889	600.6
585.296	619.7
585.726	610.8
586.134	603.4
586.542	608.3
586.95	630.6
587.358	597.9
587.787	609.6
588.196	592.3
588.604	605.2
589.012	601.6
589.421	597.2
589.851	597.2
590.259	604
590.668	605.6
591.076	632
591.485	592
591.894	604.3
592.324	612
592.733	606.9
593.142	576.3
593.551	602.3
593.96	628.5
594.369	588.4
594.8	594.4
595.209	593.3
595.618	583.5
596.028	585.6
596.437	585
596.847	588.8
597.256	600
597.687	589
598.097	593.3
598.507	573.1
598.917	592.8
599.327	597.2
599.736	589.4
600.146	598
600.556	586.9
600.988	600.3
601.398	588.6
601.808	598.6
602.219	569.6
602.629	587.8
603.039	592.2
603.45	610.2
603.86	581.7
604.271	600.5
604.703	584.6
605.114	589.3
605.525	580.6
605.935	583.1
606.346	597.3
606.757	581.4
607.168	584.4
607.579	577.7
607.99	588.4
608.402	582.2
608.813	580.1
609.224	577.7
609.636	568.4
610.047	569.7
610.48	580.5
610.892	584.1
611.303	584.8
611.715	582
612.127	571
612.539	574.9
612.95	576.4
613.362	567
613.774	564
614.186	574.9
614.599	575.1
615.011	580.9
615.423	567.5
615.835	570.7
616.248	570.8
616.66	582.3
617.073	566.7
617.485	571.3
617.898	583.9
618.311	579.9
618.723	575.6
619.136	603.7
619.549	581
619.962	594.8
620.375	570
620.788	579.8
621.201	572.5
621.614	577.1
622.028	573
622.441	580.1
622.854	588.3
623.268	567.1
623.681	574.5
624.095	578.3
624.509	585.1
624.922	580.9
625.336	560.6
625.728	570.5
626.142	584.2
626.556	592.7
626.97	577.9
627.384	569.5
627.799	569.7
628.213	587.2
628.627	570.9
629.041	566.9
629.456	569.4
629.87	571.2
630.285	580.8
630.699	579
631.093	566.8
631.507	575.5
631.922	575.4
632.337	580.8
632.752	558.4
633.167	571.5
633.582	560.8
633.997	566.9
634.412	561.3
634.806	572.1
635.221	563.7
635.637	573.9
636.052	556.6
636.468	566.7
636.883	586.8
637.299	565.9
637.715	549.4
638.109	564.7
638.525	548.1
638.941	574.9
639.357	570.2
639.773	578
640.189	558.9
640.584	566.3
641	569.2
641.416	556.9
641.832	564.2
642.249	561.1
642.665	563.6
643.06	573.2
643.477	574.3
643.894	549.2
644.31	559.4
644.727	567.7
645.123	564.8
645.54	556.6
645.957	563
646.374	574.2
646.77	561.7
647.187	591.7
647.604	566.5
648.021	551.1
648.439	557.9
648.835	564.9
649.252	568.3
649.67	563.1
650.088	565.6
650.484	560.4
650.902	565.2
651.32	569.2
651.738	556.1
652.134	561.9
652.552	577.9
652.971	568.6
653.389	559.9
653.786	575.6
654.204	557.9
654.622	558.1
655.019	563.1
655.438	564.1
655.857	561.3
656.275	565.4
656.673	556
657.091	631.2
657.51	558.5
657.908	568.3
658.327	575
658.746	550.1
659.144	565.1
659.563	570.7
659.982	568
660.38	554.5
660.8	561.2
661.219	568.5
661.617	568.1
662.037	562.1
662.457	577.1
662.855	541.7
663.275	592.9
663.695	556.5
664.094	555.8
664.514	563
664.934	555.4
665.333	566.5
665.753	553.7
666.152	549.9
666.572	555.9
666.993	569.5
667.392	558.5
667.812	559.2
668.212	556.4
668.632	571.7
669.053	559.2
669.453	562
669.874	559.2
670.273	564.4
670.694	557.3
671.116	572.6
671.515	567.5
671.937	555.8
672.337	552.2
672.758	553.1
673.158	571.9
673.58	546.3
673.98	568.2
674.402	569.4
674.824	557
675.224	556.6
675.646	550.5
676.047	553.6
676.469	558.3
676.869	563.2
677.292	560.1
677.693	553.1
678.115	555.9
678.516	565.5
678.939	563
679.34	559.9
679.762	569
680.164	565.4
680.586	547.3
680.988	561
681.411	580.3
681.812	559.4
682.236	559.6
682.637	550.9
683.061	547.8
683.462	563.2
683.864	556.5
684.288	562.9
684.69	550.5
685.114	567.3
685.516	562.3
685.94	551
686.342	562.3
686.766	551.4
687.168	548.1
687.571	576.3
687.995	553.6
688.398	554.5
688.822	552.2
689.225	570.8
689.628	571.1
690.052	555.9
690.456	565.7
690.88	555.2
691.284	541.5
691.687	562.6
692.112	554.4
692.515	546.8
692.919	555.4
693.344	562.2
693.747	549.5
694.173	548
694.577	564.2
694.98	552.8
695.406	551.2
695.81	558.6
696.214	559.3
696.64	560.6
697.044	562.2
697.448	564.3
697.874	559.2
698.279	555.7
698.684	552.4
699.11	547.2
699.514	548.6
699.919	551
700.324	545
700.75	556.4
701.156	552.4
701.561	565.6
701.987	563.3
702.393	568.2
702.798	568.2
703.203	551.6
703.63	545.9
704.036	545.4
704.442	556
704.847	550.4
705.274	550.4
705.68	555.8
706.086	556.6
706.492	539.3
706.92	552.5
707.326	557.3
707.732	552.1
708.139	548.8
708.545	547.7
708.973	550.6
709.38	552.4
709.786	546
710.193	561.1
710.6	555.8
711.028	545.3
711.435	551.8
711.842	557.8
712.249	546
712.656	551.3
713.064	556.6
713.492	542.8
713.9	551.1
714.307	557.6
714.715	545
715.123	560
715.53	557.5
715.938	559.3
716.367	552.6
716.775	549.3
717.184	544.1
717.592	551.9
718	559.1
718.408	584.7
718.816	589.5
719.225	557
719.633	555.7
720.042	538
720.472	552.7
720.881	575.5
721.29	555
721.699	544.8
722.108	556.5
722.517	556
722.926	546.7
723.335	559.5
723.744	555.5
724.154	554.8
724.563	552.9
724.973	554.5
725.382	553.5
725.792	551.6
726.202	548.1
726.612	563.4
727.022	552.9
727.432	549
779.813	550.2
780.223	590.8
780.634	552
781.044	541.8
781.454	552.3
781.865	553.9
782.276	543.3
782.686	561.9
783.097	546
783.508	548.8
783.919	555.8
784.33	562.8
784.741	572.2
785.152	546.2
785.563	540.4
785.974	544.7
786.386	564.1
786.776	547.1
787.188	556.2
787.599	537.9
788.011	554.3
788.423	555.6
788.835	547.7
789.247	540.8
789.659	545.3
790.071	552.1
790.483	587.3
790.874	546.9
791.286	558.2
791.699	544
792.111	553.3
792.524	552.5
792.937	544.3
793.349	545
793.741	544.3
794.154	544.7
794.567	569.8
794.98	549.3
795.393	543
795.785	561.6
796.198	545.6
796.612	547.6
797.026	544
797.439	536.3
797.831	544.8
798.245	541.1
798.659	543.4
799.073	545.6
799.487	542.4
799.88	547.7
800.294	552.1
800.708	551.5
801.123	550.8
801.516	563.9
801.93	538.3
802.345	533.7
802.76	549
803.153	560.9
803.568	566.7
803.983	560.9
804.377	553.7
804.792	537
805.207	538.5
805.601	556.5
806.016	585.3
806.432	538.3
806.826	581.6
807.242	564.9
807.658	549.2
808.052	548.7
808.468	551.1
808.884	545.3
809.279	552.8
809.695	560.3
810.111	569
810.506	551.7
810.922	565.3
811.339	538.4
811.734	560.6
812.151	548.5
812.546	544.5
812.963	538.2
813.38	553.4
813.776	553
814.193	569.5
814.589	539.6
815.006	546.9
815.402	542.2
815.82	542
816.237	553.3
816.633	552.9
817.051	541.1
817.448	555.1
817.866	539.8
818.262	560.9
818.68	551
819.077	542
819.495	549.8
819.892	583.7
820.311	544.7
820.708	543
821.127	544.6
821.524	559.8
821.943	549.8
822.34	574.3
822.759	549.2
823.157	547.7
823.576	559.3
823.974	557.7
824.393	556.2
824.791	542.3
825.189	547.9
825.609	544.7
826.007	550.9
826.427	536.6
826.826	543.5
827.246	547.8
827.644	538.2
828.043	560
828.463	549.9
828.862	557.9
829.261	554.6
829.682	541.4
830.081	556.3
830.502	542.9
830.901	550.7
831.301	546.7
831.722	540.8
832.121	551.4
832.521	545
832.943	551
833.342	548.3
833.742	539.5
834.164	543.1
834.564	545
834.965	546.8
835.386	545.9
835.787	544.9
836.188	551.6
836.588	549.4
837.01	550
837.411	539.8
837.812	555.9
838.213	549.9
838.636	544.9
839.037	612
839.438	542.3
839.84	551.4
840.263	549.3
840.664	547.3
841.066	547.1
841.468	547.5
841.891	539.7
842.293	553.3
842.695	554.3
843.098	557.1
843.5	539
