#lambda/nm	C1
208.295	472.3
208.67	439.9
209.045	403.8
209.419	406.5
209.794	580.8
210.169	554.1
210.544	672.1
210.919	570.2
211.295	562.7
211.67	575.6
212.045	568.6
212.421	566.2
212.796	601.6
213.172	564.3
213.547	562.9
213.923	563.5
214.299	563.6
214.675	576.6
215.051	574.7
215.427	580.7
215.803	589
216.179	579.5
216.555	565
216.932	573
217.308	566.1
217.684	564.4
218.061	574.5
218.438	568.5
218.814	565
219.191	577.6
219.568	564.4
219.945	566.6
220.322	576.3
220.699	569.4
221.076	580.4
221.453	574
221.83	566.3
222.208	569.7
222.585	565.2
222.962	571.6
223.34	573.9
223.717	568.3
224.095	571.5
224.473	571.7
224.851	565.8
225.229	557.7
225.607	585.3
225.985	559.3
226.363	580.9
226.741	570.6
227.119	572
227.497	581.9
227.876	558.1
228.254	581.8
228.633	578.7
229.011	571.1
229.39	576.1
229.769	578.6
230.148	579.1
230.527	594.1
230.905	572.6
231.284	572.1
231.664	567.3
232.043	581.9
232.422	578.8
232.801	570.1
233.181	576.7
233.56	572.7
233.94	574.4
234.319	563.3
234.699	566.8
235.079	609.6
235.458	607.9
235.838	585.5
236.218	568.6
236.598	561.4
236.978	562.4
237.358	563.5
237.738	567.2
238.119	575.5
238.499	561.4
238.88	573.7
239.26	585
239.641	562.4
240.021	562.9
240.402	570.4
240.783	564.5
241.163	569.3
241.544	573.4
241.925	569.4
242.306	585.1
242.687	573.9
243.069	575.5
243.45	571.4
243.831	564.7
244.212	570.3
244.594	607.8
244.975	581.7
245.357	577.8
245.739	566.6
246.12	568.9
246.502	585.5
246.884	564.9
247.266	568.5
247.648	575
248.03	589
248.412	576.1
248.794	575.8
249.176	574.9
249.559	578.5
249.941	564.1
250.323	562
250.706	568.7
251.089	567.1
251.471	570.3
251.854	569.8
252.237	569.4
252.62	583.7
253.002	570.1
253.385	573.1
253.769	582.1
254.152	574.9
254.535	580.8
254.918	568
255.301	574.2
255.685	574.2
256.068	563.5
256.452	598.8
256.835	576.6
257.219	582
257.603	582.3
257.986	566.4
258.37	582.2
258.754	566.1
259.138	581.6
259.522	584.6
259.906	569.5
260.29	577.4
260.675	578.2
261.059	577.9
261.443	567.8
261.828	581.6
262.212	575.9
262.597	560.1
262.981	568.3
263.366	583.1
263.751	573
264.136	572.4
264.521	571.7
264.906	566
265.291	584
265.676	572.7
266.061	575.8
266.446	591.9
266.831	577.5
267.217	591
267.602	574.4
267.987	578.5
268.373	570.3
268.759	577.2
269.144	580.8
269.53	568.7
269.916	571
270.302	570
270.688	580.2
271.074	573.5
271.46	582.5
271.846	603.9
272.232	574.8
272.618	566.3
273.004	569.9
273.391	581.1
273.777	580.6
274.164	577.8
274.55	584.9
274.937	577.1
275.324	570.6
275.71	585.3
276.097	578.2
276.484	567.9
276.871	578.4
277.258	577.9
277.645	565
278.032	565.2
278.419	567.2
278.807	576.7
279.194	570.3
279.581	565.8
279.969	579.3
280.356	582.3
280.744	570.5
281.131	594.2
281.519	584.5
281.907	567.7
282.295	572.9
282.682	583.5
283.07	577.1
283.458	581.2
283.846	587.9
284.235	583.6
284.623	582.8
285.011	563.3
285.399	570.1
285.788	567.4
286.176	562.1
286.565	583
286.953	567
287.342	571.1
287.731	562.6
288.119	561.3
288.508	568.8
288.897	573.7
289.286	563.4
289.675	571.9
290.064	583.7
290.453	572.4
290.821	573.9
291.21	584.9
291.599	569
291.989	575.7
292.378	586.2
292.768	590.1
293.157	573.7
293.547	583.1
293.936	577.9
294.326	568.1
294.716	577.5
295.106	571.5
295.496	583.5
295.886	580.8
296.276	573.3
296.666	567.1
297.056	568.6
297.446	566.3
297.836	587.4
298.227	573.2
298.617	572.8
299.008	580.4
299.398	570.1
299.789	571.1
300.179	578.8
300.57	583.8
300.961	565.6
301.352	564
301.742	583.7
302.133	578.4
302.524	576
302.915	576.3
303.307	567.1
303.698	582.3
304.089	580.3
304.48	569.3
304.872	580.3
305.263	575
305.655	570.1
306.046	573
306.438	580.4
306.829	571.9
307.221	580.7
307.613	572
308.005	581.5
308.397	587.5
308.789	589.8
309.181	594.8
309.573	587.7
309.965	588.5
310.357	577.7
310.749	579.5
311.142	564.1
311.534	568.2
311.926	580
312.319	583.6
312.711	571.8
313.104	582.7
313.497	574.8
313.889	605.9
314.282	586.8
314.675	595.3
315.068	575.4
315.461	581.7
315.854	597.9
316.247	572.7
316.64	572.7
317.033	572.7
317.405	583.9
317.798	572.3
318.192	573.5
318.585	564.3
318.979	571.5
319.372	569.1
319.766	572.2
320.16	581.5
320.553	586
320.947	594
321.341	573
321.735	573.1
322.129	563.3
322.523	591
322.917	565.3
323.311	585.3
323.705	575
324.099	577.4
324.494	588.1
324.888	582.5
325.282	576.2
325.677	581.6
326.071	579.3
326.466	586
326.861	575.6
327.255	581.9
327.65	584.1
328.045	595.2
328.44	577.3
328.835	579.4
329.23	569.9
329.625	600.6
330.02	564.9
330.415	597.3
330.81	577
331.206	580.7
331.601	572.1
331.996	584.6
332.37	588.2
332.766	562.1
333.161	600.4
333.557	575.9
333.953	573.3
334.348	861.2
334.744	568.2
335.14	570.6
335.536	568.4
335.932	582
336.328	578.6
336.724	587
337.12	574.5
337.516	575.4
337.913	580.5
338.309	591.4
338.705	573.2
339.102	583
339.498	569.2
339.895	585.3
340.291	567.3
340.688	582.7
341.085	564.9
341.481	573.2
341.878	568.2
342.275	590.9
342.672	566.2
343.069	561.6
343.466	559.2
343.842	580.9
344.239	565.7
344.636	572.3
345.033	566.9
345.431	565
345.828	569.5
346.225	572.2
346.623	577.6
347.02	575.7
347.418	583.6
347.816	581.1
348.213	567.9
348.611	579.1
349.009	571.9
349.407	585.3
349.805	561.3
350.203	562.7
350.601	581.9
350.999	568.1
351.397	565.2
351.795	576.6
352.193	589.9
352.57	581.2
352.969	578.7
353.367	563.3
353.766	570
354.164	566.3
354.563	580.2
354.961	575.4
355.36	569.1
355.759	569.3
356.158	566.4
356.557	566.5
356.956	561.3
357.355	566.4
357.754	575.5
358.153	573.6
358.552	587.8
358.951	569.4
359.35	578.6
359.75	568.5
360.149	560.7
360.527	558.6
360.926	560.7
361.326	571.4
361.726	565.9
362.125	562.5
362.525	573.9
362.925	566.8
363.325	568.4
363.724	569.3
364.124	566.2
364.524	557.6
364.924	569.4
365.324	577.7
365.725	555.3
366.125	567.4
366.525	568.7
366.904	563
367.304	561.2
367.705	589.7
368.105	576.7
368.506	564.8
368.906	572.1
369.307	565.6
369.708	577.9
370.108	558.5
370.509	576.6
370.91	559.4
371.311	563.3
371.712	565.2
372.113	570.3
372.514	555.9
372.894	567.6
373.295	560.9
373.696	577.9
374.097	573.8
374.499	592.2
374.9	566.8
375.301	559.3
375.703	573
376.105	559.2
376.506	575.6
376.908	571.7
377.309	571.9
377.711	564.6
378.113	563.6
378.493	567.7
378.895	562.3
379.297	575.9
379.699	557.7
380.102	568.1
380.504	567.3
380.906	553.9
381.308	586.8
381.71	562.5
382.113	570.8
382.515	560.5
382.918	569.2
383.299	563.3
383.701	574
384.104	572.2
384.507	553.1
384.909	559
385.312	555.2
385.715	555
386.118	563.1
386.521	555.8
386.924	570.2
387.327	562.8
387.709	558.9
388.112	547.9
388.515	564.3
388.918	561.9
389.322	567.7
389.725	561.5
390.129	585.1
390.532	570.7
390.936	566.8
391.339	553.1
391.743	567.2
392.125	558.3
392.529	571.4
392.933	577.7
393.337	567.5
393.74	564.3
394.144	565.4
394.548	562.1
394.953	566.6
395.357	575.8
395.761	557.8
396.144	568.3
396.548	564
396.952	567.3
397.357	570.2
397.761	560.3
398.166	558.6
398.57	567.1
398.975	555.3
399.379	564.9
399.763	610
400.168	564.9
400.572	562.6
400.977	561.3
401.382	579.2
401.787	569.3
402.192	582.2
402.597	576.2
403.002	556.9
403.386	571.6
403.791	581.2
404.197	560.6
404.602	567.4
405.007	569.4
405.413	561.6
405.818	563.3
406.224	559.5
406.608	563.3
407.014	559.3
407.42	585
407.825	560.8
408.231	569.6
408.637	568.3
409.043	581.8
409.449	560.7
409.834	556.2
410.24	561.4
410.646	575.8
411.052	578.8
411.458	565.2
411.865	570.9
412.271	572.9
412.677	569.7
413.062	567.2
413.469	560.9
413.875	588.8
414.282	581.4
414.689	569.2
415.095	574.6
415.502	562.3
415.888	562.8
416.294	548.7
416.701	600.2
417.108	558.6
417.515	574
417.923	564.4
418.33	587.3
418.715	575.3
419.123	561.3
419.53	567.6
419.937	572.3
420.345	580.3
420.752	561.4
421.16	577.3
421.546	562.3
421.953	573.4
422.361	560.2
422.769	571
423.177	560.6
423.585	588.8
423.992	585.8
424.379	577.6
424.787	571.9
425.195	588
425.603	568.1
426.011	578.6
426.419	582.5
426.806	569.5
427.214	574.2
427.623	585.6
428.031	584.5
428.44	572.7
428.848	578.2
429.235	588.2
429.644	575
430.053	570.3
430.461	594.1
430.87	610.9
431.279	600.6
431.666	587.2
432.075	600.3
432.484	616.2
432.893	621.5
433.302	647
433.711	682.4
434.099	660.2
434.508	669.5
434.918	682.1
435.327	711.6
435.737	733.1
436.125	742
436.534	763.2
436.944	789.4
437.353	807.2
437.763	843.9
438.173	839.3
438.561	886.7
438.971	881.2
439.381	927.5
439.791	950.2
440.201	951.1
440.589	985.1
440.999	1019.6
441.409	1031.2
441.819	1045.4
442.23	1077
442.619	1096.8
443.029	1118.3
443.439	1147.5
443.85	1157.6
444.26	1183.6
444.649	1192.7
445.06	1216.6
445.471	1228.6
445.881	1232.8
446.292	1256.7
446.682	1285.7
447.092	1264.5
447.503	1326.9
447.914	1301
448.325	1307.9
448.715	1320.8
449.126	1332.7
449.537	1347.9
449.948	1356.2
450.338	1362.1
450.75	1373.2
451.161	1373.9
451.572	1389.1
451.984	1383.3
452.374	1386.4
452.786	1403.8
453.197	1418.9
453.609	1432.7
453.999	1426.5
454.411	1430.5
454.823	1453.3
455.235	1435.4
455.647	1432.1
456.037	1450
456.449	1433
456.862	1457.5
457.274	1442.4
457.665	1454.8
458.077	1451
458.489	1450
458.902	1451.7
459.293	1458.6
459.705	1462.8
460.118	1451.6
460.53	1470.4
460.921	1459.5
461.334	1457.2
461.747	1455.4
462.16	1459.8
462.551	1458
462.964	1449
463.377	1423.9
463.79	1431.6
464.182	1438.2
464.595	1428.9
465.008	1457.7
465.421	1450.1
465.813	1446.4
466.226	1451.2
466.64	1438.4
467.053	1488.1
467.445	1443.2
467.859	1435
468.272	1427.1
468.686	1438.8
469.078	1422.9
469.492	1417
469.906	1435.1
470.298	1421.3
470.712	1418.4
471.126	1441.6
471.54	1411.4
471.933	1396
472.347	1411.6
472.761	1401.5
473.175	1393.4
473.568	1381
473.982	1374
474.397	1385.9
474.79	1376.7
475.204	1377
475.619	1371.1
476.033	1364.2
476.426	1364
476.841	1346.1
477.256	1385.7
477.649	1345.6
478.064	1336.9
478.479	1344.7
478.872	1328.7
479.287	1321.1
479.702	1320.4
480.118	1327.3
480.511	1325.9
480.927	1306.5
481.342	1320.3
481.736	1320.4
482.151	1307.4
482.566	1317.1
482.96	1307.2
483.376	1309
483.792	1292.8
484.186	1288.9
484.602	1288.3
485.017	1294.7
485.412	1286.6
485.827	1286.4
486.243	1273.5
486.638	1298
487.054	1268.6
487.47	1280.8
487.865	1257.7
488.281	1255.2
488.697	1244
489.092	1244.4
489.508	1225.8
489.925	1233.7
490.32	1215.1
490.736	1232.8
491.153	1218.6
491.548	1210.7
491.964	1215.1
492.381	1196.6
492.776	1204
493.193	1191.7
493.61	1192.9
494.006	1182.5
494.422	1183.4
494.84	1165.9
495.235	1166.7
495.652	1160.5
496.069	1156.5
496.465	1136.3
496.883	1145.1
497.3	1158.9
497.696	1131.3
498.113	1132.6
498.509	1111.9
498.927	1111.8
499.344	1107.3
499.741	1102.3
500.158	1115.8
500.576	1105.5
500.973	1099.9
501.39	1077.8
501.787	1071.1
502.205	1082.4
502.623	1070.8
503.02	1057.2
503.438	1057.8
503.856	1050
504.253	1058.3
504.671	1042
505.068	1033.8
505.486	1035.3
505.905	1042.2
506.302	1033.1
506.72	1025.3
507.118	1000.1
507.536	1007.2
507.955	1011.3
508.352	1015.9
508.771	1002.6
509.169	997.1
509.587	979.5
510.006	987.8
510.404	977.3
510.823	978
511.221	974.6
511.64	973.1
512.038	981.3
512.457	956.2
512.877	957
513.275	943.5
513.694	945.2
514.092	943.2
514.512	950.5
514.91	922.9
515.33	929.5
515.749	921.1
516.148	915.3
516.568	921.3
516.966	911.1
517.386	910.3
517.785	912.5
518.205	900.9
518.603	898.9
519.024	886.9
519.444	897.4
519.843	899.8
520.263	882.7
520.662	887.6
521.082	881.6
521.481	872.7
521.902	874
522.301	871.7
522.722	870.4
523.121	856.8
523.542	855
523.963	846
524.362	853.9
524.783	855.6
525.183	847.1
525.604	847.3
526.003	826.7
526.425	826.1
526.824	838.3
527.246	840.3
527.646	836.7
528.067	824
528.467	816.5
528.888	820.1
529.289	809.6
529.71	809.9
530.11	797.9
530.532	798.5
530.932	801.9
531.354	781.9
531.755	823.5
532.176	800
532.577	792.3
532.999	783
533.4	779.3
533.822	786
534.223	771.2
534.645	774.5
535.046	765
535.468	771.4
535.869	781.2
536.292	758.2
536.693	760.6
537.115	772.3
537.516	757
537.939	755.5
538.34	774.6
538.742	773
539.165	757.7
539.566	745.8
539.989	749.6
540.391	750
540.814	750.6
541.216	750.3
541.639	746.7
542.041	750.2
542.464	733.9
542.866	735.5
543.268	732.1
543.691	743.8
544.093	737.6
544.517	749.9
544.919	726.7
545.343	749.2
545.745	719.1
546.147	723.4
546.571	717.3
546.974	719
547.398	717.4
547.8	732.7
548.224	710.1
548.627	703.5
549.03	717.7
549.454	706.1
549.857	699.1
550.281	699.1
550.684	701.2
551.087	712.2
551.512	708.3
551.915	699
552.34	693.9
552.743	695.5
553.146	695.8
553.571	688.8
553.975	703.4
554.399	680.5
554.803	727.2
555.207	676.2
555.632	672.4
556.036	681.8
556.461	665.8
556.865	679.5
557.268	672.6
557.694	672.1
558.098	675.4
558.502	671.2
558.927	655.6
559.332	666.5
559.736	670.2
560.162	673.1
560.566	666.8
560.992	669
561.396	660.5
561.801	662.2
562.227	655.6
562.631	655.9
563.036	656.7
563.462	658.5
563.867	662.7
564.272	639.4
564.698	652.6
565.103	639.9
565.508	666.5
565.935	648.4
566.34	644.2
566.745	654.9
567.172	644.2
567.577	660.1
567.982	652.9
568.409	645.1
568.815	629.4
569.22	639.4
569.626	635.3
570.053	627.7
570.459	640.9
570.865	641.1
571.292	636.9
571.698	636.7
572.104	617.9
572.531	622.3
572.937	643.1
573.343	620.6
573.75	627.2
574.177	629.9
574.583	630.7
574.99	627.7
575.396	635.1
575.824	617.8
576.231	629.7
576.637	614.8
577.065	646
577.472	617
577.879	617.2
578.286	631.6
578.714	613
579.121	617
579.528	616.7
579.935	626
580.364	614.4
580.771	602
581.178	605.2
581.585	615.3
582.014	621.8
582.421	607.2
582.829	601.6
583.236	608.9
583.644	606.4
584.073	605.9
584.481	610
584.889	595.6
585.296	615.8
585.726	604.8
586.134	595.6
586.542	595.5
586.95	620.4
587.358	595.8
587.787	599.2
588.196	590.9
588.604	596.1
589.012	601.5
589.421	590.1
589.851	592.1
590.259	597.5
590.668	594.7
591.076	624.5
591.485	590.3
591.894	593.1
592.324	597.4
592.733	604.8
593.142	584.4
593.551	591.7
593.96	623.4
594.369	573.3
594.8	582
595.209	587.7
595.618	574
596.028	582
596.437	576.3
596.847	579.5
597.256	584.8
597.687	589.9
598.097	582.6
598.507	575.4
598.917	580.7
599.327	590.1
599.736	580.3
600.146	588.1
600.556	584.1
600.988	590.3
601.398	576.5
601.808	591.8
602.219	564.9
602.629	585.3
603.039	580.5
603.45	600.1
603.86	579.7
604.271	583
604.703	572.6
605.114	571.1
605.525	572.9
605.935	577.6
606.346	581.5
606.757	575.7
607.168	568.6
607.579	564
607.99	581.8
608.402	569.7
608.813	572.4
609.224	568.3
609.636	560.3
610.047	562.7
610.48	569.8
610.892	578.2
611.303	574
611.715	569.4
612.127	564.3
612.539	567.5
612.95	566.5
613.362	559
613.774	558.9
614.186	562.8
614.599	563.5
615.011	577.1
615.423	558.8
615.835	567
616.248	560.1
616.66	572.1
617.073	563.4
617.485	569.9
617.898	573.7
618.311	570.5
618.723	564.3
619.136	590.5
619.549	583.2
619.962	586.2
620.375	562
620.788	569.8
621.201	558.3
621.614	569.6
622.028	565.2
622.441	567.9
622.854	574.8
623.268	557.8
623.681	567.4
624.095	563.5
624.509	569.1
624.922	566.8
625.336	553.1
625.728	566.7
626.142	571.4
626.556	575.2
626.97	576.9
627.384	559
627.799	568.3
628.213	571.9
628.627	561.8
629.041	555.3
629.456	563.1
629.87	561
630.285	572.6
630.699	570.2
631.093	556.5
631.507	565.9
631.922	562.8
632.337	577.4
632.752	553.7
633.167	559.3
633.582	558.7
633.997	557.2
634.412	557.3
634.806	561.1
635.221	556.7
635.637	573.8
636.052	552.5
636.468	562.2
636.883	577.6
637.299	561.3
637.715	550
638.109	557.1
638.525	548
638.941	567.9
639.357	567.6
639.773	570
640.189	556.1
640.584	558.3
641	554.5
641.416	546.3
641.832	560.4
642.249	550.2
642.665	555.2
643.06	560.2
643.477	565.2
643.894	542.7
644.31	561
644.727	554.7
645.123	559.5
645.54	551.4
645.957	557.5
646.374	561.7
646.77	555.7
647.187	579.6
647.604	549.6
648.021	537.4
648.439	550.9
648.835	556.4
649.252	554.5
649.67	555.2
650.088	557.4
650.484	559.6
650.902	561.8
651.32	560.9
651.738	547.3
652.134	556.8
652.552	570.3
652.971	564.2
653.389	553.3
653.786	570.9
654.204	560.6
654.622	551.3
655.019	552.5
655.438	553.7
655.857	555.1
656.275	554.2
656.673	549.9
657.091	618.6
657.51	549.4
657.908	562.8
658.327	567.6
658.746	545.2
659.144	555.8
659.563	560.9
659.982	552.8
660.38	542.9
660.8	550
661.219	563.6
661.617	559.1
662.037	554.6
662.457	562.2
662.855	540.2
663.275	577.4
663.695	553.6
664.094	544.4
664.514	548.5
664.934	546.8
665.333	554.9
665.753	544.8
666.152	543.7
666.572	544.4
666.993	566.1
667.392	546.2
667.812	546.6
668.212	555.1
668.632	564
669.053	548.2
669.453	561.8
669.874	551
670.273	555.5
670.694	541.8
671.116	564.5
671.515	561.8
671.937	547.7
672.337	550.3
672.758	543.2
673.158	560.5
673.58	544.1
673.98	548.6
674.402	560.6
674.824	553.5
675.224	544.4
675.646	546.7
676.047	546.3
676.469	545.2
676.869	558.9
677.292	553.1
677.693	543.7
678.115	542.5
678.516	554.3
678.939	548.3
679.34	552.5
679.762	561.7
680.164	556.8
680.586	543.9
680.988	552.3
681.411	567.8
681.812	539.8
682.236	539.6
682.637	540.6
683.061	542.6
683.462	546.4
683.864	543.1
684.288	555.6
684.69	543
685.114	557
685.516	555.5
685.94	539.4
686.342	553.8
686.766	546.2
687.168	546.3
687.571	568.5
687.995	545.9
688.398	540.3
688.822	547.1
689.225	560.2
689.628	559.2
690.052	547.5
690.456	550.7
690.88	548.3
691.284	537.6
691.687	553.3
692.112	535.6
692.515	540.3
692.919	541.5
693.344	543.9
693.747	538.1
694.173	540.5
694.577	553.8
694.98	543.4
695.406	543.2
695.81	546.3
696.214	553.4
696.64	546.9
697.044	551.8
697.448	544.4
697.874	542.9
698.279	542.5
698.684	541.6
699.11	538.8
699.514	542.9
699.919	541.4
700.324	533.7
700.75	546.8
701.156	548.5
701.561	556.6
701.987	543.4
702.393	557.2
702.798	554.1
703.203	543.1
703.63	539.3
704.036	539.1
704.442	545.3
704.847	536.5
705.274	543.2
705.68	551.6
706.086	550.1
706.492	531.1
706.92	541.1
707.326	549.6
707.732	547.6
708.139	541.4
708.545	533.9
708.973	544.8
709.38	549
709.786	536.9
710.193	559.8
710.6	543.3
711.028	536.2
711.435	543.2
711.842	548.1
712.249	536.8
712.656	544.6
713.064	556
713.492	538
713.9	543.9
714.307	541.3
714.715	544.8
715.123	547.5
715.53	545.4
715.938	548.5
716.367	541.6
716.775	536.4
717.184	538.8
717.592	544
718	551.2
718.408	579.7
718.816	583.8
719.225	549.1
719.633	544.4
720.042	532.5
720.472	542.9
720.881	566.5
721.29	548.4
721.699	534
722.108	552
722.517	544.2
722.926	541
723.335	555.5
723.744	542.7
724.154	540.4
724.563	543.2
724.973	549.3
725.382	541.4
725.792	540.8
726.202	539.1
726.612	551.2
727.022	542.2
727.432	538.6
779.813	539
780.223	589.6
780.634	539.1
781.044	534.6
781.454	549.2
781.865	551.3
782.276	537.1
782.686	552
783.097	542.1
783.508	540.2
783.919	551.1
784.33	552
784.741	551.5
785.152	534.7
785.563	528.4
785.974	542.4
786.386	558.1
786.776	538.5
787.188	543.6
787.599	535.3
788.011	551.4
788.423	546.6
788.835	538.5
789.247	538.9
789.659	539.3
790.071	538.1
790.483	580
790.874	540.9
791.286	555.9
791.699	534
792.111	542.6
792.524	543.6
792.937	541.2
793.349	532.7
793.741	541.4
794.154	534.9
794.567	563.1
794.98	538.8
795.393	531.4
795.785	559
796.198	532.9
796.612	543.1
797.026	535.7
797.439	524.6
797.831	533.9
798.245	528.7
798.659	534.5
799.073	527.7
799.487	534.1
799.88	535.5
800.294	542.3
800.708	550
801.123	543.9
801.516	561.8
801.93	535.2
802.345	526.3
802.76	545.5
803.153	556
803.568	553.2
803.983	547.1
804.377	544.8
804.792	533.3
805.207	531.1
805.601	539.9
806.016	574.4
806.432	538.8
806.826	565.2
807.242	557.2
807.658	546.6
808.052	535.1
808.468	535.9
808.884	535.1
809.279	541.5
809.695	553.8
810.111	554.2
810.506	544
810.922	559.7
811.339	538
811.734	549.7
812.151	538.1
812.546	535.3
812.963	530.8
813.38	543.5
813.776	540.5
814.193	560.6
814.589	532.5
815.006	538.9
815.402	530.3
815.82	532.9
816.237	537.2
816.633	543.6
817.051	534
817.448	538.2
817.866	536.1
818.262	557.5
818.68	538.4
819.077	539.2
819.495	539.9
819.892	576.2
820.311	536.1
820.708	534.4
821.127	536.4
821.524	553.2
821.943	543.6
822.34	558.7
822.759	547
823.157	543.7
823.576	555
823.974	545.5
824.393	551.8
824.791	535
825.189	532.9
825.609	537.3
826.007	540.8
826.427	530.4
826.826	538.5
827.246	538.9
827.644	528.9
828.043	549
828.463	534
828.862	545
829.261	547
829.682	534.2
830.081	544.2
830.502	532.7
830.901	547.4
831.301	536.8
831.722	528.2
832.121	536.8
832.521	538.4
832.943	537.8
833.342	534.7
833.742	532
834.164	534.7
834.564	531.4
834.965	538.3
835.386	536.7
835.787	534.2
836.188	540.6
836.588	537.5
837.01	536.2
837.411	536.5
837.812	546.6
838.213	538.6
838.636	535.6
839.037	603
839.438	541.3
839.84	535.2
840.263	546.2
840.664	544.6
841.066	541.5
841.468	538.1
841.891	533.8
842.293	545.9
842.695	541.9
843.098	549.6
