#lambda/nm	C1
208.295	470.5
208.67	439.8
209.045	400.4
209.419	406.2
209.794	594.3
210.169	573.1
210.544	688.1
210.919	591
211.295	573.3
211.67	581.8
212.045	577.8
212.421	580.7
212.796	620
213.172	579.5
213.547	576.9
213.923	581.1
214.299	576.3
214.675	589.9
215.051	589.6
215.427	589.1
215.803	603.4
216.179	589.1
216.555	576.5
216.932	588.4
217.308	581.7
217.684	579.3
218.061	587
218.438	586.9
218.814	578.3
219.191	595.8
219.568	582.3
219.945	583.9
220.322	590.8
220.699	587.3
221.076	590.6
221.453	587.7
221.83	579.8
222.208	585.4
222.585	578.2
222.962	588.2
223.34	590.7
223.717	581.6
224.095	582.1
224.473	589.9
224.851	577.4
225.229	576.4
225.607	604.8
225.985	574.5
226.363	586.3
226.741	584.5
227.119	582.2
227.497	600.4
227.876	572.8
228.254	591.5
228.633	592.3
229.011	582.7
229.39	586
229.769	584.7
230.148	586.5
230.527	602.5
230.905	586
231.284	586.3
231.664	582.1
232.043	597.2
232.422	585.7
232.801	579.7
233.181	587.2
233.56	582.9
233.94	589.9
234.319	579
234.699	584.1
235.079	623.8
235.458	620.2
235.838	598.9
236.218	580.4
236.598	571.5
236.978	574.3
237.358	580.1
237.738	580.2
238.119	587.9
238.499	569.6
238.88	581
239.26	596.3
239.641	577.6
240.021	576
240.402	584.1
240.783	582.1
241.163	582.8
241.544	591
241.925	586.8
242.306	596.7
242.687	577.8
243.069	587.1
243.45	594.5
243.831	578.2
244.212	582.6
244.594	624.4
244.975	596
245.357	590.3
245.739	577.5
246.12	585
246.502	596.6
246.884	587.3
247.266	577.8
247.648	586.5
248.03	604.5
248.412	585.9
248.794	587.3
249.176	570.3
249.559	591.4
249.941	577.9
250.323	574.6
250.706	579.9
251.089	578.9
251.471	587.9
251.854	584.1
252.237	581.3
252.62	594.4
253.002	588.9
253.385	584.9
253.769	602.3
254.152	584.2
254.535	589.1
254.918	574.7
255.301	579.1
255.685	582.2
256.068	577.4
256.452	611.2
256.835	586.7
257.219	586.1
257.603	594.2
257.986	572.8
258.37	593.4
258.754	572.5
259.138	597.5
259.522	592.9
259.906	580.6
260.29	591.2
260.675	578.8
261.059	588.1
261.443	576.1
261.828	589.2
262.212	591.7
262.597	571
262.981	580.9
263.366	591
263.751	593.1
264.136	579.2
264.521	584.9
264.906	572.9
265.291	600.5
265.676	583.1
266.061	591.7
266.446	602
266.831	585.3
267.217	603.7
267.602	592
267.987	589.3
268.373	583.9
268.759	597.2
269.144	590.8
269.53	579.9
269.916	587.5
270.302	579.7
270.688	589
271.074	590.9
271.46	594.5
271.846	616.2
272.232	581
272.618	585.9
273.004	582.3
273.391	594.5
273.777	601.5
274.164	587.4
274.55	601.7
274.937	590
275.324	583.8
275.71	588.2
276.097	590.1
276.484	576.7
276.871	587.3
277.258	587.6
277.645	572.5
278.032	582.2
278.419	583.1
278.807	587.2
279.194	574.2
279.581	580.9
279.969	591.4
280.356	588.3
280.744	588
281.131	607.6
281.519	598
281.907	582.2
282.295	581.8
282.682	598.8
283.07	589.3
283.458	596.1
283.846	590.5
284.235	600.2
284.623	594
285.011	577.1
285.399	585.9
285.788	587.4
286.176	579.4
286.565	595.5
286.953	584.2
287.342	586.5
287.731	578.4
288.119	573.9
288.508	587.9
288.897	582.3
289.286	572
289.675	584.6
290.064	601.2
290.453	582.1
290.821	581.7
291.21	600.8
291.599	582.1
291.989	585.5
292.378	589.5
292.768	599.9
293.157	591.5
293.547	595.6
293.936	583.7
294.326	580
294.716	592.2
295.106	583.8
295.496	591.4
295.886	594.8
296.276	582.4
296.666	582.9
297.056	580.4
297.446	574.7
297.836	599.2
298.227	578.7
298.617	585.5
299.008	595.3
299.398	590.8
299.789	580
300.179	589.3
300.57	599.8
300.961	580.6
301.352	585.1
301.742	592
302.133	591.4
302.524	585.1
302.915	588.1
303.307	577.4
303.698	594.9
304.089	588.2
304.48	590.3
304.872	593.6
305.263	586.8
305.655	575.6
306.046	589.2
306.438	590.4
306.829	576.3
307.221	594.1
307.613	589.3
308.005	595
308.397	595.1
308.789	605.2
309.181	611.6
309.573	600
309.965	595.8
310.357	576.5
310.749	588.1
311.142	583.6
311.534	581.7
311.926	590.1
312.319	585.3
312.711	583.4
313.104	594.5
313.497	584.5
313.889	619
314.282	603.2
314.675	612.3
315.068	589.7
315.461	588.4
315.854	621.7
316.247	587.6
316.64	580.7
317.033	589.6
317.405	592.5
317.798	584.4
318.192	590.7
318.585	576.6
318.979	590
319.372	580.8
319.766	587
320.16	596.8
320.553	599.8
320.947	608.4
321.341	583.9
321.735	589.4
322.129	573.7
322.523	612.7
322.917	580.9
323.311	595.4
323.705	584.1
324.099	591.9
324.494	603.5
324.888	596
325.282	583.3
325.677	588
326.071	595.6
326.466	600.4
326.861	591.2
327.255	600.9
327.65	597.9
328.045	602.9
328.44	586.9
328.835	589
329.23	586.2
329.625	609.9
330.02	584.3
330.415	610.1
330.81	591.7
331.206	584.6
331.601	583.9
331.996	592.7
332.37	597.5
332.766	580.1
333.161	607.4
333.557	579.4
333.953	587.6
334.348	930
334.744	588.9
335.14	581.9
335.536	579.8
335.932	595.9
336.328	585
336.724	596
337.12	583.4
337.516	597
337.913	583.5
338.309	599.6
338.705	588.1
339.102	595.4
339.498	583.4
339.895	601
340.291	582.6
340.688	592
341.085	583.8
341.481	578.6
341.878	587.1
342.275	608.8
342.672	576
343.069	582.7
343.466	578.5
343.842	597.2
344.239	580.2
344.636	580.9
345.033	576.4
345.431	578.4
345.828	588.3
346.225	581.4
346.623	586.9
347.02	584
347.418	593.2
347.816	595.1
348.213	575.8
348.611	588.6
349.009	577.5
349.407	598.1
349.805	577.5
350.203	566.6
350.601	599.3
350.999	580.4
351.397	577.5
351.795	589.6
352.193	589.5
352.57	593.2
352.969	597
353.367	571.1
353.766	571
354.164	581.8
354.563	593.3
354.961	579.6
355.36	578.5
355.759	580.6
356.158	570.5
356.557	577.7
356.956	577
357.355	572.7
357.754	583.7
358.153	586.5
358.552	607.5
358.951	580.1
359.35	589.3
359.75	578.4
360.149	574.6
360.527	568.2
360.926	571.7
361.326	585.2
361.726	579.8
362.125	569.9
362.525	587
362.925	580.5
363.325	578.9
363.724	578.9
364.124	578.7
364.524	576.5
364.924	577.6
365.324	592.7
365.725	565.1
366.125	583.4
366.525	581.8
366.904	572.9
367.304	564.3
367.705	590.2
368.105	590.5
368.506	574.4
368.906	578.9
369.307	582.6
369.708	583.5
370.108	569.8
370.509	588.7
370.91	571
371.311	578.5
371.712	583.2
372.113	578.4
372.514	564.6
372.894	582.3
373.295	573.3
373.696	586.1
374.097	590.1
374.499	605.7
374.9	578.2
375.301	575.3
375.703	581.1
376.105	575.3
376.506	584.5
376.908	582.7
377.309	582.2
377.711	575.9
378.113	574.5
378.493	580.2
378.895	572.5
379.297	590.9
379.699	561.8
380.102	580.7
380.504	579.8
380.906	574.4
381.308	601.1
381.71	576.1
382.113	586.8
382.515	578.8
382.918	582
383.299	579.8
383.701	587.4
384.104	578.5
384.507	563
384.909	577.5
385.312	568.6
385.715	576.2
386.118	572.4
386.521	570.5
386.924	584.1
387.327	577.6
387.709	562.9
388.112	562.9
388.515	571.9
388.918	582.1
389.322	583.5
389.725	568
390.129	597.2
390.532	580
390.936	575.6
391.339	571.5
391.743	582.5
392.125	564.2
392.529	587.6
392.933	588.9
393.337	573.6
393.74	574.4
394.144	573.4
394.548	574.3
394.953	574.4
395.357	580
395.761	577.2
396.144	579.4
396.548	572.8
396.952	576.7
397.357	578.6
397.761	577.2
398.166	571.6
398.57	575.3
398.975	570
399.379	575.1
399.763	622.4
400.168	570.6
400.572	571.5
400.977	574.2
401.382	597.7
401.787	582.6
402.192	582.8
402.597	587.3
403.002	560
403.386	587.5
403.791	592.1
404.197	567.1
404.602	572.7
405.007	572.5
405.413	570.1
405.818	568.9
406.224	570
406.608	568.8
407.014	571.6
407.42	587.8
407.825	574.3
408.231	582.5
408.637	578.5
409.043	595.3
409.449	571.5
409.834	567
410.24	578.8
410.646	587.8
411.052	583.3
411.458	581.2
411.865	590.7
412.271	588.1
412.677	576.2
413.062	578.9
413.469	564.7
413.875	607.8
414.282	593.3
414.689	578.9
415.095	585.6
415.502	573.4
415.888	576.2
416.294	565.6
416.701	622.6
417.108	577
417.515	587.7
417.923	575.3
418.33	600.1
418.715	585.6
419.123	579.8
419.53	574.3
419.937	581.3
420.345	594.3
420.752	576.6
421.16	593.3
421.546	576.2
421.953	587.1
422.361	569.6
422.769	579
423.177	570.1
423.585	601
423.992	598
424.379	587.2
424.787	594.7
425.195	600.1
425.603	583.7
426.011	594
426.419	590.7
426.806	584.8
427.214	584.1
427.623	589.8
428.031	595.5
428.44	584.1
428.848	591.6
429.235	592.7
429.644	580.6
430.053	579.8
430.461	593
430.87	606.4
431.279	591.9
431.666	579.6
432.075	579.7
432.484	584.6
432.893	577
433.302	601.2
433.711	621.5
434.099	582.4
434.508	578.5
434.918	568
435.327	584.9
435.737	585.5
436.125	582.3
436.534	580.7
436.944	590.3
437.353	590.9
437.763	601.8
438.173	572.3
438.561	591.9
438.971	568.5
439.381	583.2
439.791	584.9
440.201	568.5
440.589	591.2
440.999	589.2
441.409	586.9
441.819	578.3
442.23	593
442.619	594.4
443.029	584.3
443.439	587.9
443.85	595.5
444.26	603.2
444.649	591.3
445.06	586.7
445.471	582.8
445.881	590.3
446.292	605.3
446.682	609.7
447.092	576.2
447.503	633.2
447.914	583.6
448.325	590.7
448.715	585.1
449.126	580.7
449.537	591.5
449.948	588.3
450.338	597.7
450.75	596.8
451.161	592.1
451.572	598.5
451.984	582.2
452.374	574.4
452.786	590.5
453.197	596.7
453.609	596.9
453.999	578
454.411	588.6
454.823	603.1
455.235	594.9
455.647	590.9
456.037	597.1
456.449	577.7
456.862	596.4
457.274	593.8
457.665	586
458.077	600.2
458.489	602.5
458.902	590.9
459.293	595.3
459.705	592.6
460.118	585.6
460.53	593.6
460.921	595
461.334	594.7
461.747	593.9
462.16	609.1
462.551	605.3
462.964	598.3
463.377	583.4
463.79	590.1
464.182	600
464.595	585.3
465.008	597.8
465.421	594.5
465.813	587.1
466.226	598.5
466.64	586.4
467.053	628.4
467.445	601
467.859	594.5
468.272	594.8
468.686	596.4
469.078	586.9
469.492	580.9
469.906	595.4
470.298	595.4
470.712	586
471.126	624.6
471.54	578.4
471.933	581.3
472.347	589.8
472.761	584.8
473.175	578.6
473.568	584.2
473.982	582.4
474.397	586.4
474.79	593.3
475.204	594.9
475.619	588.5
476.033	589.3
476.426	586.7
476.841	584.3
477.256	610.7
477.649	587.9
478.064	581
478.479	583.6
478.872	578.9
479.287	573.4
479.702	573.5
480.118	584
480.511	584.2
480.927	579.3
481.342	585.8
481.736	586.9
482.151	576.3
482.566	589.3
482.96	584
483.376	596.9
483.792	580.7
484.186	589.4
484.602	581.8
485.017	580.7
485.412	583.2
485.827	595.5
486.243	586.1
486.638	609.7
487.054	594.4
487.47	602.6
487.865	578.4
488.281	578
488.697	579.3
489.092	583.9
489.508	581.7
489.925	594.4
490.32	579
490.736	584.5
491.153	582.9
491.548	585.9
491.964	592.7
492.381	573.1
492.776	587.9
493.193	584
493.61	591.1
494.006	579.8
494.422	592.3
494.84	569.6
495.235	587.6
495.652	578
496.069	584.7
496.465	569.8
496.883	580.9
497.3	602.9
497.696	574.2
498.113	585.8
498.509	566.6
498.927	568
499.344	565.9
499.741	568
500.158	587.9
500.576	588.4
500.973	578.8
501.39	575.5
501.787	571.2
502.205	582
502.623	576.1
503.02	573.4
503.438	569.3
503.856	580.3
504.253	582.9
504.671	580.1
505.068	573.6
505.486	578.2
505.905	599.6
506.302	581
506.72	589.7
507.118	566.5
507.536	580.9
507.955	571.2
508.352	581.6
508.771	582.6
509.169	586.3
509.587	571.8
510.006	575.7
510.404	574
510.823	573.2
511.221	576
511.64	573.7
512.038	584.4
512.457	576.1
512.877	580.5
513.275	568.7
513.694	575.5
514.092	575.8
514.512	578.4
514.91	577.3
515.33	576.8
515.749	577.5
516.148	580.1
516.568	575.6
516.966	571.3
517.386	570.6
517.785	580
518.205	574.5
518.603	568.5
519.024	567.5
519.444	576.4
519.843	582.9
520.263	574.4
520.662	576.3
521.082	574.8
521.481	576.4
521.902	571.2
522.301	575.5
522.722	579.6
523.121	571.1
523.542	566
523.963	571.4
524.362	576.2
524.783	573.7
525.183	575.7
525.604	578.3
526.003	569.2
526.425	565.7
526.824	573
527.246	582.2
527.646	577.4
528.067	573.4
528.467	572.2
528.888	577.6
529.289	568.1
529.71	573.5
530.11	564.6
530.532	571.9
530.932	565.5
531.354	560.6
531.755	603.6
532.176	577.1
532.577	572.4
532.999	573.9
533.4	571.2
533.822	583.3
534.223	575.9
534.645	572.6
535.046	571.3
535.468	573.5
535.869	581.3
536.292	570.6
536.693	571
537.115	571.8
537.516	563.1
537.939	568
538.34	584.5
538.742	580
539.165	566.6
539.566	568.8
539.989	562.9
540.391	566.8
540.814	567.4
541.216	564.9
541.639	568.8
542.041	575
542.464	569.7
542.866	563.9
543.268	559.1
543.691	571.9
544.093	569.7
544.517	589.8
544.919	560.7
545.343	590.2
545.745	557.9
546.147	568
546.571	568.1
546.974	559.7
547.398	568.3
547.8	578.5
548.224	562.7
548.627	563
549.03	571.8
549.454	563.6
549.857	557.1
550.281	558.2
550.684	558.4
551.087	570.3
551.512	570.1
551.915	573.5
552.34	568
552.743	564.8
553.146	572.1
553.571	568.2
553.975	584.4
554.399	557.5
554.803	612.2
555.207	566.8
555.632	558.3
556.036	571.3
556.461	550.7
556.865	567.2
557.268	557
557.694	562.2
558.098	580
558.502	570.1
558.927	562.6
559.332	565.5
559.736	566.6
560.162	572.2
560.566	567.8
560.992	572.1
561.396	564.6
561.801	569.3
562.227	567.2
562.631	567.6
563.036	567.2
563.462	576.3
563.867	565.6
564.272	554.1
564.698	566.8
565.103	558.4
565.508	588.9
565.935	565.7
566.34	560.5
566.745	579
567.172	569.1
567.577	583.6
567.982	578
568.409	567.1
568.815	560.6
569.22	557.8
569.626	570.7
570.053	551.6
570.459	568.8
570.865	572.7
571.292	571
571.698	565.7
572.104	555.4
572.531	564.9
572.937	572.7
573.343	560.7
573.75	562.2
574.177	563.2
574.583	572.4
574.99	565.9
575.396	566.4
575.824	555.4
576.231	569.2
576.637	557.4
577.065	585.9
577.472	559.6
577.879	558.4
578.286	577.8
578.714	556.1
579.121	561.7
579.528	567.1
579.935	572.8
580.364	560.3
580.771	548
581.178	563.1
581.585	563.3
582.014	569.9
582.421	566
582.829	562.1
583.236	570.4
583.644	558
584.073	568.1
584.481	561
584.889	556.8
585.296	567.3
585.726	566.9
586.134	551.9
586.542	556.9
586.95	583.9
587.358	552
587.787	566.4
588.196	551.3
588.604	564.3
589.012	563
589.421	557.8
589.851	557.1
590.259	562.5
590.668	551
591.076	593.5
591.485	553.7
591.894	558.7
592.324	571.3
592.733	569.8
593.142	551.9
593.551	557.3
593.96	560.9
594.369	545.4
594.8	552.5
595.209	557.3
595.618	549.7
596.028	554.4
596.437	550.1
596.847	560.4
597.256	564.3
597.687	558.1
598.097	560.1
598.507	552
598.917	561.3
599.327	570.7
599.736	567.8
600.146	569.4
600.556	564.5
600.988	571.5
601.398	554.6
601.808	569.9
602.219	555.1
602.629	559.3
603.039	564.1
603.45	590.3
603.86	565
604.271	573.2
604.703	558
605.114	562.5
605.525	559.7
605.935	565.3
606.346	583.1
606.757	566.7
607.168	561.6
607.579	556.4
607.99	571.2
608.402	563.9
608.813	561.9
609.224	563.1
609.636	553.8
610.047	550.6
610.48	566.2
610.892	568.8
611.303	569.2
611.715	559.8
612.127	554.3
612.539	556.7
612.95	558.4
613.362	549.8
613.774	550.7
614.186	554.5
614.599	553.6
615.011	571.2
615.423	549.6
615.835	554.5
616.248	552.6
616.66	569.6
617.073	551.6
617.485	560.9
617.898	566.5
618.311	558.1
618.723	562.5
619.136	589.6
619.549	572.6
619.962	581
620.375	559.9
620.788	564.3
621.201	554.9
621.614	561.9
622.028	555.9
622.441	564.6
622.854	571
623.268	552.8
623.681	565.7
624.095	560.5
624.509	571.8
624.922	566.8
625.336	555.2
625.728	562.7
626.142	573.8
626.556	575.1
626.97	564.3
627.384	556.9
627.799	565.6
628.213	565.4
628.627	559.9
629.041	554.6
629.456	556.2
629.87	563.1
630.285	570
630.699	569.8
631.093	565.5
631.507	561.9
631.922	560.4
632.337	572.8
632.752	550.7
633.167	561.3
633.582	556.1
633.997	551.3
634.412	552.3
634.806	559.3
635.221	555.4
635.637	572.3
636.052	545.8
636.468	557
636.883	580.4
637.299	560.5
637.715	548
638.109	557.5
638.525	547
638.941	573.7
639.357	566.9
639.773	567.6
640.189	556.9
640.584	554.4
641	559.1
641.416	547.8
641.832	556.6
642.249	555.5
642.665	557.6
643.06	564.8
643.477	561.8
643.894	541.1
644.31	559
644.727	567.6
645.123	564.1
645.54	552.5
645.957	561.2
646.374	561.8
646.77	559.7
647.187	591.8
647.604	554.7
648.021	543.4
648.439	548.4
648.835	557.9
649.252	558.1
649.67	554
650.088	556.5
650.484	562.4
650.902	565.2
651.32	563.4
651.738	552.8
652.134	561.5
652.552	574.3
652.971	564.1
653.389	558.3
653.786	574.7
654.204	560.8
654.622	550
655.019	557.4
655.438	564
655.857	555.4
656.275	560.6
656.673	550.7
657.091	623.3
657.51	548.9
657.908	563.9
658.327	568.3
658.746	544.9
659.144	553.6
659.563	567
659.982	555.9
660.38	550.2
660.8	562.5
661.219	568.6
661.617	558.4
662.037	554.8
662.457	570.6
662.855	546.9
663.275	585
663.695	561.1
664.094	554.4
664.514	558
664.934	551.2
665.333	563.2
665.753	555.9
666.152	551.3
666.572	547.5
666.993	568.6
667.392	557.2
667.812	551.9
668.212	558.3
668.632	567.7
669.053	550.6
669.453	563.8
669.874	561.8
670.273	558.1
670.694	546.9
671.116	569.1
671.515	564.8
671.937	551.8
672.337	559.1
672.758	552
673.158	568.6
673.58	548.9
673.98	558.4
674.402	566.8
674.824	560.3
675.224	551.4
675.646	554.1
676.047	551.1
676.469	562.9
676.869	561.8
677.292	561.1
677.693	555.3
678.115	554.7
678.516	561.5
678.939	567
679.34	555.7
679.762	571.3
680.164	560.7
680.586	553
680.988	562
681.411	578.6
681.812	553.4
682.236	553.9
682.637	547.9
683.061	544
683.462	558.9
683.864	556.9
684.288	562.9
684.69	548.5
685.114	563.4
685.516	560
685.94	544.5
686.342	560.1
686.766	548.7
687.168	550.6
687.571	568.5
687.995	550.5
688.398	547.4
688.822	553.8
689.225	570.4
689.628	564.7
690.052	558.3
690.456	558
690.88	554.2
691.284	545.8
691.687	564
692.112	545.6
692.515	546.3
692.919	554.1
693.344	558.6
693.747	558.3
694.173	547.7
694.577	564.6
694.98	551.8
695.406	547.8
695.81	552.9
696.214	557.1
696.64	560
697.044	560.7
697.448	564
697.874	551.6
698.279	554.2
698.684	539.9
699.11	547.5
699.514	558.3
699.919	552.9
700.324	547.4
700.75	555.1
701.156	557.4
701.561	566.4
701.987	556.6
702.393	559.3
702.798	563.6
703.203	553.5
703.63	547.5
704.036	553.9
704.442	561.8
704.847	549.5
705.274	550.3
705.68	553
706.086	570.1
706.492	543
706.92	552.3
707.326	558.4
707.732	551.1
708.139	546.6
708.545	546.1
708.973	548.2
709.38	552.3
709.786	543.2
710.193	571.8
710.6	555.1
711.028	549.7
711.435	558.2
711.842	556.6
712.249	553.6
712.656	548.6
713.064	558.6
713.492	546.4
713.9	549.5
714.307	558
714.715	555.1
715.123	561.3
715.53	557.2
715.938	563.4
716.367	556.5
716.775	551.5
717.184	548.6
717.592	546.8
718	563.7
718.408	588.3
718.816	596.1
719.225	558.4
719.633	556.5
720.042	547.7
720.472	550.1
720.881	569.8
721.29	559.8
721.699	543.7
722.108	555.3
722.517	554.3
722.926	547.9
723.335	564.8
723.744	554.3
724.154	550.1
724.563	553.3
724.973	559
725.382	553.6
725.792	551.7
726.202	547.5
726.612	562.7
727.022	556.1
727.432	546.9
779.813	547.5
780.223	598.7
780.634	550.3
781.044	545.2
781.454	550.6
781.865	567.3
782.276	541.8
782.686	559.1
783.097	555
783.508	555.5
783.919	551.9
784.33	569.1
784.741	563.1
785.152	546.4
785.563	538.4
785.974	546.7
786.386	559.6
786.776	553.5
787.188	552.1
787.599	546
788.011	560.5
788.423	560.2
788.835	548.2
789.247	545.4
789.659	547.3
790.071	547.5
790.483	588.8
790.874	551.5
791.286	553
791.699	551.5
792.111	552.9
792.524	558.5
792.937	552.8
793.349	542.3
793.741	548.2
794.154	550.1
794.567	569
794.98	549.9
795.393	538.9
795.785	569.4
796.198	546.8
796.612	552.3
797.026	551.8
797.439	532.4
797.831	552.7
798.245	536.7
798.659	549.2
799.073	549.2
799.487	547.6
799.88	556.5
800.294	549.5
800.708	555.2
801.123	552.5
801.516	572.8
801.93	545.9
802.345	536.6
802.76	556.8
803.153	559.4
803.568	566.7
803.983	562.3
804.377	554.3
804.792	541.5
805.207	537.7
805.601	553.5
806.016	583.6
806.432	547.5
806.826	580.1
807.242	569.7
807.658	556.8
808.052	543.3
808.468	542.1
808.884	544.8
809.279	553
809.695	559.6
810.111	572.7
810.506	550.2
810.922	565
811.339	543.3
811.734	559.4
812.151	549.4
812.546	545.6
812.963	545.9
813.38	555.1
813.776	552
814.193	572.1
814.589	547.9
815.006	551.8
815.402	547.5
815.82	548.3
816.237	551.8
816.633	552.6
817.051	544
817.448	550.5
817.866	538.5
818.262	568.2
818.68	547.2
819.077	548.2
819.495	553
819.892	589
820.311	545.4
820.708	548.6
821.127	545.2
821.524	564.9
821.943	554
822.34	570.1
822.759	557.2
823.157	549
823.576	562.7
823.974	561
824.393	564.8
824.791	547.1
825.189	543.9
825.609	555.6
826.007	547.1
826.427	540
826.826	554.2
827.246	560.1
827.644	538.6
828.043	559.1
828.463	550
828.862	560.8
829.261	557.2
829.682	541.3
830.081	553.6
830.502	547.5
830.901	548.9
831.301	549.3
831.722	543.3
832.121	553
832.521	547.3
832.943	547.6
833.342	550.7
833.742	546.5
834.164	544.8
834.564	542.8
834.965	550.7
835.386	545.3
835.787	548.8
836.188	542.3
836.588	547.3
837.01	547.2
837.411	543.6
837.812	549.4
838.213	553.1
838.636	546.5
839.037	612.6
839.438	548.7
839.84	547.1
840.263	551.2
840.664	550.4
841.066	547.7
841.468	549.7
841.891	543.9
842.293	560.3
842.695	560
843.098	562
843.5	550.4
843.902	554.2
844.326	556.2
844.729	555.6
845.131	564.8
845.534	552.5
845.937	563.4
846.34	566.3
846.764	546.4
847.167	553.9
847.571	541.2
847.974	545.7
848.377	543.7
