#lambda/nm	C1
208.295	470.4
208.67	439.7
209.045	399.8
209.419	407
209.794	576.2
210.169	560
210.544	675
210.919	575.7
211.295	566
211.67	580.9
212.045	568.4
212.421	569.6
212.796	600.6
213.172	566.3
213.547	570.1
213.923	566.7
214.299	573.1
214.675	580.9
215.051	573.2
215.427	581.4
215.803	595.9
216.179	579.5
216.555	567.1
216.932	584.9
217.308	577
217.684	575.8
218.061	585.8
218.438	577.5
218.814	574.9
219.191	579.8
219.568	562.1
219.945	572.2
220.322	581.3
220.699	579.5
221.076	586
221.453	576
221.83	570.6
222.208	570.7
222.585	573.5
222.962	579.3
223.34	575
223.717	575.7
224.095	575.8
224.473	577.1
224.851	572.5
225.229	567
225.607	590.2
225.985	566.2
226.363	578.4
226.741	577.6
227.119	577.5
227.497	588.1
227.876	568
228.254	581.3
228.633	578.7
229.011	574.6
229.39	579.9
229.769	580
230.148	584.3
230.527	594.6
230.905	578
231.284	579.2
231.664	572.4
232.043	584.5
232.422	583
232.801	571.5
233.181	581.8
233.56	572.6
233.94	573.7
234.319	561.9
234.699	574.5
235.079	614.5
235.458	610.2
235.838	587.4
236.218	566.4
236.598	558.4
236.978	566.2
237.358	566.2
237.738	570.4
238.119	577.2
238.499	565.3
238.88	576.2
239.26	590.5
239.641	566
240.021	579.3
240.402	576.4
240.783	570.6
241.163	576.2
241.544	581.6
241.925	579.3
242.306	589.5
242.687	565.3
243.069	574.6
243.45	582.3
243.831	568.4
244.212	571.9
244.594	607.6
244.975	583.5
245.357	577.5
245.739	566.8
246.12	575.4
246.502	589.9
246.884	571.2
247.266	571.3
247.648	578.7
248.03	593.1
248.412	581
248.794	579
249.176	567.7
249.559	581.4
249.941	568.3
250.323	566.1
250.706	568.6
251.089	570.5
251.471	579.6
251.854	573.8
252.237	571.7
252.62	576.6
253.002	572.5
253.385	572.7
253.769	587.3
254.152	572.8
254.535	577
254.918	569.1
255.301	576
255.685	573.5
256.068	568.6
256.452	593.9
256.835	580.5
257.219	580.5
257.603	589.6
257.986	565.4
258.37	573.5
258.754	567.6
259.138	578.3
259.522	589.4
259.906	571.5
260.29	579.8
260.675	570.8
261.059	577.8
261.443	570.1
261.828	581.3
262.212	578.5
262.597	566.8
262.981	575.7
263.366	582.2
263.751	579.3
264.136	572.2
264.521	573.8
264.906	566.5
265.291	586.1
265.676	571.2
266.061	582.1
266.446	587.6
266.831	575.4
267.217	595.5
267.602	576.2
267.987	577.4
268.373	579.6
268.759	578.6
269.144	584
269.53	576.9
269.916	574.1
270.302	574.9
270.688	577
271.074	579.3
271.46	581.3
271.846	607.9
272.232	580.7
272.618	571.2
273.004	574.4
273.391	582.9
273.777	586.5
274.164	581.7
274.55	595.2
274.937	571.5
275.324	572.3
275.71	584.4
276.097	582.9
276.484	571.1
276.871	582.7
277.258	578.8
277.645	567
278.032	577.6
278.419	574.1
278.807	576.2
279.194	568.9
279.581	571.7
279.969	579.5
280.356	575.8
280.744	575.2
281.131	598.3
281.519	591.7
281.907	574.2
282.295	575.1
282.682	586
283.07	582.8
283.458	584.8
283.846	590.7
284.235	590.4
284.623	583.3
285.011	570.1
285.399	577.4
285.788	571.8
286.176	564.5
286.565	589.2
286.953	567.5
287.342	576.3
287.731	568.8
288.119	574.4
288.508	577
288.897	577.6
289.286	561.4
289.675	573.5
290.064	581.4
290.453	576.1
290.821	575.6
291.21	586.5
291.599	572
291.989	576.4
292.378	583.5
292.768	591.3
293.157	577.9
293.547	587.1
293.936	572.1
294.326	569
294.716	585.8
295.106	571.4
295.496	582.5
295.886	585.4
296.276	577
296.666	573.7
297.056	575.4
297.446	563.8
297.836	594.6
298.227	572.9
298.617	577
299.008	591.4
299.398	579
299.789	572.4
300.179	584.5
300.57	593.8
300.961	573.6
301.352	576.1
301.742	590.4
302.133	577.3
302.524	578.2
302.915	580.3
303.307	569.2
303.698	587.1
304.089	582.1
304.48	575.3
304.872	580.7
305.263	575.8
305.655	571.2
306.046	580.5
306.438	580.4
306.829	572.8
307.221	591.2
307.613	578.5
308.005	584.9
308.397	595.3
308.789	600.4
309.181	601.1
309.573	593
309.965	591.5
310.357	575.3
310.749	582
311.142	567.2
311.534	572.8
311.926	587.4
312.319	577.1
312.711	574.2
313.104	590.1
313.497	577.8
313.889	618.8
314.282	595.2
314.675	602.7
315.068	584.5
315.461	579.6
315.854	604.3
316.247	586.5
316.64	576.1
317.033	577.6
317.405	586
317.798	577.7
318.192	579.2
318.585	572.9
318.979	582
319.372	573.8
319.766	577
320.16	585.4
320.553	591.5
320.947	594.7
321.341	577
321.735	577.9
322.129	565.7
322.523	607.6
322.917	573.7
323.311	588.9
323.705	583
324.099	590
324.494	592.3
324.888	586.9
325.282	576.3
325.677	580.5
326.071	586.7
326.466	590.3
326.861	579.4
327.255	587.6
327.65	592.3
328.045	586.9
328.44	580.7
328.835	573.7
329.23	572
329.625	603.7
330.02	564.7
330.415	595.9
330.81	576.2
331.206	578.5
331.601	573.1
331.996	588.1
332.37	586.5
332.766	569.2
333.161	596.4
333.557	577.5
333.953	579.6
334.348	895.7
334.744	580.3
335.14	575.1
335.536	577.4
335.932	585.8
336.328	579.2
336.724	590.1
337.12	572.2
337.516	584.2
337.913	579.4
338.309	589.9
338.705	582.7
339.102	591.1
339.498	574.6
339.895	587.7
340.291	572.8
340.688	586.7
341.085	570.8
341.481	575.8
341.878	574.3
342.275	594
342.672	566.8
343.069	570.3
343.466	558.8
343.842	585.2
344.239	570.7
344.636	577.5
345.033	569.7
345.431	567.9
345.828	573.7
346.225	571.2
346.623	584.9
347.02	579.4
347.418	579.8
347.816	590.3
348.213	567.3
348.611	575.3
349.009	567.6
349.407	589.9
349.805	563
350.203	562
350.601	584.9
350.999	577
351.397	564.1
351.795	574.1
352.193	581.9
352.57	581.1
352.969	580.8
353.367	565
353.766	562.7
354.164	572.5
354.563	583
354.961	572.4
355.36	571.5
355.759	574.3
356.158	566.3
356.557	569.9
356.956	560.4
357.355	563
357.754	575.6
358.153	576.4
358.552	595.7
358.951	571.8
359.35	586.9
359.75	569.8
360.149	564.3
360.527	556.3
360.926	566
361.326	570.5
361.726	572.9
362.125	561.2
362.525	578.4
362.925	568
363.325	570.8
363.724	576.9
364.124	570
364.524	563.5
364.924	568.7
365.324	586.6
365.725	557.5
366.125	577.2
366.525	572.8
366.904	563.1
367.304	559
367.705	591.1
368.105	581.6
368.506	568.3
368.906	573.1
369.307	571.1
369.708	576.7
370.108	560.3
370.509	573.8
370.91	565.4
371.311	569.4
371.712	573.8
372.113	569.5
372.514	555.5
372.894	574.9
373.295	563.2
373.696	577.3
374.097	578.6
374.499	600.9
374.9	574.1
375.301	567.4
375.703	576.3
376.105	563
376.506	573.6
376.908	578.1
377.309	570.5
377.711	576.3
378.113	567.8
378.493	575.8
378.895	567.2
379.297	569.7
379.699	557.9
380.102	571.4
380.504	570.2
380.906	564.9
381.308	589.6
381.71	563.3
382.113	576.8
382.515	569.6
382.918	572.8
383.299	562.2
383.701	578.5
384.104	573
384.507	554.1
384.909	565.4
385.312	553.1
385.715	560.5
386.118	562.4
386.521	552.7
386.924	572.9
387.327	556.8
387.709	556.2
388.112	553.4
388.515	565.3
388.918	567.4
389.322	573.8
389.725	563
390.129	589.6
390.532	570.4
390.936	561.1
391.339	559.5
391.743	575.2
392.125	561.1
392.529	576.4
392.933	580.9
393.337	568.1
393.74	563.9
394.144	571.8
394.548	559.8
394.953	569
395.357	572.7
395.761	560.3
396.144	567.1
396.548	566.2
396.952	571.7
397.357	572.2
397.761	565.5
398.166	563.9
398.57	569
398.975	562.4
399.379	572.6
399.763	613.2
400.168	566.6
400.572	565.7
400.977	563.7
401.382	585.8
401.787	578.9
402.192	591.1
402.597	585.1
403.002	558.5
403.386	583
403.791	585.5
404.197	563.6
404.602	568
405.007	573.3
405.413	563.5
405.818	565.5
406.224	557.8
406.608	566.7
407.014	564.3
407.42	582.4
407.825	565.1
408.231	571.8
408.637	577.2
409.043	581
409.449	569.8
409.834	562.3
410.24	566.9
410.646	576.8
411.052	576.2
411.458	577.5
411.865	577.6
412.271	580
412.677	573.4
413.062	569.9
413.469	559.9
413.875	595
414.282	581.4
414.689	573.2
415.095	578.1
415.502	570.3
415.888	567.6
416.294	553.2
416.701	604.1
417.108	561.3
417.515	577.2
417.923	567.4
418.33	589.2
418.715	580.9
419.123	566.9
419.53	568.6
419.937	573.6
420.345	585.1
420.752	565.5
421.16	584.2
421.546	568.5
421.953	573.8
422.361	563.5
422.769	570.4
423.177	567.2
423.585	593
423.992	583.4
424.379	586.7
424.787	581.9
425.195	589.5
425.603	571.6
426.011	579.4
426.419	583.9
426.806	572.5
427.214	575.2
427.623	580.3
428.031	591.3
428.44	579
428.848	580.2
429.235	590.8
429.644	576.7
430.053	575.3
430.461	593.5
430.87	601.1
431.279	599.4
431.666	585.8
432.075	598.5
432.484	603.3
432.893	603.8
433.302	632.5
433.711	658.3
434.099	635
434.508	641.6
434.918	645.2
435.327	666.7
435.737	682.7
436.125	697.3
436.534	705.2
436.944	725.2
437.353	743.4
437.763	771.2
438.173	768
438.561	798.9
438.971	796.5
439.381	829.1
439.791	843.3
440.201	850.2
440.589	871
440.999	896
441.409	915.7
441.819	909
442.23	955.5
442.619	969.3
443.029	972.1
443.439	990.6
443.85	1027.2
444.26	1045.4
444.649	1051.4
445.06	1056.2
445.471	1049.1
445.881	1077.9
446.292	1092.4
446.682	1107.1
447.092	1090
447.503	1165.3
447.914	1133.8
448.325	1143.8
448.715	1149.2
449.126	1158.7
449.537	1176.5
449.948	1182.7
450.338	1176.9
450.75	1195.8
451.161	1203.8
451.572	1203.4
451.984	1200.4
452.374	1193.9
452.786	1216.6
453.197	1237.7
453.609	1241.5
453.999	1223.2
454.411	1235
454.823	1256.7
455.235	1260.2
455.647	1246.5
456.037	1254.4
456.449	1243.3
456.862	1258.8
457.274	1253.3
457.665	1252.6
458.077	1265.9
458.489	1271.4
458.902	1262.2
459.293	1265.5
459.705	1278.9
460.118	1258.9
460.53	1267.4
460.921	1267.7
461.334	1268.5
461.747	1270.1
462.16	1284.4
462.551	1272.9
462.964	1267.7
463.377	1251.3
463.79	1269.1
464.182	1284.6
464.595	1266.5
465.008	1270.6
465.421	1269.8
465.813	1265.9
466.226	1272.7
466.64	1257.5
467.053	1300.6
467.445	1281.1
467.859	1263.1
468.272	1256.9
468.686	1272.4
469.078	1259.2
469.492	1246.5
469.906	1259.5
470.298	1245.7
470.712	1235.6
471.126	1275.5
471.54	1237.5
471.933	1235.2
472.347	1234.2
472.761	1222.8
473.175	1220.9
473.568	1227.8
473.982	1223.3
474.397	1223.7
474.79	1223.5
475.204	1234.2
475.619	1219.4
476.033	1221.9
476.426	1212.6
476.841	1209.1
477.256	1222.3
477.649	1201.1
478.064	1191
478.479	1192.6
478.872	1182.6
479.287	1171.4
479.702	1167.8
480.118	1175.2
480.511	1168.1
480.927	1159.8
481.342	1170
481.736	1166.6
482.151	1157.6
482.566	1179.6
482.96	1167.1
483.376	1157.8
483.792	1149.9
484.186	1157.9
484.602	1142.2
485.017	1147.9
485.412	1145.1
485.827	1142.9
486.243	1135.6
486.638	1155.9
487.054	1134.4
487.47	1151.3
487.865	1118.5
488.281	1121.3
488.697	1115.2
489.092	1114
489.508	1109
489.925	1113.5
490.32	1087
490.736	1102.5
491.153	1097
491.548	1099
491.964	1093.8
492.381	1064.2
492.776	1091.7
493.193	1072
493.61	1089.2
494.006	1069.1
494.422	1069.2
494.84	1056.1
495.235	1067.2
495.652	1046.4
496.069	1055.8
496.465	1041.6
496.883	1043.3
497.3	1057.7
497.696	1021.8
498.113	1034.4
498.509	1020.4
498.927	1011.3
499.344	1006.9
499.741	1012.3
500.158	1017
500.576	1013.8
500.973	1001.1
501.39	997.3
501.787	992.2
502.205	1005.6
502.623	981.1
503.02	978.1
503.438	973.8
503.856	978.3
504.253	981.3
504.671	975.8
505.068	968.3
505.486	954.8
505.905	965.5
506.302	958
506.72	963
507.118	931.9
507.536	942.2
507.955	941.3
508.352	939.2
508.771	941.5
509.169	938.4
509.587	918.3
510.006	918.7
510.404	910.4
510.823	911
511.221	904.8
511.64	903.3
512.038	918.5
512.457	898.4
512.877	894.4
513.275	885.5
513.694	890.7
514.092	887.5
514.512	880.8
514.91	878.5
515.33	873.5
515.749	873.3
516.148	880.2
516.568	864.8
516.966	867.6
517.386	867.4
517.785	866.1
518.205	856.6
518.603	850.5
519.024	841.3
519.444	846.7
519.843	849
520.263	842
520.662	833.7
521.082	827.7
521.481	840.2
521.902	831.8
522.301	825.1
522.722	825.6
523.121	819.7
523.542	809.7
523.963	814.8
524.362	810.7
524.783	807.9
525.183	810.2
525.604	807
526.003	803.9
526.425	797.3
526.824	799.7
527.246	800.7
527.646	803.2
528.067	791.7
528.467	787.4
528.888	784
529.289	783.1
529.71	780.4
530.11	777
530.532	770.4
530.932	760.7
531.354	760
531.755	794.6
532.176	764.1
532.577	755.2
532.999	757.5
533.4	746.5
533.822	752.7
534.223	739.9
534.645	744
535.046	732.1
535.468	739.9
535.869	746.7
536.292	730.8
536.693	734.5
537.115	732.2
537.516	723.1
537.939	720.4
538.34	739.1
538.742	732.7
539.165	722.6
539.566	721.6
539.989	714.2
540.391	719.2
540.814	721.1
541.216	719.6
541.639	722.9
542.041	722.5
542.464	720.2
542.866	704.6
543.268	706
543.691	708.8
544.093	722.4
544.517	729.3
544.919	696.1
545.343	731.3
545.745	697.2
546.147	709.1
546.571	694.2
546.974	684.9
547.398	697.9
547.8	707.1
548.224	694
548.627	689.1
549.03	695.5
549.454	684.9
549.857	679.7
550.281	678.7
550.684	678.8
551.087	698.2
551.512	689.2
551.915	686.9
552.34	682.4
552.743	670.6
553.146	674.5
553.571	677.4
553.975	695.9
554.399	667.8
554.803	713.3
555.207	665.8
555.632	663.4
556.036	673.3
556.461	660.1
556.865	665.3
557.268	653.1
557.694	666.4
558.098	665.9
558.502	667.5
558.927	648.3
559.332	651.3
559.736	656
560.162	657.9
560.566	651.5
560.992	649.6
561.396	661.9
561.801	651.6
562.227	650.7
562.631	649.8
563.036	646.2
563.462	655.3
563.867	652.4
564.272	629.9
564.698	642.5
565.103	625
565.508	655.8
565.935	637.1
566.34	640.3
566.745	644.1
567.172	632.5
567.577	657
567.982	645.1
568.409	631.7
568.815	627.4
569.22	634.6
569.626	637.8
570.053	620.8
570.459	631.6
570.865	635.5
571.292	631.2
571.698	627.6
572.104	614.4
572.531	619.5
572.937	625
573.343	626.8
573.75	613.7
574.177	620.1
574.583	620.8
574.99	618
575.396	620.8
575.824	614
576.231	615.7
576.637	613.3
577.065	638.6
577.472	604
577.879	610.8
578.286	625
578.714	603.3
579.121	604.8
579.528	612.8
579.935	615
580.364	610.4
580.771	594.8
581.178	603.1
581.585	612.2
582.014	605.2
582.421	598.1
582.829	600.2
583.236	613
583.644	599.4
584.073	605.7
584.481	605.4
584.889	599
585.296	605.9
585.726	598.5
586.134	586.3
586.542	594
586.95	616
587.358	586.3
587.787	596
588.196	592.7
588.604	596
589.012	594.6
589.421	586.1
589.851	590.4
590.259	598.5
590.668	595.5
591.076	625.4
591.485	590.8
591.894	589.4
592.324	602.4
592.733	603.9
593.142	572.1
593.551	581.8
593.96	621.9
594.369	578.6
594.8	578.6
595.209	582
595.618	573.7
596.028	581.6
596.437	583.6
596.847	583.2
597.256	586.4
597.687	588.2
598.097	578.7
598.507	570.4
598.917	584.1
599.327	583.9
599.736	591.6
600.146	589.1
600.556	582.4
600.988	591.7
601.398	581.3
601.808	586.8
602.219	568.2
602.629	578.8
603.039	582.4
603.45	598.2
603.86	574.7
604.271	593.2
604.703	577.6
605.114	580.4
605.525	581.5
605.935	572
606.346	591.3
606.757	570.5
607.168	571.9
607.579	568.5
607.99	579.9
608.402	573.8
608.813	574.6
609.224	572.8
609.636	563.7
610.047	566.4
610.48	572.6
610.892	578.1
611.303	578.2
611.715	571.7
612.127	559
612.539	566.3
612.95	573.8
613.362	554.8
613.774	563.4
614.186	562
614.599	562
615.011	575.3
615.423	562.3
615.835	568
616.248	559
616.66	573.9
617.073	559.3
617.485	568.1
617.898	575.2
618.311	570.3
618.723	568.1
619.136	600.8
619.549	579.5
619.962	593.4
620.375	562.1
620.788	573.1
621.201	564.8
621.614	569.5
622.028	565.6
622.441	570.9
622.854	584.4
623.268	561.9
623.681	567.8
624.095	564.1
624.509	574.4
624.922	573.9
625.336	559.1
625.728	568
626.142	576.6
626.556	580.6
626.97	566.7
627.384	562.6
627.799	564.2
628.213	570.9
628.627	560.5
629.041	559.6
629.456	558.6
629.87	560.3
630.285	571
630.699	571.3
631.093	563
631.507	561.2
631.922	568.5
632.337	570.1
632.752	547.5
633.167	563.6
633.582	560.7
633.997	560.3
634.412	556.7
634.806	560.3
635.221	551.6
635.637	568.2
636.052	552.6
636.468	564.3
636.883	577.5
637.299	558.7
637.715	547.1
638.109	562.3
638.525	548.8
638.941	570.6
639.357	566.9
639.773	572
640.189	558.2
640.584	558.9
641	557.9
641.416	545.1
641.832	563.8
642.249	557.9
642.665	555.2
643.06	561.2
643.477	571
643.894	550.8
644.31	554.5
644.727	559.6
645.123	555.5
645.54	550.6
645.957	552.9
646.374	561.8
646.77	558.8
647.187	580.7
647.604	556.6
648.021	542.1
648.439	548.1
648.835	562.1
649.252	555.4
649.67	551
650.088	556.4
650.484	562.2
650.902	566.3
651.32	561.2
651.738	554.7
652.134	559
652.552	574.4
652.971	562.3
653.389	558.5
653.786	566.8
654.204	555.2
654.622	550
655.019	556.3
655.438	557.9
655.857	562.7
656.275	557.5
656.673	553.3
657.091	626
657.51	553.7
657.908	559.4
658.327	568.7
658.746	541.6
659.144	557.2
659.563	569
659.982	558.1
660.38	550.3
660.8	554.9
661.219	567.7
661.617	561.7
662.037	556.8
662.457	565.4
662.855	546.5
663.275	581.9
663.695	553.1
664.094	548.5
664.514	558.1
664.934	545.5
665.333	560
665.753	548.4
666.152	546.7
666.572	544.4
666.993	570.8
667.392	555.4
667.812	556.3
668.212	545.1
668.632	557
669.053	546.7
669.453	554.9
669.874	550.6
670.273	553.4
670.694	549.9
671.116	557.8
671.515	556.5
671.937	553.7
672.337	543
672.758	548.9
673.158	559.4
673.58	544.8
673.98	557.4
674.402	564.5
674.824	545.3
675.224	542
675.646	544.7
676.047	548.9
676.469	553.7
676.869	554.3
677.292	558.7
677.693	542.3
678.115	548.1
678.516	558.8
678.939	554
679.34	555
679.762	560.1
680.164	558
680.586	543.9
680.988	556.3
681.411	575.7
681.812	545.7
682.236	547.9
682.637	547
683.061	538
683.462	555.4
683.864	545.6
684.288	556.2
684.69	546.7
685.114	563.8
685.516	557.5
685.94	544
686.342	553.5
686.766	547
687.168	540.9
687.571	565.8
687.995	540
688.398	535.7
688.822	549.9
689.225	563.5
689.628	566.3
690.052	550.4
690.456	555.2
690.88	554.3
691.284	544
691.687	560.1
692.112	538.3
692.515	541.8
692.919	546.3
693.344	550.5
693.747	544.8
694.173	544.5
694.577	558.6
694.98	548.4
695.406	550.1
695.81	555.4
696.214	555.2
696.64	555
697.044	550.7
697.448	558.8
697.874	551.4
698.279	549.1
698.684	539.5
699.11	540.5
699.514	548.1
699.919	542
700.324	543.6
700.75	546.3
701.156	552.8
701.561	556
701.987	558.8
702.393	556
702.798	560.4
703.203	547.1
703.63	539.2
704.036	546.1
704.442	551.1
704.847	542.8
705.274	547.2
705.68	549.7
706.086	550.8
706.492	540.5
706.92	544.3
707.326	555.9
707.732	540.1
708.139	540.6
708.545	535.4
708.973	549.1
709.38	544.9
709.786	535.4
710.193	559.7
710.6	545.2
711.028	540.7
711.435	546.2
711.842	547.6
712.249	540.4
712.656	546
713.064	549.9
713.492	541.5
713.9	539.4
714.307	550.7
714.715	543.7
715.123	545.9
715.53	547.2
715.938	554.2
716.367	554.9
716.775	542.1
717.184	547.6
717.592	549
718	558.9
718.408	582.7
718.816	589.8
719.225	550.9
719.633	546.7
720.042	534.2
720.472	551.4
720.881	572.8
721.29	553.3
721.699	533.8
722.108	545.3
722.517	555.3
722.926	544
723.335	554.4
723.744	543.8
724.154	549.5
724.563	548.3
724.973	548
725.382	547.7
725.792	543.4
726.202	538.3
726.612	552
727.022	541.9
727.432	540.4
779.813	545.1
780.223	584
780.634	544.1
781.044	539.3
781.454	540.8
781.865	560.9
782.276	535.2
782.686	555.2
783.097	541.7
783.508	544.5
783.919	542.7
784.33	556.9
784.741	558.2
785.152	539.2
785.563	526.2
785.974	536.5
786.386	553.2
786.776	542.3
787.188	543.2
787.599	536.3
788.011	551.2
788.423	545.7
788.835	542.3
789.247	535.2
789.659	546.3
790.071	538.8
790.483	585.1
790.874	540.6
791.286	546.8
791.699	543.3
792.111	541.6
792.524	548.2
792.937	542
793.349	536.1
793.741	536
794.154	542.7
794.567	563.8
794.98	547.9
795.393	537.6
795.785	562.7
796.198	542.3
796.612	546.4
797.026	544.7
797.439	529
797.831	542.5
798.245	535.7
798.659	543.9
799.073	544.1
799.487	537.6
799.88	547.2
800.294	542.2
800.708	549.8
801.123	544.1
801.516	558.7
801.93	535.9
802.345	532.6
802.76	544.3
803.153	556.1
803.568	558.5
803.983	556.2
804.377	549.6
804.792	536.7
805.207	532.7
805.601	545.8
806.016	579.9
806.432	543.6
806.826	576.1
807.242	557.6
807.658	550.2
808.052	540.1
808.468	546.8
808.884	538.2
809.279	541.4
809.695	552.1
810.111	562
810.506	545
810.922	560.4
811.339	538.6
811.734	552
812.151	538.5
812.546	540.4
812.963	537.3
813.38	546.7
813.776	545.8
814.193	564.3
814.589	532.3
815.006	539.9
815.402	537.6
815.82	532.5
816.237	536.9
816.633	544.9
817.051	535.9
817.448	539.8
817.866	534.2
818.262	555.4
818.68	537.4
819.077	532.5
819.495	537.4
819.892	579.5
820.311	536.3
820.708	536.3
821.127	536.7
821.524	548.3
821.943	546.7
822.34	561.7
822.759	543.3
823.157	547.9
823.576	553.6
823.974	547.2
824.393	554.7
824.791	542.7
825.189	534.1
825.609	543.6
826.007	542.3
826.427	533.8
826.826	542.4
827.246	547.7
827.644	531.2
828.043	547.9
828.463	544.9
828.862	548.2
829.261	545.2
829.682	532.1
830.081	550.4
830.502	542.8
830.901	546.5
831.301	538.8
831.722	534.4
832.121	540.1
832.521	537.3
832.943	539.3
833.342	547.1
833.742	531.2
834.164	543.7
834.564	530.9
834.965	541.7
835.386	542.9
835.787	541.7
836.188	539.8
836.588	538.2
837.01	544.5
837.411	533.6
837.812	546.7
838.213	546.1
838.636	541.6
839.037	607
839.438	541.8
839.84	540.5
840.263	552.8
840.664	543.6
841.066	538.9
841.468	544.7
841.891	535.2
842.293	550.2
842.695	543.7
843.098	548.7
843.5	541.8
843.902	537.5
