#lambda/nm	C1
208.295	468.4
208.67	436.8
209.045	401
209.419	406
209.794	589.6
210.169	562.9
210.544	682.6
210.919	577.8
211.295	568.2
211.67	585.6
212.045	571.6
212.421	576.7
212.796	615.1
213.172	572.2
213.547	581.1
213.923	573.1
214.299	573
214.675	590.5
215.051	590.2
215.427	583.8
215.803	593.5
216.179	589
216.555	567.9
216.932	594.9
217.308	580.2
217.684	580.5
218.061	584
218.438	586.4
218.814	582.8
219.191	586
219.568	574.4
219.945	579.7
220.322	585
220.699	583.2
221.076	592.2
221.453	587
221.83	570.9
222.208	576.1
222.585	580.3
222.962	586.8
223.34	589.5
223.717	588.1
224.095	581.3
224.473	585.8
224.851	574.5
225.229	573.3
225.607	601.3
225.985	569.1
226.363	580.5
226.741	584.2
227.119	579.6
227.497	596.5
227.876	571.3
228.254	587
228.633	589.5
229.011	581.7
229.39	585.6
229.769	584.4
230.148	589.9
230.527	603.5
230.905	586.6
231.284	586.7
231.664	575.5
232.043	597.2
232.422	592.8
232.801	582.1
233.181	592.9
233.56	581.7
233.94	581
234.319	575
234.699	583.5
235.079	616.3
235.458	615.9
235.838	594.8
236.218	573.3
236.598	571.3
236.978	574.1
237.358	574.3
237.738	575.5
238.119	588.6
238.499	571.6
238.88	584.9
239.26	596.2
239.641	574.2
240.021	583.4
240.402	578.3
240.783	581
241.163	583.3
241.544	583.3
241.925	579.8
242.306	592.3
242.687	581.7
243.069	579.1
243.45	589.4
243.831	578.7
244.212	576.6
244.594	614.1
244.975	588
245.357	586.3
245.739	573.2
246.12	582.8
246.502	593
246.884	584.9
247.266	580.3
247.648	585.1
248.03	604.4
248.412	584.4
248.794	593.8
249.176	576.9
249.559	593.2
249.941	573.9
250.323	571.3
250.706	578.1
251.089	584.4
251.471	582.5
251.854	582.5
252.237	580
252.62	591.6
253.002	581.4
253.385	588.7
253.769	594.9
254.152	582.3
254.535	586.5
254.918	577.6
255.301	583.3
255.685	581.4
256.068	570.5
256.452	604.6
256.835	585.8
257.219	590.4
257.603	595.5
257.986	578.8
258.37	583.9
258.754	574
259.138	588.7
259.522	592.6
259.906	578.5
260.29	585.1
260.675	578.1
261.059	581.9
261.443	571.8
261.828	584.5
262.212	580.4
262.597	569.3
262.981	576.5
263.366	588.3
263.751	587.1
264.136	575.7
264.521	571.4
264.906	572.8
265.291	591.8
265.676	577.8
266.061	590.8
266.446	600.7
266.831	585
267.217	606.9
267.602	592.3
267.987	584.6
268.373	583.5
268.759	592.6
269.144	593.1
269.53	581.2
269.916	581.3
270.302	574.3
270.688	580.1
271.074	581.2
271.46	591.6
271.846	614
272.232	579.9
272.618	576.1
273.004	582.8
273.391	587.8
273.777	595.9
274.164	592
274.55	591.8
274.937	588.5
275.324	585.3
275.71	593.4
276.097	584.5
276.484	572.7
276.871	584.4
277.258	592
277.645	570.1
278.032	590.1
278.419	584.5
278.807	588.1
279.194	572.6
279.581	573.6
279.969	587.9
280.356	583
280.744	580
281.131	605.7
281.519	597.9
281.907	577.7
282.295	578.6
282.682	589
283.07	580.4
283.458	587
283.846	594.6
284.235	584.8
284.623	588.3
285.011	567.9
285.399	580.2
285.788	583.4
286.176	567.2
286.565	590
286.953	580.8
287.342	577.2
287.731	574.3
288.119	574.1
288.508	579.3
288.897	584.3
289.286	575.4
289.675	589.2
290.064	597.3
290.453	579.8
290.821	582.6
291.21	601.9
291.599	578.3
291.989	590.5
292.378	591.2
292.768	604.8
293.157	588.7
293.547	583.4
293.936	582.3
294.326	575.1
294.716	582.4
295.106	578
295.496	587
295.886	589.3
296.276	580.7
296.666	573.5
297.056	574.4
297.446	572.2
297.836	601.1
298.227	575.9
298.617	582.5
299.008	593.1
299.398	582.6
299.789	572.3
300.179	588.9
300.57	595.7
300.961	578.8
301.352	583
301.742	590.9
302.133	583.2
302.524	579.9
302.915	586
303.307	578.1
303.698	586.1
304.089	591.1
304.48	585.7
304.872	584.8
305.263	580.6
305.655	575.4
306.046	585.6
306.438	588.6
306.829	581.1
307.221	595.3
307.613	589.9
308.005	592.5
308.397	595
308.789	602
309.181	609.6
309.573	595.9
309.965	591
310.357	577.8
310.749	584.6
311.142	575
311.534	577.6
311.926	591.9
312.319	585.6
312.711	575.2
313.104	598.9
313.497	575.7
313.889	619.9
314.282	601.2
314.675	609.7
315.068	582
315.461	594
315.854	610.9
316.247	586.4
316.64	579.7
317.033	581.4
317.405	593.7
317.798	581.7
318.192	586.8
318.585	577.4
318.979	587.8
319.372	576.6
319.766	581.1
320.16	594.3
320.553	592.3
320.947	603.6
321.341	579.1
321.735	585.2
322.129	572.4
322.523	610.2
322.917	576.6
323.311	592.3
323.705	586.4
324.099	593.1
324.494	598.6
324.888	589.7
325.282	579.5
325.677	592.8
326.071	590.4
326.466	597.7
326.861	588.2
327.255	597.7
327.65	598.7
328.045	596.8
328.44	586.9
328.835	586.5
329.23	582.3
329.625	611.3
330.02	589.4
330.415	600.8
330.81	583.6
331.206	587
331.601	581.4
331.996	592.3
332.37	598.8
332.766	576.7
333.161	608.7
333.557	575.9
333.953	585.7
334.348	868.6
334.744	582.1
335.14	580.6
335.536	577.2
335.932	595.7
336.328	576.7
336.724	591.7
337.12	583.1
337.516	585
337.913	583.1
338.309	593.4
338.705	584.2
339.102	595.1
339.498	579.7
339.895	594.1
340.291	577.5
340.688	590.8
341.085	574.6
341.481	580.3
341.878	578
342.275	601.8
342.672	577.1
343.069	571.2
343.466	569.2
343.842	588.6
344.239	571.2
344.636	583.4
345.033	575.1
345.431	576.4
345.828	583.4
346.225	579.2
346.623	587
347.02	587.6
347.418	594.6
347.816	599.8
348.213	572.8
348.611	581.8
349.009	576.6
349.407	590
349.805	572.2
350.203	574.3
350.601	592.3
350.999	580.6
351.397	575
351.795	584.9
352.193	589.8
352.57	591.3
352.969	593.4
353.367	567.2
353.766	572.8
354.164	579.9
354.563	591.4
354.961	578.8
355.36	572.7
355.759	580
356.158	573
356.557	571.6
356.956	572.3
357.355	570
357.754	586
358.153	588.1
358.552	603.4
358.951	582.3
359.35	586.6
359.75	583.7
360.149	575.6
360.527	569.2
360.926	571.8
361.326	581.5
361.726	581.4
362.125	571.7
362.525	588.1
362.925	575.8
363.325	576.6
363.724	584.5
364.124	572.3
364.524	573
364.924	572.7
365.324	590.7
365.725	560.9
366.125	583.5
366.525	575.7
366.904	567.7
367.304	547.1
367.705	589
368.105	585.5
368.506	573.6
368.906	576.2
369.307	579.1
369.708	584
370.108	565.6
370.509	573.6
370.91	572
371.311	579.8
371.712	578.5
372.113	575.1
372.514	561.8
372.894	573.6
373.295	572.8
373.696	587.2
374.097	578.8
374.499	603.4
374.9	581.6
375.301	564.1
375.703	580.3
376.105	570.3
376.506	580.4
376.908	580.6
377.309	578.7
377.711	574
378.113	570.7
378.493	577.9
378.895	571.3
379.297	585.5
379.699	563.4
380.102	574
380.504	577
380.906	569.7
381.308	600.2
381.71	574.7
382.113	584.4
382.515	567.8
382.918	574.8
383.299	569.9
383.701	583.4
384.104	576
384.507	559.7
384.909	578.3
385.312	566
385.715	566.3
386.118	570.5
386.521	564.4
386.924	582.5
387.327	572
387.709	562.7
388.112	559.4
388.515	575.5
388.918	570.1
389.322	578.8
389.725	568.1
390.129	590.5
390.532	575.2
390.936	571.3
391.339	568.1
391.743	572.5
392.125	566.9
392.529	585.7
392.933	585.4
393.337	578.9
393.74	574.8
394.144	574.6
394.548	568.9
394.953	572.1
395.357	576.2
395.761	572.8
396.144	570.4
396.548	577.2
396.952	575.9
397.357	577.9
397.761	571.4
398.166	564.3
398.57	575.9
398.975	562.5
399.379	572.9
399.763	620.4
400.168	577.5
400.572	574.1
400.977	573.2
401.382	588.5
401.787	584.3
402.192	589.2
402.597	589.6
403.002	563.3
403.386	582.2
403.791	591.3
404.197	569
404.602	572.3
405.007	576.9
405.413	569
405.818	565.8
406.224	569.2
406.608	569.4
407.014	563.1
407.42	591.5
407.825	566.5
408.231	581.9
408.637	581.6
409.043	589.5
409.449	569.6
409.834	566.9
410.24	577.4
410.646	587.2
411.052	589.6
411.458	581.1
411.865	590.6
412.271	579.3
412.677	578.8
413.062	584.6
413.469	569.9
413.875	600.7
414.282	586.9
414.689	579.4
415.095	573.2
415.502	572.3
415.888	575.8
416.294	564.9
416.701	610.2
417.108	565.7
417.515	585.3
417.923	574.6
418.33	594
418.715	585.7
419.123	575.3
419.53	574.4
419.937	577.4
420.345	585.9
420.752	572.3
421.16	593.9
421.546	576.5
421.953	586.1
422.361	573.6
422.769	574.9
423.177	571.4
423.585	605.4
423.992	596.7
424.379	587.3
424.787	592.5
425.195	599.4
425.603	577.6
426.011	592.1
426.419	588.5
426.806	581.5
427.214	583.2
427.623	592
428.031	594.2
428.44	581.7
428.848	589.1
429.235	592.8
429.644	585.5
430.053	578.5
430.461	602.2
430.87	608.5
431.279	597.4
431.666	587.5
432.075	591.7
432.484	605
432.893	602.3
433.302	625.2
433.711	648
434.099	627
434.508	623.7
434.918	635.6
435.327	655.1
435.737	669.4
436.125	672.6
436.534	686.6
436.944	704.9
437.353	728.9
437.763	753.4
438.173	743.2
438.561	775.2
438.971	769.5
439.381	801.1
439.791	825.4
440.201	818.9
440.589	851.9
440.999	875.9
441.409	888.7
441.819	887.3
442.23	926.2
442.619	941.7
443.029	959.5
443.439	974.6
443.85	997.2
444.26	1018.6
444.649	1021.8
445.06	1016.7
445.471	1034.3
445.881	1051.3
446.292	1080.4
446.682	1100.3
447.092	1067.4
447.503	1135.9
447.914	1110.7
448.325	1119.9
448.715	1123.8
449.126	1116.8
449.537	1150
449.948	1154.5
450.338	1154.1
450.75	1169.5
451.161	1177.7
451.572	1189
451.984	1176.9
452.374	1184.2
452.786	1200.8
453.197	1207.7
453.609	1224.8
453.999	1205.2
454.411	1211.5
454.823	1239.2
455.235	1224.1
455.647	1212.3
456.037	1232.5
456.449	1209.6
456.862	1222.3
457.274	1237.4
457.665	1221.3
458.077	1235.9
458.489	1250.8
458.902	1236.3
459.293	1242.4
459.705	1248
460.118	1238.7
460.53	1252.6
460.921	1239.7
461.334	1256.4
461.747	1257.3
462.16	1262.4
462.551	1267.7
462.964	1252.6
463.377	1237.5
463.79	1249.1
464.182	1269.9
464.595	1244.8
465.008	1262
465.421	1252.1
465.813	1248.9
466.226	1247.9
466.64	1247.6
467.053	1287.2
467.445	1256.7
467.859	1244.6
468.272	1240
468.686	1242
469.078	1230.2
469.492	1219.2
469.906	1232.3
470.298	1235.8
470.712	1230
471.126	1257.6
471.54	1205
471.933	1229.3
472.347	1224.6
472.761	1212.2
473.175	1212.7
473.568	1217.5
473.982	1193.5
474.397	1211.8
474.79	1211.1
475.204	1207.9
475.619	1189
476.033	1203.1
476.426	1194.7
476.841	1180.4
477.256	1212.8
477.649	1183.8
478.064	1188.9
478.479	1171.1
478.872	1167.4
479.287	1160.3
479.702	1175.5
480.118	1163.4
480.511	1171.4
480.927	1157.4
481.342	1160.1
481.736	1160.2
482.151	1140.3
482.566	1165
482.96	1151.5
483.376	1159.9
483.792	1132
484.186	1149.3
484.602	1146.8
485.017	1136.6
485.412	1126.6
485.827	1139.7
486.243	1121.1
486.638	1155
487.054	1126.7
487.47	1138.4
487.865	1110.7
488.281	1107.2
488.697	1097.7
489.092	1101.6
489.508	1085.4
489.925	1104.3
490.32	1075.4
490.736	1097.4
491.153	1088.9
491.548	1091.6
491.964	1082.7
492.381	1064.8
492.776	1084
493.193	1079.5
493.61	1070.9
494.006	1064.4
494.422	1062.3
494.84	1054.7
495.235	1060.3
495.652	1050.3
496.069	1038.3
496.465	1034.6
496.883	1050.4
497.3	1062.6
497.696	1024
498.113	1033.2
498.509	1013.8
498.927	1012.4
499.344	1007.8
499.741	1003.5
500.158	1021.8
500.576	1019.8
500.973	1007
501.39	995.6
501.787	981.2
502.205	992.6
502.623	972.8
503.02	972
503.438	976.9
503.856	977.8
504.253	966.9
504.671	974
505.068	963.6
505.486	961.3
505.905	975.3
506.302	953.5
506.72	960.8
507.118	940.1
507.536	938
507.955	933.2
508.352	933.2
508.771	933.9
509.169	931.3
509.587	926.7
510.006	913.8
510.404	905.8
510.823	900.1
511.221	905.7
511.64	898.5
512.038	911.4
512.457	907.9
512.877	903.3
513.275	888.4
513.694	893
514.092	888.9
514.512	881.6
514.91	882.1
515.33	877
515.749	870.9
516.148	872.8
516.568	881.3
516.966	861.4
517.386	862.5
517.785	859.1
518.205	859.6
518.603	848.4
519.024	851.9
519.444	850.9
519.843	850.1
520.263	844.6
520.662	842.9
521.082	834.3
521.481	830.7
521.902	824.6
522.301	834.1
522.722	828.5
523.121	826.4
523.542	816.2
523.963	821.7
524.362	817.6
524.783	816.7
525.183	813.2
525.604	807.7
526.003	795.5
526.425	800.5
526.824	792.8
527.246	806.2
527.646	803.8
528.067	792.9
528.467	786.6
528.888	794.2
529.289	785.3
529.71	776.8
530.11	767
530.532	771.8
530.932	762.2
531.354	760.7
531.755	798.6
532.176	766.5
532.577	758.8
532.999	760.6
533.4	753.8
533.822	765.6
534.223	756.6
534.645	750.3
535.046	740.4
535.468	741.8
535.869	758.1
536.292	731.9
536.693	746.2
537.115	749.4
537.516	733.8
537.939	734.7
538.34	749.8
538.742	752.2
539.165	735.5
539.566	727.1
539.989	725.1
540.391	730
540.814	731.3
541.216	733.7
541.639	731.1
542.041	732.8
542.464	720.3
542.866	713.9
543.268	713
543.691	724.2
544.093	724.9
544.517	733
544.919	699.1
545.343	736.4
545.745	699.1
546.147	716.2
546.571	707.4
546.974	705.6
547.398	705
547.8	712.5
548.224	694.8
548.627	692.4
549.03	705.3
549.454	693.2
549.857	691.1
550.281	684
550.684	688.4
551.087	702.1
551.512	692.6
551.915	696.6
552.34	689.4
552.743	681.7
553.146	682.3
553.571	675
553.975	698.3
554.399	671.4
554.803	727
555.207	673.7
555.632	673.4
556.036	681
556.461	661.9
556.865	675.8
557.268	660
557.694	671.7
558.098	671.6
558.502	671.4
558.927	656.8
559.332	663.9
559.736	657.8
560.162	666
560.566	659.6
560.992	658.9
561.396	655.7
561.801	655.4
562.227	652.2
562.631	652.7
563.036	658.8
563.462	657.9
563.867	649.7
564.272	641.1
564.698	656.2
565.103	639
565.508	661.4
565.935	641.2
566.34	643.7
566.745	650.2
567.172	638.6
567.577	656.9
567.982	649.1
568.409	637.3
568.815	629.8
569.22	640.1
569.626	638.1
570.053	619.6
570.459	634.3
570.865	638.4
571.292	638.3
571.698	638.9
572.104	614.9
572.531	621.1
572.937	636.4
573.343	624.8
573.75	629.2
574.177	626.5
574.583	633
574.99	623.5
575.396	628.9
575.824	626.3
576.231	635
576.637	613.5
577.065	648.9
577.472	617.2
577.879	616.9
578.286	631.4
578.714	611.3
579.121	613.3
579.528	618.2
579.935	624.3
580.364	613.6
580.771	598.5
581.178	609.3
581.585	619.5
582.014	613.9
582.421	608.2
582.829	607.5
583.236	613.6
583.644	608
584.073	606.1
584.481	610.9
584.889	602.9
585.296	612
585.726	611.5
586.134	597.2
586.542	603.9
586.95	625.4
587.358	591
587.787	604.9
588.196	592.5
588.604	602.9
589.012	603
589.421	594.6
589.851	591.8
590.259	602.4
590.668	588.3
591.076	631
591.485	591.7
591.894	596.7
592.324	609.5
592.733	606.3
593.142	584.1
593.551	588.6
593.96	631.6
594.369	584.3
594.8	583.4
595.209	589.5
595.618	578.1
596.028	593.9
596.437	584.5
596.847	588.7
597.256	590.4
597.687	595.4
598.097	589.1
598.507	578.4
598.917	591.4
599.327	594.5
599.736	594.6
600.146	596.8
600.556	588.9
600.988	596.6
601.398	584.4
601.808	598.8
602.219	572.1
602.629	586.5
603.039	580
603.45	605.3
603.86	585.9
604.271	598.8
604.703	580.4
605.114	588.4
605.525	583.6
605.935	588.2
606.346	603.9
606.757	587.2
607.168	580
607.579	569.2
607.99	585.8
608.402	586.4
608.813	575.7
609.224	574.3
609.636	569.9
610.047	571.7
610.48	578.5
610.892	583.7
611.303	587.3
611.715	573.8
612.127	572.3
612.539	576.9
612.95	575
613.362	561
613.774	566.6
614.186	567.4
614.599	571.1
615.011	586.4
615.423	565
615.835	566.6
616.248	565.9
616.66	582.9
617.073	569.1
617.485	576.5
617.898	586.9
618.311	576.9
618.723	575.4
619.136	601
619.549	588.7
619.962	594.9
620.375	573.9
620.788	581.2
621.201	568.1
621.614	582.6
622.028	569.8
622.441	575.9
622.854	586
623.268	566.3
623.681	572.5
624.095	573.9
624.509	580.3
624.922	579.7
625.336	561.8
625.728	570.8
626.142	576.4
626.556	588.5
626.97	580.7
627.384	566.2
627.799	569.9
628.213	579.7
628.627	571.3
629.041	560
629.456	566.8
629.87	570.8
630.285	583.8
630.699	583.6
631.093	568.5
631.507	573.6
631.922	578
632.337	583.9
632.752	561.7
633.167	568.8
633.582	561.4
633.997	567.2
634.412	562.8
634.806	567.5
635.221	562
635.637	576.3
636.052	560.2
636.468	568.8
636.883	585.1
637.299	568.7
637.715	557.8
638.109	566.8
638.525	552.9
638.941	577.1
639.357	568.8
639.773	576.3
640.189	561.4
640.584	564.8
641	565.5
641.416	552.9
641.832	558.2
642.249	557.8
642.665	561.6
643.06	571.8
643.477	573
643.894	553.4
644.31	568.1
644.727	562.3
645.123	560.6
645.54	557.6
645.957	567.4
646.374	565.2
646.77	564.1
647.187	586.7
647.604	561.4
648.021	548.6
648.439	555.9
648.835	567.4
649.252	561.5
649.67	559.7
650.088	563.6
650.484	567.3
650.902	569.1
651.32	571.9
651.738	569.1
652.134	560.4
652.552	586.6
652.971	569.7
653.389	563.8
653.786	572.9
654.204	564.4
654.622	559.2
655.019	557
655.438	567.1
655.857	566.2
656.275	569.2
656.673	561.1
657.091	624.6
657.51	553.1
657.908	572.3
658.327	570.6
658.746	548.8
659.144	564.3
659.563	575.8
659.982	566.3
660.38	552
660.8	562.1
661.219	572.6
661.617	563.2
662.037	560.4
662.457	576.5
662.855	545
663.275	591.6
663.695	558
664.094	559.1
664.514	567
664.934	549.3
665.333	561
665.753	554.2
666.152	547.9
666.572	553.7
666.993	575.6
667.392	556.4
667.812	559.4
668.212	553.8
668.632	568.7
669.053	557.8
669.453	561.2
669.874	559.1
670.273	562.8
670.694	552.9
671.116	571
671.515	566.3
671.937	552.3
672.337	553.3
672.758	555.1
673.158	563.5
673.58	541.8
673.98	558.6
674.402	568.9
674.824	553
675.224	554.8
675.646	552.4
676.047	549.1
676.469	554.4
676.869	567.2
677.292	559.1
677.693	552.2
678.115	556.2
678.516	563.5
678.939	560.9
679.34	554.8
679.762	567.3
680.164	571.4
680.586	546
680.988	562.1
681.411	576.3
681.812	557.2
682.236	546.5
682.637	554.4
683.061	547.8
683.462	565
683.864	557.8
684.288	560.2
684.69	552.1
685.114	567.8
685.516	560.3
685.94	545.3
686.342	559.6
686.766	548.2
687.168	551.1
687.571	569
687.995	557
688.398	546.3
688.822	553
689.225	572.4
689.628	572.9
690.052	554.1
690.456	559.9
690.88	551
691.284	546.2
691.687	560.5
692.112	548.9
692.515	549.8
692.919	556.6
693.344	557.2
693.747	553.2
694.173	553.6
694.577	560
694.98	557.9
695.406	554.5
695.81	554.9
696.214	560.5
696.64	557.4
697.044	557.2
697.448	564.2
697.874	547.9
698.279	549.7
698.684	545.9
699.11	546.6
699.514	552.2
699.919	550.4
700.324	548.5
700.75	558.4
701.156	549.9
701.561	566.2
701.987	558.7
702.393	561.3
702.798	568.8
703.203	552.3
703.63	549.1
704.036	551.9
704.442	553.9
704.847	549.1
705.274	553.6
705.68	556.7
706.086	563
706.492	542.9
706.92	552
707.326	562.1
707.732	552.4
708.139	542.9
708.545	541.9
708.973	550.1
709.38	551.1
709.786	546.6
710.193	566.8
710.6	552.8
711.028	546.7
711.435	553
711.842	551.2
712.249	549.3
712.656	556.5
713.064	566.3
713.492	547.1
713.9	547.3
714.307	560.2
714.715	550
715.123	559.6
715.53	555
715.938	560.6
716.367	556.8
716.775	554.8
717.184	544.5
717.592	553.6
718	561.2
718.408	580.2
718.816	591.6
719.225	556
719.633	556.2
720.042	541.9
720.472	546
720.881	571.1
721.29	554.1
721.699	544.8
722.108	552.3
722.517	554
722.926	543.6
723.335	558
723.744	556.4
724.154	553.1
724.563	553.9
724.973	554.5
725.382	553.5
725.792	547.6
726.202	551.9
726.612	556.9
727.022	551.4
727.432	548.6
779.813	542.8
780.223	595.3
780.634	552.3
781.044	547.9
781.454	551.6
781.865	561.1
782.276	541.1
782.686	554.8
783.097	546.8
783.508	548.9
783.919	556.7
784.33	563.9
784.741	564.9
785.152	543.8
785.563	543.1
785.974	545
786.386	558
786.776	549.8
787.188	548.1
787.599	548.6
788.011	561.5
788.423	554.7
788.835	547.3
789.247	542.8
789.659	543.5
790.071	547.2
790.483	594.7
790.874	549.5
791.286	556.7
791.699	549.9
792.111	548.7
792.524	553.1
792.937	554.6
793.349	543.3
793.741	547
794.154	546.7
794.567	568.5
794.98	549.6
795.393	542.7
795.785	559.3
796.198	540.4
796.612	550.4
797.026	545.2
797.439	529.1
797.831	541
798.245	541.5
798.659	548.3
799.073	542.9
799.487	543.2
799.88	550.9
800.294	550.4
800.708	553.5
801.123	553.4
801.516	567.9
801.93	540.6
802.345	540.3
802.76	548.4
803.153	561.2
803.568	567.3
803.983	556.4
804.377	554.1
804.792	538.8
805.207	537.8
805.601	547.8
806.016	581.6
806.432	542.9
806.826	576.3
807.242	560.9
807.658	561.8
808.052	546.8
808.468	546
808.884	543.6
809.279	546.2
809.695	561.3
810.111	567
810.506	551.3
810.922	564.3
811.339	540.4
811.734	559.9
812.151	546.7
812.546	541.1
812.963	540.6
813.38	553.5
813.776	551.6
814.193	565
814.589	541.5
815.006	548.2
815.402	538.7
815.82	541.5
816.237	548.7
816.633	548.5
817.051	544.6
817.448	548.3
817.866	540.7
818.262	570
818.68	541.1
819.077	542.3
819.495	543.5
819.892	585.8
820.311	535.3
820.708	540.1
821.127	543.1
821.524	557.2
821.943	547.5
822.34	562.1
822.759	547.8
823.157	551.7
823.576	557.4
823.974	553
824.393	564.5
824.791	539.4
825.189	542.8
825.609	542.7
826.007	544.5
826.427	533.2
826.826	548.1
827.246	555.1
827.644	539.4
828.043	553.8
828.463	545.3
828.862	555.3
829.261	553.4
829.682	537.2
830.081	554
830.502	541.7
830.901	559.6
831.301	543
831.722	538.1
832.121	542.4
832.521	549.2
832.943	546.9
833.342	544.9
833.742	546.1
834.164	545.1
834.564	542.3
834.965	537.4
835.386	540.9
835.787	546.3
836.188	542.5
836.588	549.5
837.01	550.3
837.411	539.1
837.812	555.6
838.213	550
838.636	545.8
839.037	614.6
839.438	549.5
839.84	552.8
840.263	554.1
840.664	547.5
841.066	545.6
841.468	548.8
841.891	539.8
842.293	555.4
842.695	555.1
843.098	556.4
843.5	549.2
843.902	555.4
