#lambda/nm	C1
208.295	469
208.67	440.2
209.045	400.7
209.419	405.8
209.794	588.5
210.169	569.6
210.544	688
210.919	582.7
211.295	570.8
211.67	585.8
212.045	576.6
212.421	575.1
212.796	612.8
213.172	571.6
213.547	575.5
213.923	581
214.299	573.4
214.675	580.7
215.051	579.9
215.427	589
215.803	597.5
216.179	585.3
216.555	570.6
216.932	592.6
217.308	580.6
217.684	578.6
218.061	587.5
218.438	584.2
218.814	574.4
219.191	586.2
219.568	570.6
219.945	578
220.322	586.3
220.699	581.2
221.076	594.8
221.453	581.2
221.83	572.4
222.208	573
222.585	579.2
222.962	581.7
223.34	586.3
223.717	583.6
224.095	575.5
224.473	581.3
224.851	573
225.229	572.7
225.607	592.6
225.985	571.4
226.363	584.5
226.741	582.4
227.119	577.8
227.497	593.6
227.876	571.8
228.254	585.7
228.633	585.2
229.011	577.2
229.39	590
229.769	581.5
230.148	587.9
230.527	598.9
230.905	584.1
231.284	583.9
231.664	573.8
232.043	592.3
232.422	592
232.801	581.5
233.181	587.6
233.56	578.7
233.94	583.1
234.319	567.2
234.699	576.2
235.079	616.6
235.458	612.5
235.838	596.1
236.218	571.1
236.598	570.4
236.978	575.3
237.358	570.5
237.738	576.6
238.119	588.7
238.499	574.9
238.88	582.3
239.26	593.8
239.641	572.4
240.021	571.4
240.402	579.5
240.783	574.7
241.163	577
241.544	585.4
241.925	578.8
242.306	595.8
242.687	577.6
243.069	584.6
243.45	588.3
243.831	581.7
244.212	569.3
244.594	615.8
244.975	589.1
245.357	583.2
245.739	577.6
246.12	583.1
246.502	594
246.884	580.2
247.266	578.3
247.648	586.7
248.03	603.8
248.412	578.4
248.794	583.7
249.176	574.9
249.559	596.3
249.941	572.5
250.323	568.6
250.706	573.1
251.089	583.4
251.471	582.2
251.854	575.5
252.237	575.7
252.62	586.9
253.002	579
253.385	573.8
253.769	597.9
254.152	578.5
254.535	587.9
254.918	572.1
255.301	580.1
255.685	577.7
256.068	573.2
256.452	601.4
256.835	586
257.219	583.4
257.603	592.7
257.986	567.1
258.37	584
258.754	563.7
259.138	585.8
259.522	586.8
259.906	577.1
260.29	585.1
260.675	573.3
261.059	584.5
261.443	577.2
261.828	587.3
262.212	583.7
262.597	576.4
262.981	576.2
263.366	585
263.751	583.4
264.136	575.1
264.521	575.7
264.906	574.5
265.291	593.6
265.676	578.1
266.061	588.8
266.446	599.5
266.831	582.2
267.217	605.2
267.602	585.9
267.987	587.8
268.373	577.2
268.759	592.1
269.144	587.8
269.53	580.7
269.916	576.5
270.302	576.9
270.688	589.4
271.074	581.5
271.46	596.5
271.846	611.4
272.232	581.9
272.618	570.6
273.004	583.1
273.391	588
273.777	594.3
274.164	583.4
274.55	598.2
274.937	587.1
275.324	582
275.71	593.3
276.097	588.8
276.484	571.8
276.871	589.8
277.258	585.7
277.645	570
278.032	581.8
278.419	576.5
278.807	592.6
279.194	574.1
279.581	576.6
279.969	591
280.356	583.3
280.744	583.8
281.131	611.2
281.519	589.6
281.907	580.6
282.295	576.3
282.682	595.6
283.07	580.7
283.458	592.3
283.846	595
284.235	587
284.623	586.9
285.011	579.2
285.399	584.8
285.788	583.8
286.176	574.4
286.565	593
286.953	576.4
287.342	583.8
287.731	576.8
288.119	576.2
288.508	578.9
288.897	582.8
289.286	567.6
289.675	579.9
290.064	594.7
290.453	577.2
290.821	584
291.21	600.7
291.599	582.2
291.989	586.5
292.378	588.5
292.768	599.6
293.157	588.4
293.547	587.8
293.936	582.5
294.326	577.3
294.716	588.9
295.106	579
295.496	594.2
295.886	588
296.276	579.3
296.666	573.3
297.056	583.5
297.446	573.5
297.836	599.8
298.227	581.9
298.617	582.5
299.008	591.1
299.398	582.9
299.789	575.7
300.179	584.5
300.57	596.1
300.961	578.6
301.352	573.3
301.742	589.1
302.133	579.4
302.524	577.2
302.915	580.9
303.307	572.8
303.698	595.8
304.089	583.4
304.48	580.8
304.872	587.9
305.263	582.2
305.655	576
306.046	587
306.438	590
306.829	576.4
307.221	598
307.613	589.6
308.005	595.4
308.397	595.7
308.789	603.5
309.181	611.8
309.573	601.3
309.965	590.8
310.357	582.8
310.749	587.8
311.142	572.8
311.534	581.1
311.926	591.6
312.319	587.9
312.711	571.7
313.104	590.7
313.497	576.2
313.889	622
314.282	592.8
314.675	602.4
315.068	581.9
315.461	590.8
315.854	615.5
316.247	590.1
316.64	583.5
317.033	582.1
317.405	588.1
317.798	575.9
318.192	586.4
318.585	575.3
318.979	589.7
319.372	576.1
319.766	581.3
320.16	593.5
320.553	592.2
320.947	603.4
321.341	577.6
321.735	585.8
322.129	572.8
322.523	609.9
322.917	573.1
323.311	590.8
323.705	580.8
324.099	589.6
324.494	592.8
324.888	594.3
325.282	578.1
325.677	586.7
326.071	590.5
326.466	594.3
326.861	588.6
327.255	591.1
327.65	598.4
328.045	593.7
328.44	586.3
328.835	581.6
329.23	573.7
329.625	606.5
330.02	575.9
330.415	603
330.81	583.4
331.206	586.5
331.601	577.1
331.996	590.2
332.37	593.4
332.766	575.5
333.161	601.3
333.557	580.3
333.953	587.1
334.348	866.6
334.744	581.6
335.14	572.5
335.536	578.4
335.932	590.4
336.328	582.8
336.724	591.7
337.12	582.2
337.516	583.3
337.913	584.4
338.309	599.3
338.705	575.5
339.102	598
339.498	580
339.895	592.2
340.291	584.2
340.688	594.5
341.085	575.1
341.481	582.1
341.878	579.8
342.275	601
342.672	576.8
343.069	577.7
343.466	572.1
343.842	593.3
344.239	578.5
344.636	586.8
345.033	575.1
345.431	574.8
345.828	582.1
346.225	574.9
346.623	583.6
347.02	578.8
347.418	586.1
347.816	591.6
348.213	574.3
348.611	581.2
349.009	576.2
349.407	586.1
349.805	568.2
350.203	563.1
350.601	593.1
350.999	572.3
351.397	576.3
351.795	581.8
352.193	587.1
352.57	590.3
352.969	587.9
353.367	569.2
353.766	565.6
354.164	577.6
354.563	590.7
354.961	576.5
355.36	571.3
355.759	575.4
356.158	570.6
356.557	571.5
356.956	570
357.355	567.1
357.754	580.7
358.153	590.3
358.552	601.8
358.951	579.9
359.35	586.5
359.75	578
360.149	569.4
360.527	562.9
360.926	564.4
361.326	576.3
361.726	573.9
362.125	567.7
362.525	586.2
362.925	574.4
363.325	577.9
363.724	572.9
364.124	572.4
364.524	573.7
364.924	573.1
365.324	593.7
365.725	565.7
366.125	580.2
366.525	576.4
366.904	573.9
367.304	562.5
367.705	598
368.105	588.7
368.506	570.3
368.906	576.2
369.307	573.5
369.708	579.2
370.108	561.9
370.509	586.7
370.91	566.2
371.311	578.1
371.712	576
372.113	576.9
372.514	566
372.894	576
373.295	567.3
373.696	588.3
374.097	583.6
374.499	602.6
374.9	580.2
375.301	568
375.703	575.9
376.105	569.7
376.506	575.3
376.908	578.8
377.309	575.1
377.711	581.4
378.113	573.4
378.493	571.8
378.895	570.2
379.297	579.3
379.699	562.6
380.102	579.5
380.504	576
380.906	569.6
381.308	590.3
381.71	574.8
382.113	590.3
382.515	572.2
382.918	572.7
383.299	575.4
383.701	581.9
384.104	577.9
384.507	555.2
384.909	572.8
385.312	562.8
385.715	561.7
386.118	573.4
386.521	561.1
386.924	581.9
387.327	571.2
387.709	565.1
388.112	557.1
388.515	577.9
388.918	575.8
389.322	574.3
389.725	573.5
390.129	597.6
390.532	575.7
390.936	562.4
391.339	574.3
391.743	574.2
392.125	572.1
392.529	584.5
392.933	589.8
393.337	576.5
393.74	571.3
394.144	575.9
394.548	566.9
394.953	570.5
395.357	587.2
395.761	566.7
396.144	573.5
396.548	572.3
396.952	573.5
397.357	574.9
397.761	572.8
398.166	568.8
398.57	567.1
398.975	566.6
399.379	571.1
399.763	620.4
400.168	572.5
400.572	577.1
400.977	567.1
401.382	597.5
401.787	586.4
402.192	587.2
402.597	590.4
403.002	562
403.386	591.1
403.791	584.3
404.197	572.9
404.602	570.7
405.007	575.2
405.413	567.5
405.818	571
406.224	567.5
406.608	571.9
407.014	563.6
407.42	594
407.825	572.2
408.231	584.8
408.637	575.2
409.043	593.4
409.449	574.5
409.834	566
410.24	572.5
410.646	582.4
411.052	580.6
411.458	579.5
411.865	581.4
412.271	577.4
412.677	575.5
413.062	580.3
413.469	567.7
413.875	599.4
414.282	587.1
414.689	580.7
415.095	582.3
415.502	567.9
415.888	573
416.294	559.5
416.701	610.1
417.108	568.6
417.515	576.5
417.923	567.6
418.33	594.1
418.715	583.7
419.123	573.6
419.53	571.9
419.937	573.2
420.345	584.2
420.752	573.5
421.16	588.5
421.546	573.9
421.953	579
422.361	569.6
422.769	576.3
423.177	570.9
423.585	597.3
423.992	595.4
424.379	582.3
424.787	588.2
425.195	598.4
425.603	577.1
426.011	591.9
426.419	589.2
426.806	577.1
427.214	583.5
427.623	586.6
428.031	594.1
428.44	583.2
428.848	590.4
429.235	590.5
429.644	586.7
430.053	577.9
430.461	598.1
430.87	610.9
431.279	597.1
431.666	586.7
432.075	590.8
432.484	601
432.893	603.8
433.302	631.9
433.711	657.1
434.099	632
434.508	640
434.918	638.3
435.327	663.7
435.737	670
436.125	683.9
436.534	699.5
436.944	704.1
437.353	724.3
437.763	752.9
438.173	743.5
438.561	785
438.971	772.2
439.381	801.1
439.791	815.5
440.201	814.5
440.589	845.5
440.999	854.1
441.409	875.9
441.819	879
442.23	902.5
442.619	921.2
443.029	925.8
443.439	944.9
443.85	967.3
444.26	990.2
444.649	996.2
445.06	994.8
445.471	1005.3
445.881	1015.3
446.292	1050
446.682	1062.2
447.092	1033.2
447.503	1106.6
447.914	1066.8
448.325	1070.1
448.715	1080
449.126	1077.1
449.537	1095.2
449.948	1101.3
450.338	1106.6
450.75	1113.7
451.161	1118.2
451.572	1131.9
451.984	1124.6
452.374	1106.6
452.786	1139.3
453.197	1143
453.609	1145.9
453.999	1136.6
454.411	1149.8
454.823	1169.7
455.235	1167.9
455.647	1157.5
456.037	1166.9
456.449	1150.6
456.862	1174.8
457.274	1178
457.665	1165.2
458.077	1168.3
458.489	1187.4
458.902	1164
459.293	1167.7
459.705	1171.5
460.118	1165.7
460.53	1178.3
460.921	1191.5
461.334	1183.2
461.747	1184
462.16	1193.1
462.551	1190.3
462.964	1193.5
463.377	1175.9
463.79	1176
464.182	1183.3
464.595	1165
465.008	1183.8
465.421	1184.8
465.813	1178.5
466.226	1180.3
466.64	1170
467.053	1215.9
467.445	1185.5
467.859	1175.1
468.272	1175.2
468.686	1177.9
469.078	1163.8
469.492	1151.9
469.906	1163.6
470.298	1173.7
470.712	1150.1
471.126	1188.5
471.54	1146.8
471.933	1149.5
472.347	1151.3
472.761	1145.7
473.175	1141.2
473.568	1141.9
473.982	1135.4
474.397	1140.9
474.79	1140.3
475.204	1146.1
475.619	1133.4
476.033	1131.5
476.426	1127.7
476.841	1114.4
477.256	1141.5
477.649	1107.4
478.064	1099.6
478.479	1108.1
478.872	1094.4
479.287	1089.4
479.702	1099.4
480.118	1098
480.511	1103.2
480.927	1084.3
481.342	1095.4
481.736	1097.5
482.151	1089.5
482.566	1093.1
482.96	1087.2
483.376	1095.3
483.792	1071
484.186	1085.7
484.602	1076
485.017	1072.5
485.412	1065
485.827	1074.3
486.243	1068.7
486.638	1079.4
487.054	1056.1
487.47	1063.9
487.865	1052
488.281	1039.1
488.697	1037.6
489.092	1042.8
489.508	1031.6
489.925	1037.3
490.32	1028.3
490.736	1035.8
491.153	1033.8
491.548	1031.9
491.964	1022.6
492.381	1006.4
492.776	1012.1
493.193	1014.2
493.61	1013
494.006	1016.9
494.422	1008.9
494.84	1001.5
495.235	1005.8
495.652	997.2
496.069	993.6
496.465	964.7
496.883	976.8
497.3	1011.2
497.696	963.2
498.113	972.5
498.509	958
498.927	959.2
499.344	953.4
499.741	949.8
500.158	956.1
500.576	958.1
500.973	947.1
501.39	938
501.787	936.2
502.205	942.9
502.623	924
503.02	917.1
503.438	915.6
503.856	920.3
504.253	922.3
504.671	917.4
505.068	902.7
505.486	909.9
505.905	915.5
506.302	909.1
506.72	908
507.118	890.4
507.536	894.9
507.955	883.4
508.352	885.6
508.771	892.3
509.169	884.4
509.587	867.7
510.006	875.8
510.404	857.9
510.823	860.1
511.221	855
511.64	845
512.038	871.6
512.457	854.1
512.877	853.8
513.275	842.9
513.694	838.4
514.092	840.5
514.512	842
514.91	838.7
515.33	838.4
515.749	834.7
516.148	826
516.568	821.5
516.966	815.7
517.386	814.1
517.785	821.3
518.205	808
518.603	806.8
519.024	798.6
519.444	803.4
519.843	820.1
520.263	811.2
520.662	807.5
521.082	793.5
521.481	799.4
521.902	788.7
522.301	798.5
522.722	796
523.121	784.6
523.542	777.9
523.963	781
524.362	785.6
524.783	782.6
525.183	773.9
525.604	772.4
526.003	767.1
526.425	761.6
526.824	768
527.246	770.1
527.646	770.5
528.067	762
528.467	760
528.888	757.3
529.289	748.9
529.71	747.4
530.11	742.6
530.532	743.8
530.932	736.1
531.354	731.9
531.755	773.1
532.176	741.4
532.577	734
532.999	729.1
533.4	731
533.822	737.9
534.223	726
534.645	722.6
535.046	719.8
535.468	724.2
535.869	727.3
536.292	708.7
536.693	703.7
537.115	710
537.516	703.3
537.939	710.4
538.34	727.5
538.742	710.9
539.165	710
539.566	703.2
539.989	700.7
540.391	703.4
540.814	704.6
541.216	699.8
541.639	699.9
542.041	716.2
542.464	687
542.866	693.5
543.268	691
543.691	704.6
544.093	696.8
544.517	711.6
544.919	685.9
545.343	706.5
545.745	685.1
546.147	693.7
546.571	679.4
546.974	687.8
547.398	684.8
547.8	690.2
548.224	681.4
548.627	673.2
549.03	690.5
549.454	670.4
549.857	659.8
550.281	670
550.684	666.1
551.087	679.1
551.512	669.5
551.915	667.8
552.34	667.2
552.743	658.8
553.146	676.7
553.571	657.7
553.975	682.6
554.399	653.8
554.803	707.4
555.207	658.5
555.632	651.1
556.036	661.9
556.461	645.5
556.865	651.1
557.268	639.4
557.694	646.8
558.098	648.1
558.502	653.4
558.927	645.4
559.332	649
559.736	648.8
560.162	654.3
560.566	641.4
560.992	649.7
561.396	643.9
561.801	639.3
562.227	641.9
562.631	646.2
563.036	639.8
563.462	644.2
563.867	636.6
564.272	626.2
564.698	640.3
565.103	625.3
565.508	646.1
565.935	635.2
566.34	628.1
566.745	638.5
567.172	628.3
567.577	650.8
567.982	638.1
568.409	632.3
568.815	619.6
569.22	627.1
569.626	636.3
570.053	608.9
570.459	622
570.865	622.6
571.292	625.1
571.698	623.7
572.104	610.3
572.531	615.9
572.937	626.7
573.343	617.1
573.75	620.1
574.177	613.7
574.583	621
574.99	606.8
575.396	621.4
575.824	611.4
576.231	614.6
576.637	612
577.065	637.8
577.472	613.6
577.879	611.2
578.286	624.1
578.714	604.1
579.121	610.5
579.528	616
579.935	618.4
580.364	605.9
580.771	593.2
581.178	597.4
581.585	603.8
582.014	613.1
582.421	603.8
582.829	608.7
583.236	604.7
583.644	596.1
584.073	601.9
584.481	601.5
584.889	591.2
585.296	606.7
585.726	597.2
586.134	590.7
586.542	597.2
586.95	615.1
587.358	589
587.787	598.4
588.196	584.4
588.604	593.7
589.012	590.3
589.421	584.9
589.851	593.8
590.259	598.9
590.668	595.5
591.076	623.5
591.485	586.4
591.894	584.1
592.324	597.1
592.733	601.1
593.142	579.6
593.551	587.1
593.96	595.6
594.369	575.9
594.8	583.4
595.209	588
595.618	575.6
596.028	580.5
596.437	579.6
596.847	583.6
597.256	584.3
597.687	592.8
598.097	581
598.507	576.1
598.917	585.7
599.327	589.8
599.736	583.3
600.146	594.3
600.556	583.1
600.988	596.3
601.398	574.2
601.808	598
602.219	573.5
602.629	578.8
603.039	586.2
603.45	602.4
603.86	575.9
604.271	591.5
604.703	578.4
605.114	577.4
605.525	576.4
605.935	578.6
606.346	593.1
606.757	581.1
607.168	574.6
607.579	571.7
607.99	582.2
608.402	572
608.813	576.6
609.224	571.2
609.636	564
610.047	564.8
610.48	574.9
610.892	584.1
611.303	581.2
611.715	569.6
612.127	567
612.539	568.8
612.95	571.1
613.362	562.4
613.774	559.8
614.186	568.8
614.599	569.7
615.011	581.4
615.423	559.9
615.835	569
616.248	562.9
616.66	578.3
617.073	563
617.485	563.4
617.898	575
618.311	573.5
618.723	567.7
619.136	596.4
619.549	580.1
619.962	589.2
620.375	570.3
620.788	574
621.201	570.6
621.614	577.3
622.028	569.1
622.441	568.3
622.854	585.9
623.268	569.4
623.681	576.3
624.095	570.2
624.509	573.5
624.922	576.3
625.336	559.9
625.728	573.4
626.142	577.5
626.556	583.3
626.97	573.8
627.384	561.8
627.799	565.3
628.213	578.4
628.627	565.4
629.041	569
629.456	561.7
629.87	565.7
630.285	575.6
630.699	572.9
631.093	562.2
631.507	572.8
631.922	570.9
632.337	572.3
632.752	556.4
633.167	560.5
633.582	562.2
633.997	558
634.412	559.5
634.806	564
635.221	557.1
635.637	565.7
636.052	554.4
636.468	560.8
636.883	582
637.299	564.9
637.715	553.6
638.109	559.3
638.525	550.6
638.941	579.1
639.357	567.9
639.773	570.7
640.189	557.3
640.584	562.4
641	564.6
641.416	547.7
641.832	554
642.249	557.8
642.665	553.6
643.06	570.9
643.477	568.9
643.894	550.2
644.31	557.3
644.727	558.8
645.123	560.1
645.54	551.9
645.957	561.4
646.374	563.5
646.77	564.2
647.187	589.4
647.604	561.8
648.021	545.9
648.439	553.7
648.835	565.7
649.252	562.7
649.67	565.7
650.088	563.7
650.484	561.8
650.902	564.3
651.32	570
651.738	557.5
652.134	565.9
652.552	577.7
652.971	564.5
653.389	566.3
653.786	574.1
654.204	561.2
654.622	554
655.019	561.6
655.438	569.3
655.857	560.6
656.275	566.8
656.673	550.6
657.091	632.7
657.51	555
657.908	572.2
658.327	575
658.746	553.1
659.144	558
659.563	566.4
659.982	563.9
660.38	555.4
660.8	554.4
661.219	568.5
661.617	561.1
662.037	561.4
662.457	571
662.855	547.5
663.275	590.6
663.695	559.1
664.094	560.6
664.514	560.8
664.934	554.1
665.333	564.8
665.753	555.1
666.152	551.2
666.572	549
666.993	572.2
667.392	556.9
667.812	551.9
668.212	560.2
668.632	571.1
669.053	556
669.453	559.4
669.874	556.7
670.273	564.6
670.694	552.3
671.116	571.6
671.515	566.2
671.937	555.7
672.337	550.1
672.758	558.8
673.158	569
673.58	548.3
673.98	567.3
674.402	568.1
674.824	556.9
675.224	554.5
675.646	552
676.047	553.9
676.469	558.3
676.869	564.4
677.292	560.7
677.693	552.4
678.115	552.6
678.516	559.5
678.939	560.8
679.34	555.5
679.762	564.5
680.164	560.2
680.586	555.2
680.988	560.5
681.411	579.2
681.812	550.4
682.236	550.5
682.637	548.7
683.061	545
683.462	558.9
683.864	552.2
684.288	560.1
684.69	543.9
685.114	564.3
685.516	564.2
685.94	550.1
686.342	563.3
686.766	552.6
687.168	552.3
687.571	573.3
687.995	555.6
688.398	547.5
688.822	552
689.225	570.3
689.628	571
690.052	558.4
690.456	556.9
690.88	556.8
691.284	543.5
691.687	556.3
692.112	550
692.515	548.9
692.919	550
693.344	555.9
693.747	549.5
694.173	550.4
694.577	565
694.98	554.3
695.406	550.9
695.81	549.6
696.214	555.5
696.64	563.9
697.044	556.8
697.448	558
697.874	556.7
698.279	558.8
698.684	551.7
699.11	546.9
699.514	547.4
699.919	558.1
700.324	546.7
700.75	551.9
701.156	554.2
701.561	566.9
701.987	558.7
702.393	559
702.798	561.3
703.203	552.5
703.63	544.8
704.036	553.2
704.442	550.3
704.847	543.9
705.274	551.4
705.68	557
706.086	555
706.492	540
706.92	544.9
707.326	561.3
707.732	551.1
708.139	543.3
708.545	542.4
708.973	545
709.38	552.7
709.786	538.8
710.193	564.6
710.6	551.6
711.028	545.9
711.435	553.5
711.842	557.6
712.249	546.3
712.656	549.3
713.064	558.9
713.492	548.6
713.9	546.7
714.307	555.9
714.715	550.9
715.123	553.9
715.53	553.2
715.938	566.2
716.367	553.7
716.775	549.8
717.184	541.7
717.592	555.3
718	563.4
718.408	590.1
718.816	597.5
719.225	550.5
719.633	561.1
720.042	545.6
720.472	552.5
720.881	570.5
721.29	557.5
721.699	547.2
722.108	557.9
722.517	553.5
722.926	550.5
723.335	556.9
723.744	548.8
724.154	556.1
724.563	552.6
724.973	557.1
725.382	549.3
725.792	550.2
726.202	544.4
726.612	560.3
727.022	553.1
727.432	541.4
779.813	544
780.223	590.5
780.634	547.1
781.044	547.3
781.454	552.8
781.865	563.5
782.276	540
782.686	558.3
783.097	548.4
783.508	547.4
783.919	553.7
784.33	555.8
784.741	562.7
785.152	550.3
785.563	540.6
785.974	543.4
786.386	558.3
786.776	546.3
787.188	549.7
787.599	538
788.011	552.6
788.423	558.4
788.835	544.7
789.247	536.7
789.659	546.3
790.071	543.8
790.483	584.3
790.874	545.9
791.286	555.4
791.699	543.8
792.111	548.2
792.524	550.8
792.937	553.9
793.349	543.6
793.741	545.2
794.154	547.5
794.567	569.3
794.98	547.9
795.393	542.4
795.785	567.5
796.198	542.7
796.612	549.9
797.026	548.8
797.439	529.8
797.831	548.8
798.245	539.4
798.659	545.8
799.073	550.8
799.487	543.6
799.88	550.3
800.294	546.7
800.708	550.6
801.123	547.5
801.516	559.3
801.93	537.8
802.345	536
802.76	553.4
803.153	560.9
803.568	563.9
803.983	555.5
804.377	548.8
804.792	542.9
805.207	535.9
805.601	548.2
806.016	577.8
806.432	542.1
806.826	581.2
807.242	559.2
807.658	554.8
808.052	547.3
808.468	545.4
808.884	538.2
809.279	548.3
809.695	562.6
810.111	566.6
810.506	558.2
810.922	566.9
811.339	542.5
811.734	556
812.151	544.5
812.546	546.5
812.963	546.3
813.38	550.9
813.776	552.1
814.193	566
814.589	541.9
815.006	545.4
815.402	542.6
815.82	543.4
816.237	548
816.633	552.2
817.051	540.7
817.448	549.8
817.866	541.1
818.262	573.3
818.68	545.7
819.077	538.9
819.495	545.9
819.892	590.5
820.311	541.8
820.708	544.8
821.127	545.1
821.524	551.7
821.943	545.9
822.34	559
822.759	555.7
823.157	548
823.576	564.3
823.974	562.3
824.393	554.2
824.791	543.1
825.189	543.7
825.609	545.2
826.007	546.6
826.427	533.6
826.826	548.6
827.246	549.5
827.644	536
828.043	559.9
828.463	543.2
828.862	554.8
829.261	553.7
829.682	537.5
830.081	551.4
830.502	544.3
830.901	545.5
831.301	542
831.722	534.9
832.121	549.2
832.521	537.4
832.943	546.9
833.342	549.5
833.742	538.9
834.164	544.4
834.564	537.7
834.965	545.6
835.386	541.9
835.787	542.6
836.188	547.4
836.588	551.9
837.01	549
837.411	544.7
837.812	552.3
838.213	547
838.636	541.3
839.037	612.4
839.438	542.6
839.84	549.4
840.263	549
840.664	554.7
841.066	539.2
841.468	549.7
841.891	544.6
842.293	553.4
842.695	557.3
843.098	558.8
843.5	547.8
843.902	549.9
844.326	553.6
