#lambda/nm	C1
208.295	473.6
208.67	436.8
209.045	400
209.419	410
209.794	571.2
210.169	551.5
210.544	660.9
210.919	567.7
211.295	555.8
211.67	568.4
212.045	557.5
212.421	560.6
212.796	601.9
213.172	557.1
213.547	563.8
213.923	564.7
214.299	559.1
214.675	563.9
215.051	566.6
215.427	569
215.803	578.6
216.179	569.3
216.555	559.5
216.932	573.7
217.308	569.7
217.684	563
218.061	571.6
218.438	568.3
218.814	564.8
219.191	575.7
219.568	564.3
219.945	562.6
220.322	570.9
220.699	566.7
221.076	564.5
221.453	569.1
221.83	557.9
222.208	563.7
222.585	560.2
222.962	567.5
223.34	571.1
223.717	564.2
224.095	554.9
224.473	565.4
224.851	557.6
225.229	551
225.607	576.1
225.985	552.3
226.363	563.6
226.741	562
227.119	563
227.497	573.8
227.876	558.4
228.254	571.8
228.633	570.2
229.011	560.9
229.39	564.6
229.769	567.3
230.148	572.1
230.527	580.2
230.905	564.3
231.284	562.3
231.664	556.8
232.043	571
232.422	568.7
232.801	563
233.181	567.5
233.56	564.6
233.94	566
234.319	556.9
234.699	558
235.079	602.8
235.458	597.3
235.838	579.6
236.218	554.5
236.598	556.8
236.978	557.7
237.358	553.1
237.738	559
238.119	574.1
238.499	557.5
238.88	565.6
239.26	583
239.641	558.2
240.021	566.9
240.402	562.6
240.783	562.5
241.163	564.7
241.544	568.7
241.925	561.2
242.306	574
242.687	562.6
243.069	563.2
243.45	569.9
243.831	561.6
244.212	555.7
244.594	590.6
244.975	571.1
245.357	568.1
245.739	555.4
246.12	562.2
246.502	575.9
246.884	561.5
247.266	559.2
247.648	568.4
248.03	581.7
248.412	568
248.794	563.4
249.176	556.5
249.559	570.3
249.941	555.9
250.323	555
250.706	553.5
251.089	561.5
251.471	568.9
251.854	568.1
252.237	566.4
252.62	569
253.002	563.9
253.385	565
253.769	577.7
254.152	570.7
254.535	568.2
254.918	556.6
255.301	564.1
255.685	562.6
256.068	556.2
256.452	581.6
256.835	571.3
257.219	570
257.603	577.2
257.986	557.6
258.37	568.5
258.754	553.1
259.138	571.6
259.522	574.9
259.906	562.1
260.29	565.2
260.675	564.3
261.059	567
261.443	555.7
261.828	572.8
262.212	567.7
262.597	555.1
262.981	557.6
263.366	568
263.751	564.7
264.136	559.8
264.521	563.3
264.906	560.6
265.291	573.9
265.676	562.2
266.061	572
266.446	580.2
266.831	562.8
267.217	579.5
267.602	568.9
267.987	569.4
268.373	566.7
268.759	574.8
269.144	568.1
269.53	567.8
269.916	563.9
270.302	563.7
270.688	573.2
271.074	572.5
271.46	579.6
271.846	598.7
272.232	566.2
272.618	562.3
273.004	563.9
273.391	576.1
273.777	576.7
274.164	567.7
274.55	586.4
274.937	566.9
275.324	556.7
275.71	570.1
276.097	567.7
276.484	563.1
276.871	567.5
277.258	569.5
277.645	557
278.032	564.8
278.419	565.5
278.807	569.5
279.194	560.7
279.581	560.9
279.969	565.9
280.356	565.6
280.744	564.2
281.131	588.2
281.519	575.5
281.907	563
282.295	563.2
282.682	574.4
283.07	570
283.458	573.2
283.846	579.9
284.235	574.3
284.623	570.9
285.011	555.6
285.399	562
285.788	565.6
286.176	563.6
286.565	575.2
286.953	560.7
287.342	565.1
287.731	566.4
288.119	558.9
288.508	562.6
288.897	561.6
289.286	557.3
289.675	571.1
290.064	573.5
290.453	560.3
290.821	570
291.21	585.7
291.599	563.1
291.989	562.1
292.378	572.5
292.768	580.9
293.157	567.2
293.547	580.9
293.936	563.9
294.326	563.3
294.716	564.1
295.106	558
295.496	575.1
295.886	578.3
296.276	564
296.666	558.5
297.056	558.5
297.446	558.6
297.836	582.6
298.227	566.1
298.617	568
299.008	574.8
299.398	561.5
299.789	560.9
300.179	570.2
300.57	580.5
300.961	558.8
301.352	567.5
301.742	573.2
302.133	566.1
302.524	559.6
302.915	564.9
303.307	557.3
303.698	570.7
304.089	570.8
304.48	564.2
304.872	570.4
305.263	573
305.655	558.6
306.046	570.8
306.438	569.2
306.829	559.3
307.221	580.7
307.613	577.9
308.005	580
308.397	583.2
308.789	587.2
309.181	589.1
309.573	585.5
309.965	582
310.357	566.2
310.749	571.3
311.142	559.2
311.534	563.9
311.926	572
312.319	567.9
312.711	556.9
313.104	579
313.497	567.8
313.889	602.6
314.282	577.8
314.675	590.8
315.068	566
315.461	573.7
315.854	591.6
316.247	569.1
316.64	572.4
317.033	567.1
317.405	572.3
317.798	568.3
318.192	571.7
318.585	562
318.979	572
319.372	560.5
319.766	561.6
320.16	574
320.553	575.8
320.947	587.5
321.341	565
321.735	565.8
322.129	560.7
322.523	588.2
322.917	557.7
323.311	572.4
323.705	569.7
324.099	567.1
324.494	589
324.888	576.3
325.282	570.8
325.677	567.9
326.071	571.8
326.466	574.5
326.861	571.5
327.255	576.4
327.65	575.4
328.045	579.4
328.44	574.6
328.835	568.6
329.23	561.1
329.625	591.5
330.02	564.8
330.415	582.6
330.81	571.4
331.206	573
331.601	563.6
331.996	572
332.37	575
332.766	564.8
333.161	591.6
333.557	564.8
333.953	570.5
334.348	964
334.744	568
335.14	564.6
335.536	556.7
335.932	575.6
336.328	569.1
336.724	570.5
337.12	568.2
337.516	565.3
337.913	569.5
338.309	579.4
338.705	566.3
339.102	574.3
339.498	560.1
339.895	577.6
340.291	560.1
340.688	577.1
341.085	559.1
341.481	562.4
341.878	559.9
342.275	581.7
342.672	559.6
343.069	555.2
343.466	554.2
343.842	574.7
344.239	554
344.636	558.9
345.033	552.2
345.431	555.6
345.828	563.5
346.225	555.7
346.623	572.6
347.02	563.8
347.418	573.7
347.816	570.3
348.213	548
348.611	566.3
349.009	554.1
349.407	578.2
349.805	552.2
350.203	553
350.601	577.7
350.999	560.1
351.397	559.2
351.795	556.4
352.193	569.7
352.57	572.8
352.969	576.5
353.367	555.1
353.766	554.9
354.164	563.5
354.563	572.2
354.961	567.4
355.36	557.8
355.759	563.9
356.158	555.1
356.557	555.1
356.956	554.3
357.355	554.3
357.754	564.7
358.153	569.8
358.552	587.2
358.951	556.3
359.35	563.1
359.75	554.9
360.149	553.1
360.527	552.1
360.926	551.1
361.326	563
361.726	565.7
362.125	554.2
362.525	566.9
362.925	569
363.325	564.7
363.724	558.6
364.124	551.4
364.524	554.5
364.924	561.1
365.324	575.9
365.725	547.4
366.125	561.6
366.525	557.8
366.904	558.1
367.304	551.8
367.705	577.8
368.105	577
368.506	557.2
368.906	559
369.307	558.3
369.708	564.1
370.108	549.3
370.509	565.9
370.91	552.2
371.311	562
371.712	563.8
372.113	560.8
372.514	549.8
372.894	557.8
373.295	550
373.696	564.1
374.097	568.1
374.499	584.5
374.9	562.5
375.301	552.6
375.703	555.9
376.105	549.7
376.506	562.6
376.908	561.9
377.309	562.6
377.711	557.7
378.113	554.8
378.493	563.1
378.895	551.6
379.297	567.4
379.699	547.9
380.102	563.6
380.504	556.2
380.906	552.9
381.308	583.5
381.71	554.6
382.113	571.6
382.515	559.6
382.918	559.1
383.299	562.5
383.701	566.3
384.104	560.3
384.507	544.4
384.909	554.9
385.312	546.4
385.715	549.5
386.118	554.5
386.521	547.7
386.924	568.3
387.327	551.1
387.709	545
388.112	545.9
388.515	552.2
388.918	557
389.322	558.9
389.725	556.3
390.129	579.8
390.532	566.5
390.936	557.6
391.339	554.9
391.743	560.3
392.125	553
392.529	565.5
392.933	565.6
393.337	557.4
393.74	555.5
394.144	561.5
394.548	555.9
394.953	556.9
395.357	563
395.761	555
396.144	558.7
396.548	557.8
396.952	557.9
397.357	561.3
397.761	556
398.166	558.3
398.57	553
398.975	549.9
399.379	558.7
399.763	604.7
400.168	552.1
400.572	562.7
400.977	557.7
401.382	580.8
401.787	563.9
402.192	572
402.597	572.5
403.002	547.8
403.386	573.6
403.791	571.7
404.197	553.7
404.602	560.4
405.007	557.9
405.413	554.9
405.818	551.6
406.224	557.2
406.608	559.1
407.014	551.1
407.42	571.9
407.825	553.5
408.231	564.1
408.637	562.4
409.043	575.6
409.449	556.6
409.834	552.6
410.24	558.7
410.646	564.4
411.052	569.1
411.458	561.1
411.865	569.5
412.271	563.4
412.677	560.9
413.062	564.6
413.469	552.3
413.875	587.2
414.282	566.5
414.689	559.6
415.095	573.8
415.502	553.1
415.888	556.7
416.294	547.9
416.701	592.7
417.108	553.1
417.515	567.5
417.923	559.1
418.33	578.3
418.715	567.9
419.123	556.2
419.53	557.5
419.937	561.7
420.345	573.5
420.752	554.3
421.16	580.1
421.546	557
421.953	566.8
422.361	551.7
422.769	559.2
423.177	554.3
423.585	580.4
423.992	577.3
424.379	565.4
424.787	567.3
425.195	575.3
425.603	560.6
426.011	568.5
426.419	570.4
426.806	563
427.214	566.9
427.623	573
428.031	581.1
428.44	562.4
428.848	575.9
429.235	575.6
429.644	567.7
430.053	567.1
430.461	581.3
430.87	594.1
431.279	577.1
431.666	563
432.075	580.6
432.484	586.9
432.893	576.1
433.302	606.6
433.711	626.4
434.099	599.5
434.508	606.2
434.918	608.6
435.327	626.4
435.737	631.7
436.125	642
436.534	648.9
436.944	662.7
437.353	670.1
437.763	695.5
438.173	684.9
438.561	707.2
438.971	701.8
439.381	725.9
439.791	733.3
440.201	732.2
440.589	755.6
440.999	774.6
441.409	774.6
441.819	783.6
442.23	812.6
442.619	815.5
443.029	817.5
443.439	832.8
443.85	845.5
444.26	859.2
444.649	862.4
445.06	861
445.471	860.6
445.881	875.1
446.292	901
446.682	911.9
447.092	887.1
447.503	950.3
447.914	910.7
448.325	926.7
448.715	917.7
449.126	918.2
449.537	935.8
449.948	933.6
450.338	939.9
450.75	944.9
451.161	944.9
451.572	953.4
451.984	945.8
452.374	950.2
452.786	955.8
453.197	968.2
453.609	976.7
453.999	963.2
454.411	965.9
454.823	991.2
455.235	983.3
455.647	979.4
456.037	983.2
456.449	966.7
456.862	982.8
457.274	991.8
457.665	978.4
458.077	999.3
458.489	1009.3
458.902	998.2
459.293	990.4
459.705	988.9
460.118	988.5
460.53	991.4
460.921	987.2
461.334	996.6
461.747	1003.6
462.16	1006.6
462.551	999.9
462.964	994.3
463.377	987.1
463.79	988.6
464.182	992.8
464.595	981.3
465.008	991.6
465.421	996.4
465.813	986.4
466.226	980.5
466.64	977.1
467.053	1023.2
467.445	988.3
467.859	983.9
468.272	974.4
468.686	984.8
469.078	971.7
469.492	973.7
469.906	982.7
470.298	982
470.712	974.3
471.126	1001.5
471.54	962.4
471.933	968.1
472.347	965.8
472.761	957.8
473.175	956
473.568	954.2
473.982	955.9
474.397	967.3
474.79	965.4
475.204	966.5
475.619	951.3
476.033	957.5
476.426	956.2
476.841	945.6
477.256	965.8
477.649	935.1
478.064	938.5
478.479	936.6
478.872	938.4
479.287	924.1
479.702	925.2
480.118	933.9
480.511	936.8
480.927	920.2
481.342	925.8
481.736	931.7
482.151	919.5
482.566	933.6
482.96	919.6
483.376	930.1
483.792	916.3
484.186	913.5
484.602	909.6
485.017	908.9
485.412	906.8
485.827	911.1
486.243	908.8
486.638	925.7
487.054	912.2
487.47	916.9
487.865	894.3
488.281	889.8
488.697	886.5
489.092	894.6
489.508	881.5
489.925	900.9
490.32	874.6
490.736	885.8
491.153	881.7
491.548	889.4
491.964	889.7
492.381	861
492.776	874.2
493.193	863.1
493.61	878
494.006	862.3
494.422	869.6
494.84	854.1
495.235	863.1
495.652	858.7
496.069	856.1
496.465	843.3
496.883	849.9
497.3	868.2
497.696	848.8
498.113	847
498.509	835.3
498.927	830.7
499.344	831.4
499.741	826.6
500.158	839
500.576	837.4
500.973	827.7
501.39	810.8
501.787	811.3
502.205	823.4
502.623	803.6
503.02	808.8
503.438	811.6
503.856	807.3
504.253	808
504.671	808.7
505.068	792.5
505.486	796.7
505.905	813.9
506.302	797.6
506.72	798.3
507.118	787.9
507.536	788.3
507.955	783.6
508.352	784.7
508.771	787.8
509.169	785.2
509.587	768.2
510.006	775.9
510.404	765.6
510.823	767.8
511.221	762.9
511.64	764.9
512.038	774.4
512.457	759.1
512.877	758.5
513.275	761.1
513.694	755.9
514.092	748.8
514.512	755.1
514.91	751.6
515.33	743.7
515.749	746.1
516.148	747.1
516.568	745.2
516.966	738.8
517.386	737.6
517.785	743.2
518.205	737.5
518.603	733.4
519.024	727.5
519.444	726.8
519.843	728.3
520.263	720.7
520.662	721.6
521.082	712.6
521.481	721
521.902	716.1
522.301	713.7
522.722	714
523.121	709.7
523.542	704.9
523.963	705
524.362	705.4
524.783	703.2
525.183	695.3
525.604	703.6
526.003	691.5
526.425	690.8
526.824	701.9
527.246	699.6
527.646	690
528.067	689
528.467	684.5
528.888	683.2
529.289	689.5
529.71	683.5
530.11	683.1
530.532	668.2
530.932	675.6
531.354	661.9
531.755	701.7
532.176	679.7
532.577	668.5
532.999	669.3
533.4	655.4
533.822	671.8
534.223	665.1
534.645	659.4
535.046	660.4
535.468	662.1
535.869	670.9
536.292	650.7
536.693	658
537.115	661.3
537.516	653.2
537.939	650.3
538.34	666
538.742	669.1
539.165	659.1
539.566	658.9
539.989	640.4
540.391	645.1
540.814	650
541.216	657.6
541.639	652.2
542.041	651.4
542.464	645.7
542.866	643.9
543.268	638.6
543.691	643.6
544.093	652
544.517	663.3
544.919	629.3
545.343	660.4
545.745	631.7
546.147	644.8
546.571	628
546.974	631.9
547.398	636.4
547.8	644.6
548.224	637.1
548.627	629.5
549.03	626
549.454	623.3
549.857	615.9
550.281	629.6
550.684	619.8
551.087	637.5
551.512	627.8
551.915	634.8
552.34	621.1
552.743	621.8
553.146	625.4
553.571	612.5
553.975	640.3
554.399	619.6
554.803	666.9
555.207	623.5
555.632	612.9
556.036	620.3
556.461	604.3
556.865	611.9
557.268	606.8
557.694	610.7
558.098	618.2
558.502	617.4
558.927	603
559.332	608.6
559.736	607.8
560.162	618.7
560.566	608
560.992	613.2
561.396	607.5
561.801	602.5
562.227	604.6
562.631	599.8
563.036	594.9
563.462	608.1
563.867	609.8
564.272	593.2
564.698	602.2
565.103	587.7
565.508	614.1
565.935	595.4
566.34	600.6
566.745	606.5
567.172	594.3
567.577	611.7
567.982	606.2
568.409	597.2
568.815	578.7
569.22	589.8
569.626	597.4
570.053	583.9
570.459	592.2
570.865	592.8
571.292	597
571.698	597.9
572.104	568.5
572.531	589.2
572.937	596.8
573.343	586.4
573.75	585.5
574.177	588.8
574.583	589
574.99	579.6
575.396	591.7
575.824	586
576.231	587.2
576.637	576.5
577.065	604.1
577.472	573.1
577.879	584.4
578.286	592.5
578.714	576.5
579.121	576.9
579.528	583
579.935	589.6
580.364	577.6
580.771	569.6
581.178	570
581.585	583.3
582.014	585.4
582.421	579
582.829	574.7
583.236	582.5
583.644	571
584.073	569.6
584.481	576.6
584.889	566.8
585.296	579.8
585.726	575
586.134	573
586.542	567.5
586.95	591.4
587.358	562.5
587.787	578
588.196	558.6
588.604	569.7
589.012	572.7
589.421	565.6
589.851	562.5
590.259	570.7
590.668	567.8
591.076	598
591.485	562.7
591.894	566.9
592.324	580.6
592.733	579.1
593.142	556.2
593.551	566.6
593.96	567.5
594.369	557.5
594.8	555.7
595.209	566
595.618	552.5
596.028	562.7
596.437	554.4
596.847	569.7
597.256	569.3
597.687	565.7
598.097	562.6
598.507	553.6
598.917	560.6
599.327	563.2
599.736	563.6
600.146	569.7
600.556	563.6
600.988	574.1
601.398	554.6
601.808	565.1
602.219	548.9
602.629	559.2
603.039	565.1
603.45	582
603.86	557.2
604.271	564.8
604.703	559.9
605.114	553.1
605.525	559.3
605.935	557.6
606.346	577.2
606.757	556.4
607.168	555.1
607.579	551.5
607.99	564.4
608.402	551.8
608.813	557.4
609.224	551.5
609.636	545.1
610.047	547.1
610.48	558.9
610.892	560
611.303	560.4
611.715	552.8
612.127	547.3
612.539	552.2
612.95	558.6
613.362	544.7
613.774	545.5
614.186	544.2
614.599	550.4
615.011	558.6
615.423	543.2
615.835	546
616.248	540.6
616.66	555.1
617.073	539.9
617.485	546.6
617.898	559.3
618.311	553.1
618.723	550.8
619.136	575.7
619.549	561.9
619.962	571.4
620.375	552.2
620.788	553
621.201	544.8
621.614	564.5
622.028	551.3
622.441	555
622.854	562.5
623.268	545.5
623.681	556.3
624.095	556.7
624.509	559.2
624.922	559.9
625.336	539.7
625.728	548.3
626.142	557.4
626.556	558.2
626.97	547.1
627.384	541.6
627.799	550.7
628.213	555
628.627	543.2
629.041	545.2
629.456	543.3
629.87	544.7
630.285	555.9
630.699	554.4
631.093	547.4
631.507	552
631.922	549.4
632.337	557.5
632.752	535.1
633.167	544.6
633.582	541.8
633.997	538.7
634.412	545.9
634.806	547.6
635.221	536.3
635.637	554.1
636.052	541.2
636.468	546.8
636.883	560.9
637.299	547.5
637.715	530.8
638.109	545.5
638.525	534.9
638.941	557.3
639.357	549.7
639.773	553.9
640.189	537.5
640.584	543.5
641	548.3
641.416	533
641.832	538.9
642.249	541.3
642.665	545
643.06	545.3
643.477	552
643.894	531.6
644.31	538.9
644.727	547.8
645.123	543.2
645.54	541.2
645.957	544.7
646.374	546.3
646.77	544.4
647.187	572.5
647.604	545.3
648.021	529.3
648.439	543.1
648.835	546
649.252	545.6
649.67	540
650.088	545.2
650.484	544.8
650.902	551.5
651.32	556.3
651.738	546
652.134	551.3
652.552	561.9
652.971	555.9
653.389	540.5
653.786	555.2
654.204	539
654.622	536.9
655.019	543.7
655.438	547.6
655.857	543.5
656.275	545.7
656.673	540.9
657.091	604.5
657.51	544.2
657.908	551.6
658.327	553.5
658.746	536.3
659.144	541.3
659.563	560.4
659.982	543.3
660.38	532.1
660.8	540.5
661.219	549.8
661.617	543.6
662.037	544.5
662.457	555.9
662.855	523.8
663.275	571.8
663.695	544.7
664.094	540.1
664.514	544.6
664.934	535
665.333	547.5
665.753	539.6
666.152	534.8
666.572	539.5
666.993	552.4
667.392	534.4
667.812	542.5
668.212	539.8
668.632	550.3
669.053	538.6
669.453	542.7
669.874	543.1
670.273	548.1
670.694	535.4
671.116	554.9
671.515	544.7
671.937	545.4
672.337	537.2
672.758	538.2
673.158	547.3
673.58	533.2
673.98	541.2
674.402	554.9
674.824	540.5
675.224	536.7
675.646	529.9
676.047	534.1
676.469	538.5
676.869	544.2
677.292	544
677.693	539.4
678.115	536.1
678.516	538.5
678.939	548.7
679.34	538
679.762	550.4
680.164	542.2
680.586	535.9
680.988	540.8
681.411	555.5
681.812	544.4
682.236	529.1
682.637	535.1
683.061	531.6
683.462	538.3
683.864	534.8
684.288	548.9
684.69	531.8
685.114	547.1
685.516	549.6
685.94	532.3
686.342	545.1
686.766	530.8
687.168	533.8
687.571	560.9
687.995	541.3
688.398	532.5
688.822	541
689.225	550.9
689.628	561.3
690.052	537.2
690.456	545.1
690.88	537.5
691.284	533
691.687	542.6
692.112	532.8
692.515	530.2
692.919	542.1
693.344	538.5
693.747	535.3
694.173	527.7
694.577	552.5
694.98	537.9
695.406	540
695.81	543.6
696.214	542.8
696.64	545.7
697.044	543.5
697.448	551.2
697.874	539.3
698.279	537
698.684	527.4
699.11	530.2
699.514	538.9
699.919	536.9
700.324	531.4
700.75	538.6
701.156	536.3
701.561	545.4
701.987	543.5
702.393	542.1
702.798	545.6
703.203	536
703.63	538.3
704.036	539
704.442	537.1
704.847	528.9
705.274	532.7
705.68	536.7
706.086	544.3
706.492	525.6
706.92	536.5
707.326	543.4
707.732	536.3
708.139	534.3
708.545	527.5
708.973	535.3
709.38	536.8
709.786	530.8
710.193	550.3
710.6	538.9
711.028	529.4
711.435	536.1
711.842	536.1
712.249	538.2
712.656	534.8
713.064	544.6
713.492	531.1
713.9	534.6
714.307	537.8
714.715	537.1
715.123	533.2
715.53	538.7
715.938	543.8
716.367	535.4
716.775	535.4
717.184	533.7
717.592	537.6
718	551.5
718.408	568.6
718.816	574.7
719.225	540.7
719.633	539
720.042	531.4
720.472	528.8
720.881	551.7
721.29	540.7
721.699	527.4
722.108	536.8
722.517	533.9
722.926	527.4
723.335	540.8
723.744	533.1
724.154	534.2
724.563	537.7
724.973	538
725.382	531.8
725.792	526.3
726.202	528.4
726.612	543.3
727.022	531.4
727.432	532.5
779.813	529.6
780.223	578.2
780.634	531
781.044	533.6
781.454	538.9
781.865	546.2
782.276	527.3
782.686	549.7
783.097	526
783.508	534.7
783.919	537.3
784.33	544.9
784.741	540.3
785.152	529.5
785.563	519.6
785.974	525.2
786.386	543.5
786.776	528.6
787.188	532
787.599	530.6
788.011	539.3
788.423	534.1
788.835	528.5
789.247	526.1
789.659	528.2
790.071	532.8
790.483	571.6
790.874	527.9
791.286	542
791.699	531.4
792.111	528.8
792.524	536.9
792.937	537.3
793.349	523.4
793.741	523.7
794.154	530.9
794.567	548.5
794.98	533.9
795.393	528.3
795.785	551
796.198	528.3
796.612	536.9
797.026	534.5
797.439	520.5
797.831	532.8
798.245	522.9
798.659	534.3
799.073	529.1
799.487	532.9
799.88	530.1
800.294	534.5
800.708	537.7
801.123	534.3
801.516	548.7
801.93	527.6
802.345	523.9
802.76	536.5
803.153	542.7
803.568	547.5
803.983	540.9
804.377	536.5
804.792	522.1
805.207	525.6
805.601	533
806.016	564.2
806.432	525.8
806.826	558.9
807.242	542.6
807.658	538.8
808.052	531.7
808.468	531.8
808.884	528.1
809.279	533.3
809.695	546.8
810.111	558.4
810.506	535.9
810.922	550.8
811.339	530.1
811.734	541.1
812.151	536.2
812.546	528.4
812.963	528.3
813.38	535.1
813.776	529.8
814.193	550.8
814.589	526.1
815.006	532.5
815.402	525.9
815.82	528.9
816.237	534.1
816.633	531.5
817.051	523.5
817.448	535.1
817.866	524
818.262	549.4
818.68	528
819.077	530.5
819.495	531.8
819.892	564.2
820.311	528.8
820.708	532
821.127	530.7
821.524	539.2
821.943	531
822.34	542.3
822.759	530.8
823.157	531.1
823.576	550.9
823.974	541.5
824.393	540.4
824.791	527.4
825.189	525.9
825.609	529.2
826.007	529.3
826.427	521.6
826.826	526
827.246	540.4
827.644	523.7
828.043	544.5
828.463	526
828.862	538.1
829.261	533.1
829.682	518.9
830.081	539.4
830.502	530.2
830.901	544
831.301	531.8
831.722	521.8
832.121	534.5
832.521	526.3
832.943	534.4
833.342	534.5
833.742	526
834.164	529.7
834.564	527.2
834.965	530.4
835.386	529.2
835.787	532.2
836.188	533.1
836.588	534.4
837.01	533.2
837.411	526.2
837.812	531.4
838.213	537.3
838.636	526.6
839.037	592.9
839.438	535
839.84	537.4
840.263	535.9
840.664	537.6
841.066	528.9
841.468	535.3
841.891	527.2
842.293	540.6
842.695	531.2
843.098	538.2
843.5	532.2
843.902	535
844.326	531.8
844.729	533.4
845.131	543
845.534	536.4
845.937	538.4
846.34	545.6
846.764	526
847.167	534.5
847.571	521.4
