#lambda/nm	C1
208.295	468.6
208.67	441.4
209.045	401.4
209.419	405.6
209.794	583.5
210.169	563.8
210.544	684.1
210.919	580.8
211.295	568.2
211.67	582.2
212.045	574.3
212.421	574.2
212.796	606.8
213.172	572.8
213.547	574.8
213.923	573.5
214.299	566.5
214.675	584.8
215.051	576.4
215.427	582
215.803	589.2
216.179	578.5
216.555	573.4
216.932	584.3
217.308	576.2
217.684	579
218.061	577.7
218.438	578.5
218.814	570.5
219.191	585.8
219.568	571.4
219.945	568.2
220.322	584.1
220.699	578.6
221.076	586.3
221.453	580.3
221.83	567.7
222.208	571.6
222.585	571.5
222.962	578.8
223.34	580.2
223.717	577.2
224.095	580.6
224.473	582
224.851	570.4
225.229	565.2
225.607	591.3
225.985	569.4
226.363	576.6
226.741	582.6
227.119	580.7
227.497	591.1
227.876	563.3
228.254	582.6
228.633	585.9
229.011	576.7
229.39	585.5
229.769	582.8
230.148	584
230.527	592.3
230.905	580.4
231.284	584.5
231.664	574.3
232.043	591.9
232.422	583.9
232.801	576.1
233.181	580
233.56	578.3
233.94	577.1
234.319	561.9
234.699	577.8
235.079	616.8
235.458	610.9
235.838	593
236.218	567.3
236.598	561
236.978	573.4
237.358	572.6
237.738	571.5
238.119	582.2
238.499	563.9
238.88	577.1
239.26	590
239.641	567.3
240.021	573.3
240.402	575.4
240.783	576.1
241.163	574.1
241.544	577.4
241.925	577
242.306	587.3
242.687	579.4
243.069	580.5
243.45	582.1
243.831	576.2
244.212	574.2
244.594	610.4
244.975	584.9
245.357	581.6
245.739	574
246.12	580.3
246.502	586.5
246.884	573.6
247.266	574.2
247.648	579.5
248.03	599.1
248.412	577.9
248.794	581.1
249.176	572.4
249.559	589
249.941	570
250.323	569.1
250.706	572.1
251.089	579.4
251.471	573.1
251.854	574.6
252.237	572.3
252.62	584.2
253.002	580.9
253.385	576.5
253.769	589.9
254.152	573.6
254.535	578.6
254.918	565.5
255.301	574.8
255.685	573.6
256.068	570.9
256.452	599.8
256.835	580.1
257.219	583.3
257.603	587.3
257.986	569.5
258.37	578
258.754	566.5
259.138	586
259.522	583.7
259.906	577.1
260.29	577.8
260.675	569
261.059	575.6
261.443	568.6
261.828	583.4
262.212	580.4
262.597	560.6
262.981	571.8
263.366	582.1
263.751	580.1
264.136	572.9
264.521	569
264.906	570
265.291	581.9
265.676	574
266.061	580.1
266.446	591.5
266.831	577.6
267.217	592.3
267.602	582.8
267.987	581
268.373	571.6
268.759	579.2
269.144	587.9
269.53	567.9
269.916	573.5
270.302	573.7
270.688	582.6
271.074	576.4
271.46	589.7
271.846	607.1
272.232	575
272.618	572.8
273.004	575.4
273.391	585
273.777	591.8
274.164	580
274.55	592.4
274.937	579.9
275.324	570.2
275.71	582.4
276.097	582.5
276.484	571.7
276.871	579.1
277.258	584.5
277.645	569.2
278.032	573.8
278.419	576.2
278.807	583.2
279.194	570.3
279.581	570.7
279.969	586.9
280.356	583.1
280.744	578.1
281.131	599.3
281.519	589.8
281.907	576.6
282.295	575.3
282.682	590.4
283.07	583.6
283.458	579.1
283.846	590.1
284.235	591.2
284.623	585.1
285.011	569.4
285.399	583.6
285.788	579.3
286.176	572.2
286.565	591.3
286.953	571.7
287.342	573.5
287.731	575.1
288.119	571
288.508	578.8
288.897	578.7
289.286	567
289.675	584
290.064	587.3
290.453	576.2
290.821	578.4
291.21	598.3
291.599	575.7
291.989	584.8
292.378	589.1
292.768	600.9
293.157	586.9
293.547	586.9
293.936	577.3
294.326	575.2
294.716	582.6
295.106	576
295.496	589.4
295.886	590.6
296.276	581.1
296.666	565.1
297.056	576.4
297.446	567.3
297.836	590.4
298.227	574.1
298.617	578.9
299.008	589.5
299.398	581.4
299.789	576.4
300.179	584.4
300.57	589.5
300.961	578.7
301.352	579.2
301.742	588.2
302.133	573.4
302.524	581.1
302.915	584.5
303.307	570.6
303.698	588.5
304.089	587.7
304.48	574.2
304.872	576.1
305.263	576.9
305.655	577.6
306.046	589
306.438	580.9
306.829	568.4
307.221	588.8
307.613	587.9
308.005	589.6
308.397	596
308.789	601.4
309.181	601.4
309.573	599.3
309.965	597
310.357	576.6
310.749	579.7
311.142	567.5
311.534	574.1
311.926	579.8
312.319	584.5
312.711	572.3
313.104	589.9
313.497	572.5
313.889	617.4
314.282	593.7
314.675	604
315.068	573.8
315.461	587.1
315.854	606.8
316.247	586.8
316.64	578.8
317.033	576
317.405	590.4
317.798	580
318.192	582.3
318.585	570.3
318.979	577.5
319.372	579.7
319.766	582.9
320.16	589.3
320.553	599.4
320.947	600.2
321.341	579.3
321.735	586.2
322.129	569.9
322.523	603.9
322.917	566.1
323.311	592.5
323.705	586.3
324.099	586.8
324.494	592.3
324.888	588.5
325.282	578.2
325.677	586.4
326.071	590.2
326.466	594
326.861	582.3
327.255	591.2
327.65	597.6
328.045	593.6
328.44	580
328.835	581
329.23	573.8
329.625	606.8
330.02	576.3
330.415	599.3
330.81	577.2
331.206	581.1
331.601	575.8
331.996	589.1
332.37	585.9
332.766	566.8
333.161	602.5
333.557	578
333.953	585.3
334.348	945.5
334.744	581.7
335.14	576.1
335.536	569.2
335.932	591.3
336.328	577.7
336.724	588
337.12	579
337.516	583.2
337.913	585.5
338.309	592.9
338.705	584.2
339.102	589.7
339.498	574.2
339.895	594
340.291	574.8
340.688	585.9
341.085	573.1
341.481	579.7
341.878	575.7
342.275	602
342.672	568.8
343.069	575.2
343.466	563.4
343.842	587.6
344.239	573.8
344.636	573.2
345.033	569.7
345.431	571.4
345.828	574.8
346.225	566.4
346.623	581.4
347.02	571.9
347.418	582.8
347.816	592.2
348.213	571.3
348.611	580.9
349.009	564.1
349.407	585.2
349.805	559.9
350.203	564.8
350.601	578.1
350.999	575.4
351.397	567.9
351.795	576.6
352.193	586.4
352.57	583.3
352.969	588.1
353.367	563.2
353.766	568.1
354.164	573.3
354.563	584.4
354.961	582.2
355.36	574.7
355.759	573.1
356.158	564.9
356.557	569.6
356.956	569.2
357.355	560.2
357.754	578.5
358.153	581.2
358.552	597.7
358.951	567
359.35	584.7
359.75	573
360.149	566.5
360.527	562.1
360.926	566.9
361.326	575.1
361.726	571.9
362.125	569.5
362.525	583.9
362.925	573.1
363.325	574.1
363.724	577.3
364.124	571.5
364.524	565.9
364.924	578.1
365.324	585.9
365.725	560.1
366.125	577
366.525	574.3
366.904	564.7
367.304	553.4
367.705	585.2
368.105	585.7
368.506	571.6
368.906	572.9
369.307	570
369.708	578.9
370.108	559.7
370.509	585.7
370.91	563.8
371.311	575.9
371.712	575.6
372.113	573.5
372.514	560.7
372.894	573.5
373.295	567.3
373.696	582.7
374.097	586.9
374.499	601
374.9	571.6
375.301	568.9
375.703	576.8
376.105	565.7
376.506	576.5
376.908	574.3
377.309	577.2
377.711	575.1
378.113	566.4
378.493	570.3
378.895	569.7
379.297	575.7
379.699	564.7
380.102	577.7
380.504	571.7
380.906	565.4
381.308	599.5
381.71	573.6
382.113	580.5
382.515	569.2
382.918	573.3
383.299	569.2
383.701	578.8
384.104	576.4
384.507	553.9
384.909	568.7
385.312	559.2
385.715	563.7
386.118	567.1
386.521	559.9
386.924	581.3
387.327	565
387.709	562
388.112	553.7
388.515	567.4
388.918	566.4
389.322	574.7
389.725	573.7
390.129	595.1
390.532	570.8
390.936	567.9
391.339	564.1
391.743	571.8
392.125	566
392.529	577.1
392.933	582.4
393.337	575.3
393.74	568.1
394.144	572.9
394.548	568.6
394.953	566.3
395.357	575.1
395.761	567.2
396.144	574.2
396.548	568.7
396.952	567.7
397.357	573.6
397.761	568.7
398.166	569.8
398.57	564.6
398.975	560.7
399.379	572.6
399.763	620.6
400.168	571.5
400.572	572.7
400.977	569.8
401.382	591.8
401.787	579.1
402.192	590.2
402.597	586.5
403.002	560.8
403.386	586.7
403.791	584.6
404.197	568.3
404.602	572.2
405.007	575.5
405.413	565
405.818	563.6
406.224	559.5
406.608	567.8
407.014	558.8
407.42	578.6
407.825	564.6
408.231	572.4
408.637	575.4
409.043	584.3
409.449	563.5
409.834	558.5
410.24	571.2
410.646	589
411.052	578.9
411.458	574.6
411.865	574.7
412.271	578.2
412.677	573.6
413.062	579.3
413.469	564.6
413.875	595.7
414.282	587.3
414.689	572
415.095	584.9
415.502	563.4
415.888	573.7
416.294	555.8
416.701	610.3
417.108	569.3
417.515	573.8
417.923	569.2
418.33	587.4
418.715	582.6
419.123	573
419.53	566.6
419.937	576.2
420.345	582.2
420.752	566.9
421.16	584.2
421.546	572.1
421.953	576.8
422.361	563.7
422.769	574.2
423.177	564.5
423.585	591.1
423.992	591.5
424.379	586
424.787	577.4
425.195	592.3
425.603	572.7
426.011	581.3
426.419	582.5
426.806	572.4
427.214	575.9
427.623	580.2
428.031	592.9
428.44	576.8
428.848	586.3
429.235	594.1
429.644	576.6
430.053	571.9
430.461	589.9
430.87	598.4
431.279	584.7
431.666	567.4
432.075	579
432.484	577.9
432.893	571.7
433.302	593.3
433.711	615
434.099	581.3
434.508	571.3
434.918	569
435.327	586.3
435.737	575.7
436.125	578.7
436.534	579.4
436.944	581.5
437.353	578.3
437.763	599
438.173	575.6
438.561	596.9
438.971	566.5
439.381	579.8
439.791	586.3
440.201	560.4
440.589	582.6
440.999	593.1
441.409	585.9
441.819	574.5
442.23	591.2
442.619	590.4
443.029	590.7
443.439	593
443.85	599.2
444.26	603
444.649	595.9
445.06	590.3
445.471	590.1
445.881	587.4
446.292	607.4
446.682	612.3
447.092	575.1
447.503	636.5
447.914	596
448.325	592.7
448.715	592.9
449.126	588
449.537	592.8
449.948	591.4
450.338	596
450.75	602.6
451.161	598.1
451.572	604.7
451.984	594.1
452.374	582.9
452.786	592.8
453.197	603.5
453.609	600.1
453.999	582.2
454.411	588.9
454.823	604.1
455.235	595.8
455.647	590.8
456.037	606.9
456.449	590.5
456.862	600.4
457.274	590.6
457.665	591.3
458.077	601.9
458.489	606.4
458.902	592.1
459.293	597.8
459.705	604.4
460.118	593.1
460.53	599.1
460.921	593.5
461.334	595.1
461.747	591.9
462.16	608.1
462.551	608
462.964	603.9
463.377	579.7
463.79	591.5
464.182	605.7
464.595	588.9
465.008	598.2
465.421	599.7
465.813	597.3
466.226	607.2
466.64	594.8
467.053	638.5
467.445	602.4
467.859	601.1
468.272	603.7
468.686	608.2
469.078	595.8
469.492	584
469.906	598.2
470.298	599.2
470.712	586.9
471.126	625.5
471.54	584.5
471.933	587.3
472.347	592.4
472.761	590.6
473.175	584.3
473.568	588.5
473.982	581.5
474.397	592.3
474.79	589.2
475.204	597.4
475.619	592.6
476.033	598.6
476.426	591.1
476.841	586.5
477.256	613.3
477.649	586.5
478.064	583.6
478.479	581.6
478.872	584.3
479.287	575.8
479.702	586.6
480.118	588.5
480.511	586.2
480.927	581
481.342	582.4
481.736	593.7
482.151	583
482.566	596
482.96	587.4
483.376	599.6
483.792	580.8
484.186	591.6
484.602	588
485.017	586.9
485.412	582.8
485.827	589.5
486.243	591.8
486.638	614.7
487.054	595.5
487.47	596.9
487.865	588.1
488.281	585.4
488.697	583.4
489.092	592.4
489.508	580.5
489.925	593.9
490.32	571
490.736	592.9
491.153	590
491.548	585.4
491.964	595.6
492.381	572.7
492.776	582.9
493.193	581.4
493.61	593.4
494.006	587.6
494.422	590.7
494.84	580.6
495.235	591.2
495.652	587.2
496.069	584.2
496.465	573
496.883	582.5
497.3	606.8
497.696	578.9
498.113	588.3
498.509	570.7
498.927	566.7
499.344	573.7
499.741	573
500.158	581.5
500.576	588.3
500.973	580.5
501.39	573.9
501.787	568.5
502.205	585.7
502.623	572.3
503.02	569.5
503.438	573.8
503.856	577.7
504.253	584
504.671	579.5
505.068	574
505.486	572.6
505.905	601.4
506.302	579.9
506.72	584.7
507.118	576.7
507.536	576.9
507.955	569.9
508.352	574.7
508.771	580.4
509.169	583.6
509.587	571.3
510.006	576
510.404	573.6
510.823	574.9
511.221	573.3
511.64	565.8
512.038	589.6
512.457	575.9
512.877	577
513.275	566.1
513.694	572.8
514.092	575.9
514.512	577.9
514.91	569
515.33	576.1
515.749	571.2
516.148	578.2
516.568	577.7
516.966	570.7
517.386	573.2
517.785	575.1
518.205	568.4
518.603	567.9
519.024	567
519.444	572.8
519.843	581.6
520.263	575
520.662	577.4
521.082	565.2
521.481	574.8
521.902	572.4
522.301	570.6
522.722	580.3
523.121	565.9
523.542	566.2
523.963	571.2
524.362	561
524.783	574.5
525.183	566.3
525.604	575
526.003	563.2
526.425	558.3
526.824	574.8
527.246	574.3
527.646	575.2
528.067	569.3
528.467	571.3
528.888	571.7
529.289	571
529.71	573.9
530.11	567.5
530.532	562.6
530.932	559.7
531.354	560.6
531.755	606.9
532.176	572.8
532.577	572.5
532.999	564.5
533.4	562.4
533.822	579.5
534.223	569.2
534.645	567.2
535.046	563.3
535.468	569.3
535.869	575.3
536.292	555.9
536.693	560
537.115	569.6
537.516	559.4
537.939	563.9
538.34	581.1
538.742	577.9
539.165	567.8
539.566	563.5
539.989	554.9
540.391	555.8
540.814	563.8
541.216	567.1
541.639	564.4
542.041	573.2
542.464	558.7
542.866	553.8
543.268	547.2
543.691	568
544.093	563.1
544.517	579.4
544.919	551.1
545.343	584.4
545.745	557.1
546.147	560.3
546.571	556.4
546.974	554.4
547.398	561
547.8	578.6
548.224	562.5
548.627	550.3
549.03	565.3
549.454	556.4
549.857	549.2
550.281	555.3
550.684	555.4
551.087	573.6
551.512	568.3
551.915	568.7
552.34	564.1
552.743	554
553.146	559.9
553.571	562.1
553.975	577.6
554.399	546.2
554.803	601.6
555.207	562.7
555.632	559.8
556.036	568.3
556.461	557.3
556.865	557.2
557.268	550
557.694	555.5
558.098	561.1
558.502	564.2
558.927	557.5
559.332	561.5
559.736	555.5
560.162	568.2
560.566	557.4
560.992	562.6
561.396	556.9
561.801	557.7
562.227	560.8
562.631	562.8
563.036	557.8
563.462	567.3
563.867	558.5
564.272	549.4
564.698	567.5
565.103	543.2
565.508	575.2
565.935	560.6
566.34	556.7
566.745	569.8
567.172	559
567.577	575.7
567.982	571
568.409	560.5
568.815	552.5
569.22	566.9
569.626	569.8
570.053	553.6
570.459	561.1
570.865	567.2
571.292	569.2
571.698	571.2
572.104	544.1
572.531	555.8
572.937	563.3
573.343	556.8
573.75	551.7
574.177	559
574.583	564.6
574.99	555.6
575.396	554.6
575.824	551.6
576.231	563.3
576.637	553.6
577.065	581.5
577.472	557.8
577.879	555.2
578.286	573.7
578.714	551.9
579.121	555.2
579.528	562.8
579.935	567.7
580.364	556.5
580.771	545
581.178	551.4
581.585	559.7
582.014	564.4
582.421	552
582.829	555.5
583.236	563.5
583.644	549.7
584.073	550.5
584.481	553.9
584.889	548.5
585.296	561.6
585.726	553
586.134	551
586.542	556.3
586.95	572.6
587.358	544.7
587.787	560.8
588.196	547.6
588.604	554.3
589.012	556.1
589.421	551
589.851	548.3
590.259	557.6
590.668	547.8
591.076	586
591.485	554.7
591.894	552.9
592.324	573
592.733	569.9
593.142	543.2
593.551	558.8
593.96	588.6
594.369	546.5
594.8	546.9
595.209	548.4
595.618	539.9
596.028	551.1
596.437	546.2
596.847	558.4
597.256	556.1
597.687	561.6
598.097	555
598.507	541.6
598.917	547.6
599.327	556.9
599.736	560.1
600.146	563.7
600.556	553.7
600.988	564.8
601.398	555.2
601.808	561.9
602.219	538.8
602.629	554.7
603.039	553.9
603.45	575
603.86	557
604.271	567.1
604.703	558.2
605.114	552.6
605.525	559.9
605.935	561.8
606.346	577.5
606.757	560.3
607.168	552.4
607.579	546.7
607.99	565.2
608.402	553.6
608.813	557
609.224	552
609.636	545.2
610.047	549.3
610.48	552.4
610.892	558.8
611.303	566.2
611.715	548.2
612.127	547.9
612.539	549.1
612.95	557.7
613.362	543.8
613.774	545.7
614.186	554.6
614.599	551.3
615.011	568.3
615.423	543
615.835	545.8
616.248	546.5
616.66	560.1
617.073	547.5
617.485	550.4
617.898	554.5
618.311	555.4
618.723	552.7
619.136	577.7
619.549	569
619.962	568.5
620.375	551.2
620.788	556
621.201	547.6
621.614	562.1
622.028	553.1
622.441	556.2
622.854	565.8
623.268	546
623.681	559.3
624.095	557.7
624.509	560.6
624.922	555.7
625.336	542.8
625.728	553.5
626.142	562
626.556	565.7
626.97	556.9
627.384	549.4
627.799	557
628.213	564.3
628.627	550.5
629.041	553
629.456	548.5
629.87	552.2
630.285	561.3
630.699	559.4
631.093	549.1
631.507	559.3
631.922	559.3
632.337	563.2
632.752	545.3
633.167	549.2
633.582	551.1
633.997	544.3
634.412	551.2
634.806	555.6
635.221	543.8
635.637	566.4
636.052	534.5
636.468	552
636.883	567.5
637.299	542
637.715	537.7
638.109	548.8
638.525	536.2
638.941	559.8
639.357	555.6
639.773	557.6
640.189	545
640.584	547.8
641	548.4
641.416	535.8
641.832	547.9
642.249	546
642.665	549.9
643.06	550.2
643.477	556
643.894	536.2
644.31	547.2
644.727	546.1
645.123	547.1
645.54	543.5
645.957	550.4
646.374	547.7
646.77	546.8
647.187	577.4
647.604	547.8
648.021	538.6
648.439	540.6
648.835	553.8
649.252	551.5
649.67	544.2
650.088	548.9
650.484	554.5
650.902	552.5
651.32	561.3
651.738	550.4
652.134	553.4
652.552	566.8
652.971	553.9
653.389	552.2
653.786	562.9
654.204	554.6
654.622	545.9
655.019	555.4
655.438	555.8
655.857	553.2
656.275	551.6
656.673	543.8
657.091	620.6
657.51	546.3
657.908	556.2
658.327	562.1
658.746	542.9
659.144	550.9
659.563	559
659.982	559.9
660.38	547.6
660.8	554.4
661.219	558.8
661.617	557.7
662.037	558
662.457	556.5
662.855	535
663.275	579.8
663.695	555.6
664.094	554.9
664.514	554.6
664.934	543.8
665.333	555.3
665.753	548.2
666.152	540.1
666.572	547.3
666.993	559.1
667.392	550.9
667.812	545.2
668.212	547.3
668.632	554
669.053	550.4
669.453	550.5
669.874	555.5
670.273	555.5
670.694	540.5
671.116	560.1
671.515	559.1
671.937	548.2
672.337	546.5
672.758	546.7
673.158	556.1
673.58	541.8
673.98	555.9
674.402	560.4
674.824	546.3
675.224	549.2
675.646	544.4
676.047	545.5
676.469	552.8
676.869	550.4
677.292	559.5
677.693	543.7
678.115	545.5
678.516	554.9
678.939	553.7
679.34	550.7
679.762	561.7
680.164	552.7
680.586	546
680.988	555.1
681.411	577.3
681.812	549.4
682.236	543.1
682.637	543
683.061	544.6
683.462	556.3
683.864	547.4
684.288	556
684.69	544.1
685.114	562
685.516	559.2
685.94	540.7
686.342	559.4
686.766	549.8
687.168	545
687.571	566.3
687.995	547.7
688.398	543.2
688.822	547.9
689.225	566.4
689.628	566.8
690.052	547.4
690.456	554.6
690.88	544.1
691.284	539.2
691.687	553.5
692.112	537.8
692.515	536.4
692.919	548.5
693.344	548.5
693.747	547.9
694.173	542.2
694.577	559.2
694.98	546.5
695.406	547.6
695.81	556.4
696.214	547.4
696.64	556.1
697.044	557.5
697.448	563.1
697.874	548
698.279	549.3
698.684	540.4
699.11	545.7
699.514	547.9
699.919	546.3
700.324	539.2
700.75	547.4
701.156	553.2
701.561	562.4
701.987	554.3
702.393	552.9
702.798	565.5
703.203	552.5
703.63	543.3
704.036	551.3
704.442	551.5
704.847	545.2
705.274	550.5
705.68	554.1
706.086	559.5
706.492	535.3
706.92	549.1
707.326	553.3
707.732	546.5
708.139	544
708.545	540.2
708.973	540.5
709.38	550.5
709.786	532.9
710.193	559.8
710.6	549.4
711.028	539
711.435	544.6
711.842	554.4
712.249	544.5
712.656	551.5
713.064	555.5
713.492	541.7
713.9	543.1
714.307	551.9
714.715	553.1
715.123	555.3
715.53	555.1
715.938	559.2
716.367	554.1
716.775	549.3
717.184	535.9
717.592	544.5
718	555
718.408	579.9
718.816	585.4
719.225	553.9
719.633	549
720.042	543.5
720.472	547.8
720.881	573.5
721.29	550.9
721.699	536.6
722.108	547.8
722.517	541.6
722.926	539.8
723.335	552.3
723.744	550.3
724.154	546.4
724.563	548.8
724.973	544.8
725.382	545.2
725.792	546.9
726.202	537.8
726.612	553.9
727.022	545.8
727.432	544.5
779.813	545.9
780.223	583.8
780.634	545
781.044	541.8
781.454	542
781.865	559.3
782.276	541.6
782.686	553.9
783.097	547.5
783.508	544.8
783.919	551.4
784.33	555.7
784.741	558.1
785.152	540.2
785.563	534
785.974	541.1
786.386	557.6
786.776	544.2
787.188	550
787.599	539.8
788.011	545.1
788.423	551.8
788.835	538.1
789.247	539.4
789.659	545.4
790.071	546.1
790.483	583.2
790.874	542.8
791.286	551.3
791.699	543.6
792.111	541
792.524	552.3
792.937	541.5
793.349	538.6
793.741	537.9
794.154	546.4
794.567	563.9
794.98	541.6
795.393	535.4
795.785	560.1
796.198	543
796.612	542.4
797.026	545.9
797.439	531.8
797.831	543.6
798.245	534.8
798.659	542.1
799.073	538.7
799.487	536.5
799.88	546.1
800.294	543.5
800.708	551.4
801.123	545.4
801.516	564.9
801.93	538.5
802.345	536.3
802.76	547.8
803.153	561.9
803.568	558.2
803.983	559.3
804.377	548
804.792	531.4
805.207	534.8
805.601	546.4
806.016	574.3
806.432	540
806.826	571.3
807.242	554.9
807.658	549.5
808.052	548.1
808.468	544.3
808.884	539.1
809.279	546.6
809.695	552.8
810.111	557.9
810.506	548.4
810.922	558.5
811.339	540.8
811.734	551.6
812.151	541.3
812.546	539.9
812.963	542.1
813.38	546.9
813.776	544.8
814.193	565.4
814.589	545.8
815.006	537.1
815.402	539.1
815.82	541.1
816.237	545.2
816.633	548.5
817.051	535.4
817.448	549.4
817.866	532.7
818.262	560.5
818.68	541.1
819.077	547.4
819.495	543.5
819.892	583.9
820.311	539.1
820.708	539.6
821.127	541.5
821.524	553.1
821.943	546.3
822.34	559.4
822.759	551.3
823.157	546.3
823.576	559
823.974	554.8
824.393	556.7
824.791	540.8
825.189	542.2
825.609	542.2
826.007	547.3
826.427	532.6
826.826	542.3
827.246	554.8
827.644	532.8
828.043	555.3
828.463	543
828.862	552.6
829.261	550.8
829.682	531
830.081	550.7
830.502	539.8
830.901	546.2
831.301	541
831.722	537
832.121	545.6
832.521	539.8
832.943	541.5
833.342	546.1
833.742	540.3
834.164	538.2
834.564	532
834.965	542.6
835.386	544.8
835.787	544.5
836.188	543.1
836.588	542.9
837.01	539.8
837.411	533.9
837.812	549.7
838.213	541.9
838.636	534.9
839.037	607.8
839.438	546.8
839.84	544.6
840.263	550.4
840.664	540.4
841.066	539.6
841.468	542.6
841.891	536.2
842.293	548.5
842.695	548
843.098	552.6
843.5	542.7
843.902	545.6
844.326	546.9
844.729	538
845.131	550.4
845.534	542.5
845.937	550.7
846.34	560
846.764	540.9
847.167	547.5
847.571	542.7
847.974	541.3
