#lambda/nm	C1
208.295	472.4
208.67	436.9
209.045	405.1
209.419	407.7
209.794	575.4
210.169	552.8
210.544	663.5
210.919	566.4
211.295	553.5
211.67	568.4
212.045	560.5
212.421	561.4
212.796	596.3
213.172	566.8
213.547	557.9
213.923	558.7
214.299	554.8
214.675	565.8
215.051	565.1
215.427	568.9
215.803	580.1
216.179	572.8
216.555	556.2
216.932	574.1
217.308	565.4
217.684	564.9
218.061	570.5
218.438	569.4
218.814	562.1
219.191	571
219.568	559.2
219.945	566
220.322	572.2
220.699	571
221.076	569.2
221.453	561.7
221.83	558.1
222.208	557.1
222.585	559.5
222.962	566
223.34	565.4
223.717	558.7
224.095	557.4
224.473	565.1
224.851	555.9
225.229	551.7
225.607	573.9
225.985	550.9
226.363	556.9
226.741	561.6
227.119	561.6
227.497	577.6
227.876	547.6
228.254	564.9
228.633	565.1
229.011	559.3
229.39	563
229.769	565.5
230.148	570.4
230.527	582.2
230.905	559.3
231.284	566.9
231.664	562.3
232.043	576.5
232.422	565
232.801	555.5
233.181	567.9
233.56	563.8
233.94	567.9
234.319	551.6
234.699	563.7
235.079	601.9
235.458	598.1
235.838	579.6
236.218	560.4
236.598	555
236.978	556.5
237.358	560.7
237.738	563.9
238.119	566
238.499	555.7
238.88	563.7
239.26	576.2
239.641	557.4
240.021	559.7
240.402	565.7
240.783	559.3
241.163	559.2
241.544	569.9
241.925	563.7
242.306	576.9
242.687	563.2
243.069	565.3
243.45	573.5
243.831	560.6
244.212	560.9
244.594	598.6
244.975	573.3
245.357	570
245.739	558.3
246.12	563.3
246.502	578.1
246.884	561.6
247.266	560.4
247.648	567.5
248.03	584.4
248.412	564.3
248.794	565.5
249.176	560.8
249.559	575.3
249.941	561.5
250.323	558.1
250.706	549.7
251.089	559.4
251.471	569.7
251.854	565.9
252.237	560.5
252.62	573
253.002	563.5
253.385	563.6
253.769	578.1
254.152	566
254.535	569.9
254.918	564.5
255.301	564.6
255.685	559.7
256.068	560.5
256.452	588.1
256.835	571.3
257.219	574.8
257.603	582.3
257.986	555.6
258.37	564.2
258.754	555.2
259.138	572.5
259.522	579.4
259.906	562.1
260.29	566.3
260.675	557.3
261.059	564.7
261.443	563.7
261.828	570.9
262.212	570.6
262.597	553.8
262.981	559.9
263.366	571.8
263.751	563
264.136	559.4
264.521	558.1
264.906	559.5
265.291	570.2
265.676	562.6
266.061	569.1
266.446	580.1
266.831	561.8
267.217	586
267.602	571.8
267.987	573.7
268.373	562
268.759	568.6
269.144	569.3
269.53	568.7
269.916	563
270.302	562.1
270.688	568.7
271.074	570.7
271.46	574.9
271.846	594
272.232	559
272.618	559.3
273.004	563.4
273.391	572.5
273.777	575.8
274.164	571.6
274.55	573.9
274.937	570.1
275.324	568
275.71	573
276.097	574.7
276.484	561.6
276.871	571.3
277.258	568.3
277.645	552.3
278.032	562.6
278.419	563.5
278.807	568.8
279.194	562.4
279.581	558.2
279.969	573.1
280.356	566.1
280.744	571.1
281.131	587.3
281.519	574.6
281.907	560.2
282.295	563.8
282.682	575.7
283.07	564.5
283.458	575.3
283.846	571.6
284.235	569.2
284.623	571.3
285.011	554
285.399	561.6
285.788	564.3
286.176	560.1
286.565	572.4
286.953	556.5
287.342	557.9
287.731	558.6
288.119	553.7
288.508	562.3
288.897	567.1
289.286	551
289.675	567
290.064	571.9
290.453	562.2
290.821	563.1
291.21	578.3
291.599	559.2
291.989	565
292.378	571
292.768	584.1
293.157	569.6
293.547	571.2
293.936	568.5
294.326	561.6
294.716	565.5
295.106	564.8
295.496	569.9
295.886	575.2
296.276	566.1
296.666	560.8
297.056	555.2
297.446	553.8
297.836	577.7
298.227	562.4
298.617	566.6
299.008	572.5
299.398	566
299.789	559
300.179	569.6
300.57	575.9
300.961	560.1
301.352	564.8
301.742	570.3
302.133	564.9
302.524	557
302.915	569.3
303.307	558.5
303.698	572.9
304.089	568.6
304.48	562.6
304.872	574
305.263	567.4
305.655	562.2
306.046	566.8
306.438	572.5
306.829	569.5
307.221	581.7
307.613	574.3
308.005	577.6
308.397	581
308.789	583.6
309.181	590.1
309.573	584.4
309.965	571.3
310.357	560.2
310.749	568.9
311.142	564.2
311.534	560.4
311.926	573.9
312.319	569.5
312.711	559.9
313.104	578.9
313.497	564.7
313.889	603.4
314.282	582.8
314.675	590.7
315.068	571
315.461	574.2
315.854	595.3
316.247	576.4
316.64	564.5
317.033	565.7
317.405	570
317.798	567.2
318.192	572.4
318.585	558
318.979	569.3
319.372	561
319.766	564
320.16	571.6
320.553	578.7
320.947	582.3
321.341	565
321.735	561.2
322.129	553.5
322.523	584.2
322.917	558.3
323.311	565.8
323.705	569.7
324.099	561.5
324.494	579.7
324.888	569.7
325.282	565.5
325.677	571.5
326.071	576.3
326.466	572.8
326.861	567.9
327.255	576.7
327.65	577.3
328.045	578.5
328.44	567.4
328.835	562.4
329.23	559.8
329.625	587.6
330.02	561.8
330.415	583.5
330.81	564.6
331.206	570.9
331.601	566.1
331.996	578.4
332.37	570.1
332.766	555.4
333.161	585.6
333.557	563.3
333.953	560.9
334.348	961.8
334.744	562.1
335.14	558.9
335.536	565.5
335.932	577.1
336.328	566
336.724	572.1
337.12	569.2
337.516	570
337.913	568
338.309	582
338.705	566.8
339.102	577
339.498	562.8
339.895	579.3
340.291	560
340.688	574.3
341.085	558.3
341.481	560.3
341.878	563.4
342.275	580.8
342.672	561.5
343.069	558.5
343.466	558.1
343.842	573
344.239	557.8
344.636	557.4
345.033	558.9
345.431	558.9
345.828	562.9
346.225	562.4
346.623	574.6
347.02	570.9
347.418	568.9
347.816	577.4
348.213	557.8
348.611	573
349.009	558.7
349.407	568.2
349.805	553
350.203	557.3
350.601	574.1
350.999	560.8
351.397	553.1
351.795	564.1
352.193	573.4
352.57	571.3
352.969	570.1
353.367	560.8
353.766	557.6
354.164	563.1
354.563	570.4
354.961	562.2
355.36	560.7
355.759	556.7
356.158	553.4
356.557	560.2
356.956	558.5
357.355	552.9
357.754	564.8
358.153	568.9
358.552	581
358.951	561.2
359.35	572.3
359.75	556
360.149	555
360.527	551.2
360.926	551.4
361.326	565.6
361.726	565.2
362.125	555.5
362.525	573
362.925	559.6
363.325	560.7
363.724	563.2
364.124	556.9
364.524	555.7
364.924	558.3
365.324	571.7
365.725	546.8
366.125	564.1
366.525	565.2
366.904	553.1
367.304	545.7
367.705	571.4
368.105	574
368.506	561.6
368.906	565.5
369.307	559.7
369.708	562.9
370.108	551.2
370.509	561.9
370.91	551.3
371.311	560.1
371.712	562.4
372.113	553.1
372.514	554.4
372.894	556
373.295	552.8
373.696	563
374.097	569.5
374.499	583.9
374.9	564.4
375.301	554.1
375.703	560
376.105	553.6
376.506	563.8
376.908	559.4
377.309	555.3
377.711	560.9
378.113	553.6
378.493	557.2
378.895	555.7
379.297	571.9
379.699	550
380.102	565
380.504	558.5
380.906	554.6
381.308	579.4
381.71	562.4
382.113	564.1
382.515	558.3
382.918	563.9
383.299	553
383.701	565.9
384.104	556.9
384.507	539.1
384.909	552.5
385.312	548.6
385.715	544.7
386.118	552.1
386.521	548.9
386.924	563.5
387.327	550.7
387.709	547.1
388.112	540.9
388.515	552.9
388.918	555.2
389.322	558.6
389.725	554.7
390.129	577.3
390.532	557.5
390.936	556.4
391.339	552.8
391.743	559.9
392.125	554.3
392.529	568.9
392.933	563.3
393.337	553
393.74	553.7
394.144	556.5
394.548	548.5
394.953	555.1
395.357	564.4
395.761	557.9
396.144	560
396.548	554.5
396.952	557.1
397.357	558.5
397.761	555.7
398.166	551.6
398.57	552.1
398.975	543.6
399.379	558
399.763	602.6
400.168	560.9
400.572	554.9
400.977	560.7
401.382	577.5
401.787	565.3
402.192	572.1
402.597	571.7
403.002	549
403.386	568.1
403.791	577.2
404.197	547.5
404.602	561.2
405.007	556.5
405.413	556.7
405.818	553.9
406.224	550.1
406.608	562.6
407.014	549.6
407.42	571.9
407.825	552.4
408.231	565.4
408.637	564.9
409.043	573.9
409.449	553.9
409.834	552.8
410.24	561.7
410.646	565.9
411.052	563.3
411.458	560.7
411.865	563.9
412.271	568.1
412.677	556.3
413.062	563.2
413.469	554.2
413.875	582.8
414.282	575
414.689	560.6
415.095	564.5
415.502	557.8
415.888	560.4
416.294	539.8
416.701	598
417.108	551.4
417.515	566.4
417.923	552.4
418.33	574.5
418.715	565.5
419.123	552.4
419.53	552.8
419.937	559.6
420.345	568.3
420.752	549.1
421.16	570.3
421.546	556.8
421.953	563
422.361	545.6
422.769	553.2
423.177	551.1
423.585	578.8
423.992	576.5
424.379	567.6
424.787	568
425.195	573
425.603	561.2
426.011	569.3
426.419	575.4
426.806	554.6
427.214	565
427.623	568.4
428.031	571.1
428.44	562.4
428.848	572.9
429.235	569.5
429.644	559.4
430.053	557.3
430.461	575.4
430.87	585
431.279	572.7
431.666	554.4
432.075	562.2
432.484	563.7
432.893	561.4
433.302	576.3
433.711	595.3
434.099	565.1
434.508	552.4
434.918	548.2
435.327	559.3
435.737	560.9
436.125	558.7
436.534	558.7
436.944	560.8
437.353	562.7
437.763	575.8
438.173	545
438.561	565.5
438.971	541.8
439.381	552.7
439.791	558.5
440.201	537.8
440.589	556.2
440.999	560.5
441.409	557.2
441.819	538.7
442.23	565.2
442.619	559.8
443.029	557.7
443.439	553.3
443.85	570.5
444.26	569.4
444.649	564.2
445.06	556.2
445.471	553
445.881	557.1
446.292	568.1
446.682	575.8
447.092	549.3
447.503	601.9
447.914	563.2
448.325	555.8
448.715	556.9
449.126	549.2
449.537	555.7
449.948	556.8
450.338	553
450.75	565.3
451.161	557.5
451.572	558.6
451.984	553.3
452.374	544.4
452.786	556.1
453.197	562
453.609	559.1
453.999	540.7
454.411	550.3
454.823	565.5
455.235	558.6
455.647	556.3
456.037	559.6
456.449	543.9
456.862	558.6
457.274	556.6
457.665	553.3
458.077	559.1
458.489	562.4
458.902	553.6
459.293	559.5
459.705	556.6
460.118	550.9
460.53	554.9
460.921	561.7
461.334	557.6
461.747	557.5
462.16	567.4
462.551	566.5
462.964	559
463.377	542.7
463.79	552.6
464.182	561.8
464.595	544.8
465.008	557.5
465.421	555.5
465.813	548.5
466.226	559.1
466.64	549.2
467.053	595.6
467.445	557.8
467.859	551.4
468.272	558.5
468.686	563.6
469.078	558.8
469.492	544.2
469.906	553.7
470.298	565.6
470.712	544.3
471.126	583.7
471.54	542.4
471.933	545
472.347	545.7
472.761	547.9
473.175	548.4
473.568	552.4
473.982	548
474.397	550.7
474.79	549.5
475.204	559.2
475.619	551.5
476.033	554.1
476.426	554.9
476.841	544.5
477.256	572.8
477.649	548.3
478.064	542.4
478.479	544.2
478.872	549.1
479.287	536.4
479.702	542.9
480.118	551.2
480.511	544.5
480.927	537.3
481.342	547.1
481.736	548.5
482.151	545.4
482.566	559.4
482.96	553.7
483.376	558.3
483.792	548.2
484.186	556.3
484.602	544.5
485.017	554.9
485.412	549.9
485.827	555.1
486.243	547.2
486.638	572
487.054	560.6
487.47	569.4
487.865	547
488.281	544.2
488.697	541.5
489.092	551.4
489.508	539.6
489.925	556.9
490.32	543
490.736	550.1
491.153	554
491.548	553.1
491.964	559.6
492.381	536.7
492.776	553.2
493.193	554.6
493.61	551.9
494.006	548.6
494.422	556.8
494.84	541.8
495.235	558
495.652	551
496.069	549.4
496.465	541.9
496.883	550.9
497.3	569.4
497.696	548.9
498.113	557.4
498.509	540.4
498.927	543.2
499.344	546
499.741	549.4
500.158	557.3
500.576	559.6
500.973	552
501.39	535.9
501.787	541.4
502.205	549.5
502.623	545.3
503.02	539.1
503.438	542.1
503.856	545.4
504.253	559.9
504.671	545.8
505.068	546.4
505.486	545.5
505.905	561.3
506.302	555
506.72	557.5
507.118	544
507.536	551.9
507.955	543.8
508.352	549.7
508.771	550.1
509.169	556.7
509.587	544.6
510.006	545.7
510.404	535.4
510.823	540.1
511.221	543.3
511.64	544.9
512.038	554.8
512.457	545.2
512.877	550.2
513.275	537.5
513.694	541.6
514.092	542.5
514.512	541.6
514.91	541.7
515.33	547.2
515.749	548
516.148	548.3
516.568	544.9
516.966	549
517.386	543.7
517.785	542.8
518.205	545.8
518.603	542.4
519.024	536.8
519.444	549.1
519.843	557.9
520.263	550.6
520.662	545.4
521.082	540.2
521.481	546
521.902	543.4
522.301	547.3
522.722	552.8
523.121	539.4
523.542	541.2
523.963	546.7
524.362	550.7
524.783	551.3
525.183	547.1
525.604	544.6
526.003	539.8
526.425	539.9
526.824	550
527.246	554
527.646	553.5
528.067	543.7
528.467	545.3
528.888	551.5
529.289	543.8
529.71	549.8
530.11	544.8
530.532	541.6
530.932	539
531.354	532.9
531.755	571.3
532.176	550.4
532.577	547
532.999	545.3
533.4	540.4
533.822	553.7
534.223	544.7
534.645	545
535.046	546.4
535.468	543.2
535.869	557.4
536.292	541.1
536.693	541.8
537.115	547.3
537.516	537.6
537.939	541
538.34	562
538.742	555
539.165	549.1
539.566	548
539.989	541
540.391	547.2
540.814	543.1
541.216	550.3
541.639	550.2
542.041	552.7
542.464	545.8
542.866	539.2
543.268	535.9
543.691	550.3
544.093	550.6
544.517	560.1
544.919	534.4
545.343	565.1
545.745	540.1
546.147	544.9
546.571	543.1
546.974	537
547.398	546.7
547.8	554.8
548.224	548.6
548.627	536.2
549.03	548.6
549.454	535.2
549.857	539
550.281	541.8
550.684	542.9
551.087	558.2
551.512	554
551.915	550
552.34	543.4
552.743	541.1
553.146	543.3
553.571	548
553.975	565.2
554.399	532.5
554.803	584.6
555.207	541.4
555.632	543.1
556.036	548.5
556.461	536.2
556.865	545.2
557.268	535.2
557.694	544.9
558.098	548.9
558.502	546.1
558.927	537.8
559.332	539.6
559.736	540.2
560.162	553.8
560.566	542.9
560.992	551.8
561.396	540.5
561.801	546.4
562.227	546.8
562.631	541.3
563.036	543.5
563.462	543.1
563.867	538.7
564.272	534.9
564.698	548.4
565.103	536.4
565.508	561.1
565.935	547.1
566.34	544.3
566.745	553.8
567.172	546.2
567.577	559.6
567.982	556.1
568.409	548.6
568.815	540
569.22	542.3
569.626	545.8
570.053	532.5
570.459	545.5
570.865	549
571.292	556.1
571.698	549.4
572.104	536.5
572.531	541.6
572.937	541.3
573.343	542.4
573.75	538.7
574.177	548.2
574.583	546.4
574.99	540.8
575.396	554.9
575.824	536.3
576.231	551
576.637	537.7
577.065	565.8
577.472	535.9
577.879	539.3
578.286	553.8
578.714	532.9
579.121	542.5
579.528	543.4
579.935	548.1
580.364	543.6
580.771	527.3
581.178	537.8
581.585	546.1
582.014	550.9
582.421	544.9
582.829	539.7
583.236	547.3
583.644	537
584.073	542.5
584.481	546.4
584.889	538.8
585.296	545.3
585.726	545.1
586.134	538.8
586.542	534.3
586.95	554.9
587.358	531.2
587.787	542.4
588.196	532.1
588.604	540.4
589.012	543.3
589.421	537.1
589.851	534.4
590.259	545
590.668	541.9
591.076	572.9
591.485	537.7
591.894	541.5
592.324	556.1
592.733	550.6
593.142	534.1
593.551	541.5
593.96	545.3
594.369	530.7
594.8	530.1
595.209	538
595.618	527.4
596.028	540.8
596.437	530.8
596.847	540.2
597.256	542.9
597.687	546.6
598.097	539.9
598.507	532
598.917	538.4
599.327	549.7
599.736	547
600.146	549
600.556	543.5
600.988	549.7
601.398	535.2
601.808	549.1
602.219	531.3
602.629	539.9
603.039	553.4
603.45	563.5
603.86	545
604.271	555.2
604.703	542.5
605.114	539.3
605.525	544.1
605.935	544.4
606.346	563.1
606.757	548.1
607.168	537
607.579	532.4
607.99	550.3
608.402	537.9
608.813	543.7
609.224	537.5
609.636	529.5
610.047	532.1
610.48	539.3
610.892	543.2
611.303	541.9
611.715	538.1
612.127	528
612.539	535.3
612.95	541
613.362	532.2
613.774	530.5
614.186	535.2
614.599	534.5
615.011	547.5
615.423	529.2
615.835	537.4
616.248	526.2
616.66	547
617.073	528.9
617.485	536
617.898	544.6
618.311	536.3
618.723	533.2
619.136	563.1
619.549	551.1
619.962	564.1
620.375	535.2
620.788	541.6
621.201	528.5
621.614	542.4
622.028	535.7
622.441	541.4
622.854	551
623.268	534
623.681	544.1
624.095	539.4
624.509	549.4
624.922	547.3
625.336	530.3
625.728	535.5
626.142	548
626.556	555.6
626.97	543.8
627.384	533.6
627.799	536.5
628.213	547.2
628.627	534.4
629.041	535.8
629.456	538.8
629.87	537.1
630.285	546.5
630.699	546.5
631.093	543
631.507	536.6
631.922	542.6
632.337	549.6
632.752	531.4
633.167	541.5
633.582	535.5
633.997	540.1
634.412	537.2
634.806	539.3
635.221	530.7
635.637	553
636.052	530.5
636.468	540.8
636.883	560.3
637.299	535.7
637.715	531.9
638.109	537
638.525	530.5
638.941	554.2
639.357	540.1
639.773	548.4
640.189	539.3
640.584	539
641	543.1
641.416	530.8
641.832	538
642.249	533
642.665	541.3
643.06	545.5
643.477	544
643.894	528.4
644.31	538.1
644.727	538.4
645.123	533.3
645.54	532.4
645.957	542.2
646.374	544.5
646.77	540.8
647.187	564.5
647.604	540.6
648.021	530.3
648.439	532
648.835	539
649.252	537.7
649.67	538
650.088	534.3
650.484	544
650.902	544.5
651.32	549.7
651.738	539.7
652.134	543
652.552	561.6
652.971	543.1
653.389	538.9
653.786	551.4
654.204	539.3
654.622	533
655.019	536.7
655.438	541.8
655.857	545.3
656.275	541.9
656.673	533.8
657.091	603.4
657.51	536
657.908	548.1
658.327	552.9
658.746	529
659.144	537.7
659.563	550.5
659.982	542.3
660.38	536.4
660.8	543
661.219	547.8
661.617	538.3
662.037	537.7
662.457	546.9
662.855	524.7
663.275	564.9
663.695	538.2
664.094	538.5
664.514	540.9
664.934	532.6
665.333	545.7
665.753	534.4
666.152	527.9
666.572	532.1
666.993	548.7
667.392	532.1
667.812	535
668.212	536.7
668.632	549.5
669.053	536.1
669.453	538.4
669.874	538.1
670.273	542.6
670.694	534.7
671.116	545
671.515	545.5
671.937	536.4
672.337	536.7
672.758	536.3
673.158	543.4
673.58	534.5
673.98	539.6
674.402	554.8
674.824	540.2
675.224	535.6
675.646	533.8
676.047	535.7
676.469	536.4
676.869	542.6
677.292	541.4
677.693	531.4
678.115	534.2
678.516	545.5
678.939	545.1
679.34	539.7
679.762	547.6
680.164	540.9
680.586	533.9
680.988	540.6
681.411	557.6
681.812	533.2
682.236	528.7
682.637	529.9
683.061	532.1
683.462	537.7
683.864	535.5
684.288	543.8
684.69	530.8
685.114	547.7
685.516	547.9
685.94	532.8
686.342	544.2
686.766	534.7
687.168	533.1
687.571	548.3
687.995	541.6
688.398	533.6
688.822	533.1
689.225	545.9
689.628	554.7
690.052	532.9
690.456	541.8
690.88	541.4
691.284	533.2
691.687	543.7
692.112	527.3
692.515	531.1
692.919	539.4
693.344	541.6
693.747	532.9
694.173	530
694.577	545.1
694.98	538.4
695.406	537.7
695.81	548.4
696.214	545.5
696.64	532.5
697.044	537.9
697.448	544.3
697.874	533.2
698.279	532.5
698.684	530
699.11	531.4
699.514	536.5
699.919	531.9
700.324	526.8
700.75	533.2
701.156	535.9
701.561	552.3
701.987	545.1
702.393	540.2
702.798	543.1
703.203	532.4
703.63	527.5
704.036	529.5
704.442	533.4
704.847	529.7
705.274	534.9
705.68	537.7
706.086	543.6
706.492	525
706.92	536.9
707.326	543.7
707.732	528
708.139	528.1
708.545	528.9
708.973	534.8
709.38	529.3
709.786	522.5
710.193	545.4
710.6	537.6
711.028	527.4
711.435	539.1
711.842	537.6
712.249	533
712.656	533.2
713.064	538.9
713.492	526
713.9	535.5
714.307	535.8
714.715	538.2
715.123	540.1
715.53	534.8
715.938	542.4
716.367	538.8
716.775	538.4
717.184	531.4
717.592	530.7
718	541.4
718.408	561.8
718.816	574
719.225	539.2
719.633	534.5
720.042	529.1
720.472	532
720.881	554.3
721.29	535
721.699	525.1
722.108	538.7
722.517	532.3
722.926	530.1
723.335	543.5
723.744	532.8
724.154	534.6
724.563	536.9
724.973	541.6
725.382	532
725.792	532.2
726.202	533.2
726.612	541.3
727.022	534.9
727.432	530.6
779.813	532
780.223	572
780.634	531.4
781.044	525.5
781.454	534.2
781.865	547.8
782.276	532.8
782.686	542.8
783.097	534.6
783.508	537.2
783.919	535.4
784.33	544.1
784.741	545.7
785.152	529.8
785.563	525.1
785.974	526.6
786.386	546.2
786.776	533.1
787.188	533.8
787.599	524.8
788.011	541.2
788.423	540.8
788.835	528
789.247	525.1
789.659	527.5
790.071	533.6
790.483	573.8
790.874	531.8
791.286	537.6
791.699	530.8
792.111	537.7
792.524	537.9
792.937	536.3
793.349	523.5
793.741	536.7
794.154	531
794.567	548
794.98	529.3
795.393	522.2
795.785	549.8
796.198	530.9
796.612	534.9
797.026	533.1
797.439	520.1
797.831	529.9
798.245	530.9
798.659	530.2
799.073	529.4
799.487	531.9
799.88	536.3
800.294	530.1
800.708	536.1
801.123	532.6
801.516	546.5
801.93	531.4
802.345	523.5
802.76	529.2
803.153	545.6
803.568	551.9
803.983	537.4
804.377	538.3
804.792	526.8
805.207	521.4
805.601	537
806.016	561.8
806.432	528
806.826	562
807.242	546.1
807.658	534.4
808.052	528.4
808.468	528.5
808.884	524.7
809.279	531.8
809.695	539.1
810.111	553.5
810.506	538.4
810.922	552.2
811.339	527.4
811.734	543.2
812.151	533.2
812.546	529.2
812.963	529.1
813.38	542.5
813.776	531.3
814.193	551.7
814.589	530.1
815.006	532.8
815.402	526.8
815.82	528.7
816.237	530
816.633	539
817.051	529.9
817.448	534.9
817.866	526.1
818.262	549.9
818.68	529.8
819.077	525.7
819.495	537.7
819.892	571.5
820.311	524.5
820.708	529.3
821.127	529.6
821.524	549.5
821.943	536.9
822.34	551
822.759	537.8
823.157	532.9
823.576	541.1
823.974	539.7
824.393	544.3
824.791	531.6
825.189	524.7
825.609	527.5
826.007	528.5
826.427	523.5
826.826	531.2
827.246	537.3
827.644	518.2
828.043	539.4
828.463	525.3
828.862	534.3
829.261	535.5
829.682	521.6
830.081	538.9
830.502	530.9
830.901	538.1
831.301	519.9
831.722	524.7
832.121	535.7
832.521	529.5
832.943	529.1
833.342	532.4
833.742	527
834.164	528.7
834.564	519.3
834.965	533.6
835.386	526.4
835.787	530.1
836.188	527.7
836.588	536.5
837.01	535.2
837.411	523.5
837.812	534.7
838.213	533.9
838.636	531.3
839.037	596.7
839.438	529
839.84	535.5
840.263	538.8
840.664	536
841.066	525
841.468	534.3
841.891	525.6
842.293	539.9
842.695	539.2
843.098	540.8
843.5	525.2
843.902	536.1
844.326	533.8
844.729	535.1
845.131	546.1
845.534	533.6
845.937	542.5
846.34	546.3
846.764	523.4
847.167	533
847.571	528.7
847.974	529.9
848.377	526.8
848.781	575.8
