#lambda/nm	C1
208.295	467.9
208.67	439.5
209.045	402.4
209.419	406
209.794	573.3
210.169	556.8
210.544	669.7
210.919	573.1
211.295	560.9
211.67	569.6
212.045	560.5
212.421	565.6
212.796	598.7
213.172	561.1
213.547	567.8
213.923	568.6
214.299	559.1
214.675	576.5
215.051	570.5
215.427	570.8
215.803	589
216.179	568.7
216.555	557.8
216.932	572
217.308	567.4
217.684	567.7
218.061	575.2
218.438	569.8
218.814	563.8
219.191	573.7
219.568	557.5
219.945	565.7
220.322	571.5
220.699	571.9
221.076	576
221.453	571.5
221.83	562.2
222.208	563.2
222.585	563.8
222.962	575.9
223.34	566.2
223.717	562.7
224.095	564.6
224.473	572.1
224.851	566.3
225.229	556.4
225.607	583.5
225.985	557.7
226.363	574.2
226.741	572.7
227.119	570.7
227.497	580.3
227.876	558.9
228.254	573.2
228.633	570.2
229.011	568
229.39	567.7
229.769	567.9
230.148	576.7
230.527	585.9
230.905	570.1
231.284	577.3
231.664	567.4
232.043	576.6
232.422	575.5
232.801	565.1
233.181	571.3
233.56	566.1
233.94	575
234.319	556.8
234.699	566.3
235.079	607.4
235.458	599.2
235.838	576.6
236.218	564.2
236.598	564.1
236.978	563.4
237.358	564.1
237.738	570.3
238.119	570.8
238.499	558.8
238.88	568.6
239.26	585.8
239.641	561.5
240.021	563.3
240.402	567.6
240.783	565.1
241.163	564.5
241.544	568.7
241.925	571
242.306	581.6
242.687	564.4
243.069	566.7
243.45	578.2
243.831	567
244.212	569.9
244.594	602.5
244.975	582.4
245.357	572.5
245.739	566.3
246.12	566.6
246.502	584.7
246.884	565.3
247.266	566.4
247.648	573
248.03	589.7
248.412	573.9
248.794	575.7
249.176	573.8
249.559	575.2
249.941	562
250.323	559.5
250.706	562.4
251.089	568.4
251.471	578.7
251.854	571.3
252.237	579
252.62	582.7
253.002	572.6
253.385	567.4
253.769	580.9
254.152	570
254.535	579.1
254.918	565.9
255.301	567.5
255.685	568
256.068	558.3
256.452	592.3
256.835	574.2
257.219	573.3
257.603	581.8
257.986	565.1
258.37	575.9
258.754	563
259.138	577.8
259.522	574.6
259.906	567.2
260.29	571.6
260.675	565.8
261.059	576.2
261.443	563.1
261.828	578.2
262.212	566.9
262.597	561.8
262.981	568
263.366	575.5
263.751	573.1
264.136	567.4
264.521	565
264.906	563.7
265.291	579.1
265.676	564
266.061	574
266.446	584.1
266.831	563.4
267.217	587.1
267.602	574.3
267.987	572.5
268.373	575.4
268.759	576.4
269.144	574.8
269.53	570.9
269.916	571.2
270.302	562.5
270.688	575.5
271.074	571.9
271.46	580.3
271.846	604.8
272.232	572.4
272.618	567.5
273.004	569.6
273.391	576.9
273.777	576.3
274.164	570.1
274.55	585.4
274.937	573.7
275.324	567.1
275.71	575.5
276.097	578.8
276.484	562.2
276.871	574.8
277.258	572.1
277.645	558.7
278.032	569.8
278.419	570
278.807	573.8
279.194	566.1
279.581	563.5
279.969	578.7
280.356	572.8
280.744	574.8
281.131	593.4
281.519	580.3
281.907	568.9
282.295	567.1
282.682	578.6
283.07	576.1
283.458	572.3
283.846	582.1
284.235	582.5
284.623	576.5
285.011	560.7
285.399	572.9
285.788	570.6
286.176	564.2
286.565	579.9
286.953	563.9
287.342	566.7
287.731	567.2
288.119	562.6
288.508	561
288.897	571.8
289.286	557.6
289.675	574.2
290.064	579.9
290.453	570.5
290.821	569.9
291.21	585.1
291.599	563.5
291.989	574.6
292.378	577.3
292.768	589.6
293.157	572.6
293.547	574.8
293.936	564.4
294.326	563.1
294.716	570.3
295.106	566.1
295.496	577.6
295.886	578.6
296.276	568.1
296.666	562.3
297.056	566
297.446	558.6
297.836	584.5
298.227	567.5
298.617	572.2
299.008	580.8
299.398	567.6
299.789	565.2
300.179	571.9
300.57	583.8
300.961	564.2
301.352	569
301.742	580.3
302.133	573.8
302.524	567.7
302.915	574.2
303.307	564.3
303.698	582
304.089	580.6
304.48	569.3
304.872	578
305.263	573.9
305.655	562.5
306.046	575
306.438	573.8
306.829	564.7
307.221	583.9
307.613	576.1
308.005	579.9
308.397	585.1
308.789	586.8
309.181	594
309.573	586.1
309.965	580.4
310.357	568.6
310.749	571.8
311.142	558.9
311.534	568.3
311.926	575.7
312.319	572.9
312.711	560.8
313.104	582.4
313.497	566.8
313.889	603.5
314.282	581.9
314.675	595.2
315.068	572.6
315.461	573.7
315.854	596.5
316.247	572
316.64	568.9
317.033	573
317.405	577.6
317.798	568.6
318.192	575.8
318.585	563.5
318.979	575.4
319.372	564.7
319.766	572.4
320.16	582.2
320.553	588
320.947	590.1
321.341	565.4
321.735	568.7
322.129	559.2
322.523	590.8
322.917	562.9
323.311	576.9
323.705	575.1
324.099	574
324.494	582.5
324.888	575.7
325.282	565.4
325.677	576.6
326.071	573.5
326.466	587.9
326.861	578
327.255	581.3
327.65	580.1
328.045	585.6
328.44	579.4
328.835	577.3
329.23	568.3
329.625	600.8
330.02	572.8
330.415	592.8
330.81	577
331.206	573.8
331.601	568.8
331.996	577.1
332.37	584.8
332.766	563.9
333.161	593.2
333.557	569.7
333.953	573.6
334.348	861.2
334.744	573.2
335.14	568.7
335.536	566.2
335.932	580.3
336.328	574.4
336.724	576.9
337.12	568.8
337.516	573.8
337.913	575
338.309	588.2
338.705	570.4
339.102	584.2
339.498	568.1
339.895	585.4
340.291	566.2
340.688	579.2
341.085	563.6
341.481	568.8
341.878	571
342.275	592.9
342.672	562.1
343.069	561.5
343.466	560.4
343.842	576
344.239	567.1
344.636	574.5
345.033	564
345.431	564.3
345.828	571.1
346.225	565.7
346.623	577.1
347.02	568.9
347.418	582.6
347.816	580.7
348.213	559.1
348.611	575.9
349.009	566.8
349.407	581.1
349.805	561.4
350.203	560.3
350.601	578.9
350.999	567.8
351.397	563
351.795	564.9
352.193	576.8
352.57	571.9
352.969	580.5
353.367	561.5
353.766	556
354.164	566.1
354.563	582.8
354.961	568.5
355.36	562.7
355.759	561.7
356.158	561.9
356.557	563.6
356.956	556.7
357.355	557.1
357.754	567.8
358.153	570.2
358.552	591.5
358.951	564.7
359.35	575.2
359.75	562.7
360.149	558.2
360.527	556.7
360.926	556.4
361.326	569.1
361.726	572.4
362.125	559.5
362.525	570.6
362.925	564.4
363.325	567.1
363.724	569.5
364.124	560.1
364.524	561
364.924	563.2
365.324	575
365.725	549.5
366.125	566.3
366.525	571.4
366.904	557.5
367.304	554.2
367.705	584.8
368.105	577.4
368.506	563.2
368.906	562
369.307	567
369.708	571.2
370.108	554.3
370.509	578.2
370.91	557.4
371.311	565.8
371.712	567
372.113	563.4
372.514	550.9
372.894	563.1
373.295	559.8
373.696	576.4
374.097	569.3
374.499	597.7
374.9	563
375.301	556.1
375.703	566.9
376.105	558.5
376.506	568.4
376.908	569.5
377.309	565.3
377.711	570.1
378.113	565.4
378.493	563.1
378.895	558.6
379.297	571.8
379.699	550.9
380.102	573.4
380.504	564
380.906	561.7
381.308	583.4
381.71	555.1
382.113	571.6
382.515	557.2
382.918	564.7
383.299	562.7
383.701	570.9
384.104	568
384.507	546.9
384.909	560.3
385.312	545.9
385.715	552.5
386.118	556.6
386.521	551.3
386.924	571.9
387.327	558.7
387.709	552.7
388.112	551.9
388.515	563.8
388.918	559.8
389.322	565.1
389.725	556.1
390.129	583.5
390.532	564.9
390.936	563.9
391.339	559.4
391.743	568.2
392.125	549
392.529	566.9
392.933	577
393.337	560.6
393.74	562.8
394.144	561.3
394.548	553.6
394.953	561.8
395.357	569.6
395.761	556.3
396.144	561.4
396.548	559.3
396.952	565.2
397.357	566.4
397.761	559.2
398.166	561.5
398.57	562.1
398.975	550.8
399.379	563.3
399.763	607.5
400.168	561.8
400.572	562.2
400.977	567.3
401.382	580.5
401.787	570.6
402.192	569.5
402.597	577
403.002	549.3
403.386	575.2
403.791	576.6
404.197	559.9
404.602	562.8
405.007	564.8
405.413	557.5
405.818	550.8
406.224	551.2
406.608	555.5
407.014	548.7
407.42	577.8
407.825	558.8
408.231	565.4
408.637	560.1
409.043	575.2
409.449	553.5
409.834	553.8
410.24	563.9
410.646	570.9
411.052	572.5
411.458	561.7
411.865	562
412.271	568.7
412.677	559.7
413.062	568.8
413.469	556.8
413.875	583
414.282	571
414.689	565.3
415.095	568.1
415.502	560
415.888	561.2
416.294	551.5
416.701	596.1
417.108	554.4
417.515	566
417.923	559
418.33	582.3
418.715	576.8
419.123	561.2
419.53	561.8
419.937	561.9
420.345	576.3
420.752	554.1
421.16	573.4
421.546	562.8
421.953	569.9
422.361	555.1
422.769	558.7
423.177	558.8
423.585	585
423.992	579.9
424.379	572.1
424.787	569.2
425.195	581.6
425.603	564.5
426.011	574.7
426.419	578
426.806	566.3
427.214	572.4
427.623	569.3
428.031	579.9
428.44	573
428.848	573.4
429.235	576.6
429.644	569.3
430.053	566.3
430.461	584.2
430.87	586.8
431.279	576.7
431.666	565.4
432.075	567.1
432.484	567.7
432.893	560.4
433.302	584.1
433.711	607.3
434.099	570.1
434.508	563.7
434.918	558
435.327	571.6
435.737	565.5
436.125	563.9
436.534	566.9
436.944	569.2
437.353	569.4
437.763	584.5
438.173	557.5
438.561	575.3
438.971	552.3
439.381	557.2
439.791	568.2
440.201	541.8
440.589	564.6
440.999	566.8
441.409	570.8
441.819	554.2
442.23	575.2
442.619	565.5
443.029	567.8
443.439	565.1
443.85	570.4
444.26	576.5
444.649	574
445.06	563.8
445.471	556.5
445.881	563.9
446.292	577.7
446.682	581.1
447.092	545.7
447.503	605.3
447.914	563.9
448.325	565.5
448.715	554.2
449.126	550.3
449.537	560.8
449.948	563.2
450.338	554.6
450.75	566.3
451.161	561.4
451.572	566.4
451.984	561.6
452.374	544.6
452.786	558.5
453.197	564
453.609	561.3
453.999	544.4
454.411	559.7
454.823	568.5
455.235	564.5
455.647	557.4
456.037	562.3
456.449	542.8
456.862	562.6
457.274	559.2
457.665	551.3
458.077	570.4
458.489	569.9
458.902	559
459.293	562.9
459.705	558.6
460.118	555.5
460.53	555.8
460.921	559
461.334	563
461.747	559.3
462.16	570.2
462.551	571
462.964	565.2
463.377	550.2
463.79	558.7
464.182	571.4
464.595	548.4
465.008	560.8
465.421	561.2
465.813	559.3
466.226	571.2
466.64	549.5
467.053	595.3
467.445	567.3
467.859	558.9
468.272	562
468.686	569.5
469.078	554.1
469.492	551.2
469.906	553.5
470.298	564.7
470.712	554.9
471.126	582.1
471.54	547
471.933	550.9
472.347	552
472.761	552
473.175	549.3
473.568	552.2
473.982	552.6
474.397	555.3
474.79	555.7
475.204	564.3
475.619	551.2
476.033	553.4
476.426	556.2
476.841	550.4
477.256	580.6
477.649	550.6
478.064	553.3
478.479	546.7
478.872	550.2
479.287	541.5
479.702	544.6
480.118	553.7
480.511	555.5
480.927	546.3
481.342	552
481.736	557.2
482.151	548.3
482.566	564.5
482.96	556
483.376	571.5
483.792	552
484.186	562
484.602	548.2
485.017	554.4
485.412	552.3
485.827	560.2
486.243	550.7
486.638	574.9
487.054	561.9
487.47	566.1
487.865	552.4
488.281	554.9
488.697	550
489.092	551.1
489.508	549.4
489.925	566.6
490.32	544.5
490.736	557.5
491.153	560
491.548	561
491.964	560.4
492.381	544.6
492.776	561.1
493.193	553.1
493.61	564.3
494.006	553.3
494.422	559.1
494.84	545.3
495.235	560.6
495.652	554.8
496.069	554.7
496.465	543.9
496.883	555.3
497.3	571.8
497.696	547.6
498.113	555.6
498.509	540
498.927	545.5
499.344	541.6
499.741	542.1
500.158	562.4
500.576	563.1
500.973	550.1
501.39	543.4
501.787	543.8
502.205	559.5
502.623	547.7
503.02	548.2
503.438	545.9
503.856	551.3
504.253	549.6
504.671	549.7
505.068	544
505.486	554.1
505.905	569.5
506.302	549.7
506.72	567.4
507.118	539.1
507.536	548.5
507.955	549.5
508.352	552.6
508.771	557.3
509.169	557.1
509.587	545.3
510.006	552.2
510.404	538.1
510.823	549.6
511.221	553.6
511.64	549.6
512.038	560
512.457	550.4
512.877	549.3
513.275	545.8
513.694	549.4
514.092	544.6
514.512	556.3
514.91	552.2
515.33	554
515.749	546.9
516.148	552.3
516.568	553.9
516.966	552.6
517.386	547.5
517.785	547.7
518.205	546.1
518.603	539.2
519.024	546.2
519.444	555.7
519.843	561.6
520.263	553.4
520.662	557.8
521.082	545.6
521.481	551.4
521.902	553.2
522.301	558.2
522.722	552.1
523.121	556.2
523.542	549.8
523.963	551.3
524.362	554.1
524.783	555
525.183	548.6
525.604	551.2
526.003	546.5
526.425	543.2
526.824	556.5
527.246	554.5
527.646	560.1
528.067	555.3
528.467	550.1
528.888	554.2
529.289	559.5
529.71	552
530.11	551.4
530.532	546
530.932	541.2
531.354	544.5
531.755	578.7
532.176	559.8
532.577	555.3
532.999	552.9
533.4	543.6
533.822	559.8
534.223	549.6
534.645	551.7
535.046	550
535.468	552.5
535.869	563.3
536.292	551.9
536.693	555.7
537.115	552.1
537.516	543.1
537.939	545.6
538.34	568.5
538.742	566
539.165	547.4
539.566	554.3
539.989	548.5
540.391	546.1
540.814	549.8
541.216	550.3
541.639	555.9
542.041	553.3
542.464	547.5
542.866	546
543.268	538.3
543.691	554.1
544.093	558.9
544.517	569.9
544.919	542.9
545.343	572.7
545.745	543.3
546.147	552.3
546.571	547.3
546.974	540.4
547.398	554.7
547.8	560.3
548.224	551.2
548.627	542.7
549.03	555.3
549.454	543.4
549.857	542.6
550.281	549.6
550.684	547.1
551.087	556
551.512	552.9
551.915	555.7
552.34	552.2
552.743	542.6
553.146	549.5
553.571	549.5
553.975	565.8
554.399	544.8
554.803	593
555.207	547.2
555.632	544.3
556.036	552.2
556.461	538.8
556.865	551.3
557.268	540
557.694	544.3
558.098	553.4
558.502	551.7
558.927	544.7
559.332	547.2
559.736	543.4
560.162	554.6
560.566	547.4
560.992	557.9
561.396	552.3
561.801	546.3
562.227	547.7
562.631	549.4
563.036	545.4
563.462	564.3
563.867	550.3
564.272	536.9
564.698	551
565.103	542.3
565.508	565.5
565.935	550.3
566.34	550.2
566.745	553.2
567.172	545.2
567.577	566.2
567.982	563.3
568.409	550.2
568.815	542.8
569.22	547.6
569.626	554.1
570.053	537.4
570.459	555.4
570.865	551.2
571.292	552.3
571.698	554.1
572.104	537.6
572.531	542.9
572.937	556.4
573.343	553.9
573.75	545
574.177	553.8
574.583	558.2
574.99	540.9
575.396	556.4
575.824	544.1
576.231	552.3
576.637	539.7
577.065	567.4
577.472	547.3
577.879	548.9
578.286	553.6
578.714	537.2
579.121	542.9
579.528	550.8
579.935	556.3
580.364	546.9
580.771	535.5
581.178	541
581.585	554.2
582.014	549
582.421	543.3
582.829	546
583.236	553.7
583.644	542.6
584.073	545.3
584.481	550.3
584.889	544.8
585.296	552.5
585.726	549.9
586.134	546.8
586.542	548.2
586.95	561.3
587.358	540.7
587.787	546.5
588.196	537.9
588.604	545.3
589.012	551.6
589.421	542.7
589.851	540
590.259	554.8
590.668	540
591.076	579.4
591.485	542
591.894	545.5
592.324	555.2
592.733	555.5
593.142	537.9
593.551	544.4
593.96	556.1
594.369	537
594.8	533.1
595.209	543.3
595.618	532.8
596.028	541.7
596.437	535.2
596.847	544.6
597.256	542.4
597.687	543.5
598.097	548.6
598.507	531
598.917	545.9
599.327	546.4
599.736	544.7
600.146	550.9
600.556	544.7
600.988	557.4
601.398	544
601.808	547.7
602.219	534.7
602.629	542.9
603.039	543.2
603.45	562.7
603.86	550.5
604.271	561.5
604.703	543.9
605.114	543.8
605.525	550.3
605.935	550.1
606.346	566.1
606.757	547.7
607.168	547.6
607.579	541.7
607.99	555.1
608.402	546.1
608.813	549.1
609.224	539.7
609.636	535.4
610.047	535.2
610.48	547.8
610.892	551.6
611.303	548.9
611.715	552.8
612.127	541
612.539	547.2
612.95	547
613.362	534
613.774	533.7
614.186	540.4
614.599	541.9
615.011	552.6
615.423	540.2
615.835	537.7
616.248	534.8
616.66	548.3
617.073	534
617.485	539.6
617.898	550.4
618.311	551.2
618.723	542.9
619.136	570.3
619.549	557.3
619.962	561.9
620.375	544.2
620.788	550
621.201	542.5
621.614	552.6
622.028	547.8
622.441	547.1
622.854	560.3
623.268	536.7
623.681	544.6
624.095	548
624.509	552.5
624.922	551.4
625.336	534.3
625.728	549.5
626.142	549.8
626.556	557.4
626.97	550.1
627.384	536.9
627.799	544
628.213	555.6
628.627	546.5
629.041	547.4
629.456	538.4
629.87	548.1
630.285	548.1
630.699	548.1
631.093	542.7
631.507	545.1
631.922	548.5
632.337	556.1
632.752	538.4
633.167	541.9
633.582	539.7
633.997	545
634.412	539
634.806	550.3
635.221	537
635.637	555.6
636.052	535.6
636.468	546.9
636.883	554.1
637.299	540.5
637.715	532.1
638.109	544.5
638.525	530.6
638.941	554.7
639.357	540.6
639.773	551.4
640.189	539.2
640.584	541.1
641	545
641.416	533.7
641.832	539.1
642.249	538.5
642.665	541
643.06	546.2
643.477	548.3
643.894	531.3
644.31	539.5
644.727	542.2
645.123	543
645.54	537.5
645.957	546.8
646.374	544.1
646.77	542.7
647.187	569.9
647.604	542.3
648.021	529.1
648.439	534
648.835	542.2
649.252	545.2
649.67	541.4
650.088	542.2
650.484	552.8
650.902	549.3
651.32	550.9
651.738	538.2
652.134	544.7
652.552	562.3
652.971	551.2
653.389	543.1
653.786	550.8
654.204	544.2
654.622	531.5
655.019	547.6
655.438	546.5
655.857	540.7
656.275	539.2
656.673	534.3
657.091	609.7
657.51	541.7
657.908	550
658.327	555.2
658.746	535.8
659.144	545.2
659.563	554.1
659.982	545.5
660.38	534.3
660.8	545.8
661.219	549.6
661.617	547.9
662.037	538.4
662.457	554.1
662.855	532
663.275	572.3
663.695	543.5
664.094	535.6
664.514	541.4
664.934	536.7
665.333	557.6
665.753	538.5
666.152	532.3
666.572	538.9
666.993	555
667.392	541.4
667.812	544.1
668.212	545.4
668.632	550.2
669.053	542.8
669.453	550.1
669.874	541
670.273	548.4
670.694	535.6
671.116	557
671.515	554
671.937	537.6
672.337	535.7
672.758	536.8
673.158	552.2
673.58	534
673.98	541.1
674.402	550.4
674.824	543.7
675.224	540.7
675.646	535
676.047	539.1
676.469	544.2
676.869	548.2
677.292	550.2
677.693	537.4
678.115	538.5
678.516	547.9
678.939	547.1
679.34	537
679.762	549.2
680.164	551.2
680.586	536.4
680.988	547.6
681.411	567.6
681.812	542.3
682.236	535.8
682.637	536.3
683.061	534.2
683.462	545.1
683.864	536.3
684.288	548.3
684.69	528.3
685.114	552.1
685.516	545.4
685.94	538.9
686.342	543.3
686.766	536.4
687.168	537.1
687.571	557
687.995	536.9
688.398	531.6
688.822	540.4
689.225	551.7
689.628	558.5
690.052	541.3
690.456	540.9
690.88	538
691.284	530
691.687	547.5
692.112	527
692.515	531.7
692.919	539.7
693.344	541.1
693.747	537.5
694.173	527.2
694.577	545.6
694.98	546.1
695.406	541.2
695.81	539.8
696.214	545.4
696.64	545.9
697.044	545.1
697.448	542.3
697.874	541
698.279	542.3
698.684	529.7
699.11	535.4
699.514	538.1
699.919	540.2
700.324	533.8
700.75	543.6
701.156	542.3
701.561	547.9
701.987	536.4
702.393	547
702.798	548
703.203	540
703.63	528.3
704.036	541.1
704.442	543.1
704.847	536.6
705.274	539.5
705.68	541.5
706.086	546
706.492	533.4
706.92	536
707.326	555.4
707.732	538.7
708.139	533.8
708.545	530.7
708.973	538.7
709.38	543.7
709.786	531.5
710.193	555.6
710.6	539.7
711.028	533.3
711.435	536.6
711.842	545.1
712.249	540.5
712.656	537.2
713.064	546.1
713.492	531.7
713.9	541.1
714.307	543.8
714.715	544.7
715.123	545.1
715.53	544.5
715.938	547.4
716.367	539.1
716.775	544.8
717.184	537.6
717.592	541.5
718	550
718.408	576.3
718.816	587.6
719.225	545
719.633	541.3
720.042	535.7
720.472	539
720.881	560
721.29	547.9
721.699	534.3
722.108	542.2
722.517	545.7
722.926	538.4
723.335	550.3
723.744	538.8
724.154	543.6
724.563	537.6
724.973	547.3
725.382	541.8
725.792	538.1
726.202	535.5
726.612	549.9
727.022	540.8
727.432	540
779.813	531.1
780.223	580.5
780.634	542.5
781.044	532.1
781.454	542.5
781.865	553.1
782.276	527.5
782.686	549.6
783.097	537.9
783.508	539
783.919	544.1
784.33	548.2
784.741	553.2
785.152	533.8
785.563	528.6
785.974	533.6
786.386	549.2
786.776	536.5
787.188	541.5
787.599	527.6
788.011	543.9
788.423	540.5
788.835	535.5
789.247	531.6
789.659	540.8
790.071	535.1
790.483	574.6
790.874	539.2
791.286	543
791.699	537.3
792.111	539.4
792.524	540.9
792.937	533.7
793.349	524.9
793.741	536
794.154	537.1
794.567	555.2
794.98	532.6
795.393	525.9
795.785	547.3
796.198	525.9
796.612	541.9
797.026	538.3
797.439	525.8
797.831	532.9
798.245	531.1
798.659	532.8
799.073	529.4
799.487	533.1
799.88	541.3
800.294	535.6
800.708	545.1
801.123	537.4
801.516	550.9
801.93	532.2
802.345	525.6
802.76	541
803.153	551.1
803.568	549.5
803.983	547.5
804.377	545
804.792	527.9
805.207	524.1
805.601	538
806.016	566.9
806.432	534.7
806.826	566.8
807.242	551.4
807.658	541.4
808.052	537.7
808.468	531.6
808.884	540.3
809.279	542.1
809.695	549.9
810.111	562
810.506	545.6
810.922	556.4
811.339	531.9
811.734	545.7
812.151	530.2
812.546	535.1
812.963	538.5
813.38	546.7
813.776	540.1
814.193	557.3
814.589	538.7
815.006	535.4
815.402	538.8
815.82	536
816.237	539.4
816.633	536.6
817.051	528.7
817.448	536.5
817.866	521.9
818.262	555.4
818.68	533.1
819.077	533.4
819.495	533.4
819.892	578.3
820.311	530.1
820.708	532.4
821.127	535.3
821.524	544.8
821.943	536.4
822.34	552.1
822.759	538.8
823.157	536.6
823.576	549.5
823.974	541.2
824.393	548.3
824.791	536.3
825.189	528.6
825.609	537.8
826.007	537.6
826.427	529.2
826.826	538
827.246	540.1
827.644	531.4
828.043	546.6
828.463	538.9
828.862	547.5
829.261	545.6
829.682	528.9
830.081	544.5
830.502	527.3
830.901	542.1
831.301	532.2
831.722	532.2
832.121	537.7
832.521	530.5
832.943	536.6
833.342	536.8
833.742	526.9
834.164	532
834.564	525.8
834.965	538.5
835.386	534.9
835.787	535.4
836.188	534.7
836.588	533.8
837.01	536.4
837.411	528.5
837.812	541.9
838.213	538.2
838.636	528
839.037	601.5
839.438	536.4
839.84	536.4
840.263	536.8
840.664	536.7
841.066	532.4
841.468	537.7
841.891	530.4
842.293	546.5
842.695	537.9
843.098	541.6
843.5	529.6
843.902	540.3
844.326	537.7
844.729	537.4
845.131	548.5
845.534	536.1
845.937	548
846.34	549.4
846.764	527.3
847.167	536.7
847.571	525.7
847.974	533.8
