#lambda/nm	C1
208.295	471
208.67	439.2
209.045	400
209.419	403.9
209.794	585.6
210.169	559.6
210.544	674.2
210.919	582.3
211.295	569.6
211.67	576.5
212.045	570.5
212.421	574
212.796	609.1
213.172	566.1
213.547	571.7
213.923	570.4
214.299	569.6
214.675	581.7
215.051	587.1
215.427	580.6
215.803	595
216.179	580.9
216.555	567.6
216.932	583.8
217.308	579.1
217.684	569.9
218.061	579.3
218.438	580.1
218.814	565.7
219.191	578
219.568	567.4
219.945	574.4
220.322	584.1
220.699	575.7
221.076	583.9
221.453	577.6
221.83	569.3
222.208	572.9
222.585	576
222.962	579.4
223.34	580.3
223.717	573.8
224.095	571.5
224.473	574.5
224.851	569.1
225.229	565.5
225.607	592.8
225.985	566.4
226.363	573.3
226.741	577.3
227.119	572
227.497	588.6
227.876	569
228.254	585.5
228.633	581.4
229.011	572.6
229.39	586
229.769	583.2
230.148	581.4
230.527	592.5
230.905	578.2
231.284	575.8
231.664	573.8
232.043	592.7
232.422	586
232.801	575.5
233.181	583.1
233.56	575.6
233.94	577.9
234.319	564.2
234.699	573
235.079	617.8
235.458	615.6
235.838	596.1
236.218	569.7
236.598	563
236.978	568.9
237.358	568.5
237.738	578.2
238.119	577.6
238.499	566.6
238.88	575.9
239.26	594.8
239.641	567.2
240.021	576.5
240.402	578.3
240.783	572.1
241.163	570.6
241.544	582.2
241.925	575.2
242.306	588.2
242.687	571.9
243.069	577.2
243.45	583.7
243.831	567.9
244.212	571.9
244.594	609.5
244.975	588.9
245.357	579.5
245.739	572
246.12	575.1
246.502	591.2
246.884	574.2
247.266	576.7
247.648	579.6
248.03	598.6
248.412	578
248.794	585
249.176	568.1
249.559	584.1
249.941	574.3
250.323	570.6
250.706	567.9
251.089	574.5
251.471	578.4
251.854	572.8
252.237	576.9
252.62	581.4
253.002	575.1
253.385	575.6
253.769	591.3
254.152	576.3
254.535	583.8
254.918	572.9
255.301	577.2
255.685	571.2
256.068	574.1
256.452	602.3
256.835	581.2
257.219	580.9
257.603	587.4
257.986	571.5
258.37	583.5
258.754	568.1
259.138	580.5
259.522	586.7
259.906	574.9
260.29	583.2
260.675	576.7
261.059	579.3
261.443	568.2
261.828	584.9
262.212	580.3
262.597	564.2
262.981	577
263.366	582.3
263.751	575.9
264.136	571.8
264.521	576.2
264.906	568.6
265.291	587.7
265.676	579.6
266.061	585.1
266.446	593.5
266.831	579.9
267.217	596.7
267.602	583
267.987	575.2
268.373	574.5
268.759	585.5
269.144	581.7
269.53	575.7
269.916	574.9
270.302	574.6
270.688	588.5
271.074	584.4
271.46	586.4
271.846	603.1
272.232	577.4
272.618	569.6
273.004	579
273.391	587.9
273.777	588.2
274.164	581.2
274.55	591.1
274.937	576.9
275.324	573.7
275.71	587.3
276.097	581.6
276.484	569.5
276.871	577
277.258	583.6
277.645	561.7
278.032	575.1
278.419	568.3
278.807	576.2
279.194	567.7
279.581	576.8
279.969	587.2
280.356	574.9
280.744	584.5
281.131	602.3
281.519	586.4
281.907	577.9
282.295	575.6
282.682	589.7
283.07	580.1
283.458	585.8
283.846	586
284.235	588.8
284.623	583.9
285.011	571.7
285.399	577.5
285.788	574.5
286.176	567.2
286.565	588.7
286.953	569.2
287.342	576.3
287.731	573.1
288.119	572.7
288.508	570.1
288.897	577.7
289.286	566.4
289.675	576.1
290.064	589.5
290.453	579.1
290.821	582.6
291.21	591.1
291.599	572.8
291.989	581.9
292.378	581.2
292.768	597.7
293.157	583.7
293.547	585.3
293.936	576.3
294.326	570.5
294.716	584.8
295.106	574.2
295.496	581.2
295.886	581.9
296.276	576.5
296.666	568.8
297.056	572.6
297.446	568.1
297.836	597.3
298.227	573.2
298.617	579.8
299.008	589.9
299.398	577.8
299.789	574
300.179	579
300.57	588.6
300.961	571.2
301.352	575
301.742	587.4
302.133	581.4
302.524	581.2
302.915	577.6
303.307	567.1
303.698	584.4
304.089	580.1
304.48	574.5
304.872	576.2
305.263	577.7
305.655	573.5
306.046	580.9
306.438	582.9
306.829	573.1
307.221	587.7
307.613	586.8
308.005	587.3
308.397	590.1
308.789	593.4
309.181	600.6
309.573	594.1
309.965	596
310.357	579.3
310.749	579
311.142	573.6
311.534	574.9
311.926	585.9
312.319	576
312.711	568.6
313.104	592.5
313.497	577.1
313.889	616.6
314.282	589.8
314.675	599.5
315.068	578.6
315.461	584.7
315.854	608.5
316.247	583.6
316.64	578.7
317.033	579.8
317.405	585.7
317.798	580.9
318.192	580.1
318.585	575.3
318.979	589.5
319.372	568.9
319.766	571.9
320.16	583.8
320.553	594.3
320.947	595.3
321.341	574
321.735	580.4
322.129	568.6
322.523	607.1
322.917	570.9
323.311	581.6
323.705	580
324.099	579.9
324.494	592.6
324.888	590.5
325.282	580.8
325.677	584.6
326.071	586.2
326.466	592.8
326.861	585.2
327.255	588.8
327.65	592.6
328.045	594.7
328.44	583.3
328.835	579.8
329.23	576.7
329.625	607.7
330.02	567.8
330.415	595.8
330.81	582.3
331.206	579.4
331.601	581.3
331.996	588.8
332.37	586.2
332.766	572.4
333.161	606.2
333.557	575.3
333.953	582.8
334.348	952.2
334.744	585.5
335.14	575.9
335.536	575.4
335.932	589.5
336.328	576.1
336.724	585.5
337.12	581.8
337.516	577.6
337.913	579.6
338.309	592.2
338.705	574.9
339.102	587.1
339.498	570.7
339.895	588.8
340.291	578.8
340.688	590.1
341.085	570.9
341.481	576.5
341.878	569.8
342.275	595.8
342.672	570
343.069	574.2
343.466	561.8
343.842	588.2
344.239	572.7
344.636	579.6
345.033	569.7
345.431	579.3
345.828	573.6
346.225	570.1
346.623	585.9
347.02	574.6
347.418	588.4
347.816	593.1
348.213	569.9
348.611	580
349.009	567.8
349.407	591.4
349.805	565.3
350.203	563.5
350.601	589
350.999	568.7
351.397	572
351.795	576.1
352.193	587.5
352.57	583.3
352.969	585.9
353.367	567
353.766	565.5
354.164	573.9
354.563	584.2
354.961	581.5
355.36	572.2
355.759	577
356.158	569.6
356.557	566.1
356.956	566
357.355	564.1
357.754	576.4
358.153	580.1
358.552	601
358.951	573
359.35	587.8
359.75	571.8
360.149	566.7
360.527	562.4
360.926	568.6
361.326	577.4
361.726	576.3
362.125	568.5
362.525	578.7
362.925	571.5
363.325	573.9
363.724	568.1
364.124	567.4
364.524	570.7
364.924	570.7
365.324	580.9
365.725	555.1
366.125	574.6
366.525	574.4
366.904	564.1
367.304	555.7
367.705	586.5
368.105	583.9
368.506	573.5
368.906	568.2
369.307	571.1
369.708	572.9
370.108	567.5
370.509	585.3
370.91	563.1
371.311	574.3
371.712	570.2
372.113	569.4
372.514	559.4
372.894	567.5
373.295	563.9
373.696	583
374.097	580.2
374.499	597.9
374.9	577
375.301	566.3
375.703	573.7
376.105	565.1
376.506	576.2
376.908	575.2
377.309	569.9
377.711	572.8
378.113	566.5
378.493	571.3
378.895	560.9
379.297	576.6
379.699	556.8
380.102	574.4
380.504	571.5
380.906	565.9
381.308	589.9
381.71	567.4
382.113	579.4
382.515	566.6
382.918	572.4
383.299	559.9
383.701	579.7
384.104	572.7
384.507	555.9
384.909	568.3
385.312	555
385.715	558.3
386.118	568.2
386.521	562.3
386.924	577.2
387.327	565.7
387.709	555.2
388.112	551.7
388.515	568.1
388.918	568.5
389.322	577.2
389.725	564.1
390.129	589.4
390.532	578.7
390.936	564.2
391.339	558.5
391.743	576.6
392.125	564.7
392.529	581.2
392.933	581.6
393.337	569.4
393.74	570.5
394.144	564.2
394.548	566.6
394.953	566.9
395.357	575.9
395.761	559.4
396.144	577.1
396.548	568.9
396.952	569
397.357	570.2
397.761	569.7
398.166	563
398.57	567.3
398.975	560
399.379	572.6
399.763	612.8
400.168	567.6
400.572	562.7
400.977	561.6
401.382	584.1
401.787	570.6
402.192	587.6
402.597	584.3
403.002	560.3
403.386	577.2
403.791	575.4
404.197	565.7
404.602	568.3
405.007	567.9
405.413	562.8
405.818	564
406.224	562.5
406.608	566.9
407.014	560.9
407.42	581.1
407.825	564.9
408.231	578.6
408.637	566.5
409.043	582.5
409.449	565.4
409.834	560.2
410.24	569.3
410.646	577.8
411.052	576
411.458	571.5
411.865	573.8
412.271	580.6
412.677	564.4
413.062	573.2
413.469	565
413.875	587.3
414.282	579.3
414.689	573.9
415.095	574
415.502	570.5
415.888	567
416.294	558.8
416.701	610.9
417.108	562.7
417.515	576.3
417.923	564.5
418.33	597.2
418.715	581.8
419.123	571.9
419.53	565.3
419.937	574
420.345	588.2
420.752	568.7
421.16	581.8
421.546	572.4
421.953	576.8
422.361	565
422.769	569.5
423.177	561.7
423.585	593.6
423.992	589.4
424.379	583.8
424.787	586.4
425.195	588
425.603	573.1
426.011	581.1
426.419	590.7
426.806	574.5
427.214	574.6
427.623	584.5
428.031	592.2
428.44	584
428.848	583
429.235	587.2
429.644	578.5
430.053	571.9
430.461	584.3
430.87	600.6
431.279	584.7
431.666	566.4
432.075	570.5
432.484	574.3
432.893	570.4
433.302	592
433.711	611.2
434.099	582
434.508	569.1
434.918	569.5
435.327	571.9
435.737	573.4
436.125	575
436.534	573.3
436.944	576.7
437.353	574.8
437.763	596.4
438.173	569.6
438.561	584.5
438.971	560.6
439.381	573.2
439.791	578.3
440.201	549.7
440.589	575.2
440.999	571.6
441.409	570.8
441.819	559.3
442.23	573.4
442.619	574.1
443.029	573.3
443.439	573.3
443.85	583.1
444.26	584.7
444.649	577.7
445.06	565.2
445.471	568.8
445.881	570
446.292	582.4
446.682	592.1
447.092	554
447.503	616.2
447.914	573.1
448.325	564.2
448.715	565
449.126	568.5
449.537	564.7
449.948	572.5
450.338	567.5
450.75	580.3
451.161	567.9
451.572	572.9
451.984	562.7
452.374	555.7
452.786	568.2
453.197	570.8
453.609	575.8
453.999	565.2
454.411	560.2
454.823	579.1
455.235	569.1
455.647	566.7
456.037	571.8
456.449	551.6
456.862	572.1
457.274	571.9
457.665	560
458.077	578.8
458.489	579.2
458.902	569.4
459.293	572.4
459.705	564.5
460.118	562.6
460.53	566.6
460.921	565.6
461.334	570.3
461.747	566.4
462.16	578.6
462.551	577.5
462.964	573.7
463.377	556.1
463.79	563.1
464.182	577.5
464.595	558.6
465.008	564.8
465.421	565.8
465.813	561.3
466.226	569.5
466.64	562.5
467.053	608.2
467.445	573.1
467.859	567.3
468.272	565.7
468.686	579.5
469.078	567.5
469.492	550.1
469.906	568
470.298	572.6
470.712	559.3
471.126	597.1
471.54	554.6
471.933	558.5
472.347	561.7
472.761	558.9
473.175	557.6
473.568	558.6
473.982	558.5
474.397	562.5
474.79	561.8
475.204	571.6
475.619	563.7
476.033	567.9
476.426	564.7
476.841	556.4
477.256	585.5
477.649	557.3
478.064	556.9
478.479	557.8
478.872	558.5
479.287	553.1
479.702	554.2
480.118	560.8
480.511	561.3
480.927	551.3
481.342	557
481.736	567.5
482.151	559.3
482.566	573.1
482.96	565.3
483.376	572.9
483.792	559.1
484.186	561.7
484.602	559.7
485.017	560.3
485.412	565.4
485.827	565
486.243	560.1
486.638	581.5
487.054	572.3
487.47	573.8
487.865	562.3
488.281	559
488.697	560.9
489.092	556.3
489.508	556.5
489.925	566.1
490.32	554
490.736	572.2
491.153	557.8
491.548	567.9
491.964	569.8
492.381	544.9
492.776	562.2
493.193	565.5
493.61	569.9
494.006	558
494.422	560.8
494.84	555.1
495.235	568.7
495.652	555.5
496.069	560.4
496.465	549.5
496.883	562.4
497.3	575.5
497.696	558.8
498.113	568.2
498.509	545.7
498.927	552.5
499.344	553
499.741	549.6
500.158	569.4
500.576	565.9
500.973	559
501.39	549.8
501.787	549.7
502.205	563.7
502.623	560.1
503.02	547.8
503.438	551.5
503.856	556
504.253	563.8
504.671	562.5
505.068	551.1
505.486	555.2
505.905	572.2
506.302	555.2
506.72	563.6
507.118	546.2
507.536	561.4
507.955	555.6
508.352	557.2
508.771	561.7
509.169	564.1
509.587	549.9
510.006	559.5
510.404	548.2
510.823	558.7
511.221	557.9
511.64	554.3
512.038	567.5
512.457	556.8
512.877	562.3
513.275	551.6
513.694	558.9
514.092	553
514.512	564
514.91	556.8
515.33	560.8
515.749	560.9
516.148	559.9
516.568	562.8
516.966	560.4
517.386	552.2
517.785	557.3
518.205	550.4
518.603	557.1
519.024	552.3
519.444	564.9
519.843	566.3
520.263	559.9
520.662	565.2
521.082	554
521.481	565.8
521.902	560.9
522.301	557.3
522.722	557.6
523.121	554.1
523.542	558.5
523.963	559.6
524.362	557.1
524.783	564.8
525.183	557.3
525.604	562.1
526.003	556.4
526.425	550.1
526.824	568.1
527.246	570.7
527.646	564.7
528.067	561.5
528.467	555.7
528.888	561
529.289	556.3
529.71	555.9
530.11	551.3
530.532	556.3
530.932	554
531.354	548.9
531.755	588.2
532.176	566.5
532.577	553.8
532.999	565.9
533.4	554.2
533.822	566
534.223	557.2
534.645	548.7
535.046	553.4
535.468	559
535.869	573.8
536.292	554.8
536.693	558.4
537.115	559.3
537.516	547.9
537.939	554.6
538.34	571.2
538.742	566.3
539.165	558.4
539.566	558.7
539.989	548.6
540.391	551.4
540.814	557.3
541.216	553.9
541.639	562.4
542.041	561.4
542.464	551.2
542.866	548.2
543.268	550.6
543.691	559.2
544.093	562.9
544.517	578.8
544.919	546.7
545.343	577
545.745	550.9
546.147	560
546.571	556.2
546.974	554.5
547.398	559.8
547.8	570.5
548.224	556.8
548.627	546.3
549.03	565.7
549.454	549.6
549.857	548
550.281	546.4
550.684	553
551.087	565.6
551.512	559.6
551.915	561.9
552.34	556.4
552.743	557.4
553.146	556.7
553.571	553.9
553.975	573
554.399	551.1
554.803	603.9
555.207	559
555.632	552.4
556.036	560.8
556.461	553.2
556.865	557.7
557.268	553.1
557.694	552.3
558.098	552.8
558.502	554.5
558.927	551.2
559.332	555.1
559.736	552.2
560.162	562.9
560.566	552.7
560.992	560.8
561.396	561.5
561.801	549.4
562.227	552
562.631	552.6
563.036	557
563.462	562.8
563.867	556.5
564.272	544.4
564.698	560.3
565.103	544.9
565.508	571.9
565.935	556.5
566.34	555.7
566.745	568.7
567.172	547.7
567.577	583
567.982	561.4
568.409	556.7
568.815	547.1
569.22	554.6
569.626	555.8
570.053	546.3
570.459	555.1
570.865	560.9
571.292	557.3
571.698	559.1
572.104	542.9
572.531	554.2
572.937	562.6
573.343	554.6
573.75	549
574.177	553.8
574.583	563.5
574.99	553.7
575.396	560.3
575.824	555
576.231	555.5
576.637	548.6
577.065	580
577.472	550.3
577.879	550.6
578.286	572.2
578.714	551.1
579.121	550.8
579.528	558.2
579.935	566.6
580.364	551.2
580.771	547.8
581.178	548.7
581.585	554.3
582.014	563.8
582.421	548.8
582.829	550.8
583.236	564.8
583.644	549
584.073	550.3
584.481	555.6
584.889	550
585.296	558.5
585.726	556.9
586.134	545
586.542	549.2
586.95	573.7
587.358	547.1
587.787	552.8
588.196	540.7
588.604	553.7
589.012	557.2
589.421	544.3
589.851	550.3
590.259	558.7
590.668	546.2
591.076	586.3
591.485	545.7
591.894	550.2
592.324	565.9
592.733	567.6
593.142	546.4
593.551	547.5
593.96	558.5
594.369	544.1
594.8	542.3
595.209	551.9
595.618	539.6
596.028	552.3
596.437	544.2
596.847	554.1
597.256	551.3
597.687	555.7
598.097	553.8
598.507	543.9
598.917	554.9
599.327	564
599.736	555
600.146	555
600.556	557.9
600.988	559.4
601.398	549.7
601.808	561.7
602.219	540.5
602.629	552.2
603.039	552.8
603.45	587.2
603.86	555.4
604.271	572.9
604.703	558.6
605.114	553.8
605.525	554.3
605.935	555.8
606.346	576.3
606.757	553.8
607.168	554
607.579	544.6
607.99	565.5
608.402	557.5
608.813	560.8
609.224	549.2
609.636	548.5
610.047	542.9
610.48	559.7
610.892	557.3
611.303	561.2
611.715	557
612.127	547
612.539	549.7
612.95	555.7
613.362	544.1
613.774	549.2
614.186	546.1
614.599	554.2
615.011	560.6
615.423	537
615.835	543.1
616.248	545.5
616.66	558.4
617.073	542.4
617.485	547.2
617.898	558.6
618.311	557.6
618.723	550.2
619.136	577.7
619.549	565
619.962	572.7
620.375	543.8
620.788	555
621.201	544
621.614	556
622.028	550.7
622.441	549.5
622.854	563.8
623.268	547.4
623.681	566
624.095	552.9
624.509	561.1
624.922	556.2
625.336	539.3
625.728	550.4
626.142	564.3
626.556	568.1
626.97	555
627.384	544.9
627.799	551.7
628.213	558.8
628.627	550.6
629.041	546.9
629.456	552
629.87	552.8
630.285	559.5
630.699	565.1
631.093	553.4
631.507	554.6
631.922	553.9
632.337	561.7
632.752	541.8
633.167	558.1
633.582	543.6
633.997	550.2
634.412	547.8
634.806	553.7
635.221	545.6
635.637	560.6
636.052	538.1
636.468	555
636.883	567.1
637.299	547.8
637.715	541.9
638.109	544.7
638.525	538.6
638.941	560.2
639.357	553.2
639.773	556.4
640.189	546.7
640.584	551.3
641	553.4
641.416	541.7
641.832	545.9
642.249	544.6
642.665	549.2
643.06	558.5
643.477	557.4
643.894	540.2
644.31	546.8
644.727	551.7
645.123	549.8
645.54	545.2
645.957	560.6
646.374	554.9
646.77	548.5
647.187	579.7
647.604	550.2
648.021	539.8
648.439	545
648.835	554.8
649.252	551.9
649.67	545.3
650.088	547.9
650.484	549.3
650.902	556.9
651.32	556.2
651.738	547.5
652.134	551.6
652.552	568.4
652.971	558.8
653.389	546.6
653.786	561.1
654.204	552
654.622	543.8
655.019	549.8
655.438	556
655.857	548.1
656.275	554.9
656.673	544.1
657.091	615.9
657.51	547.5
657.908	559.2
658.327	569.2
658.746	538.7
659.144	547.7
659.563	562.1
659.982	557
660.38	544
660.8	557.3
661.219	557.4
661.617	552.5
662.037	551.2
662.457	557.8
662.855	539.2
663.275	580.7
663.695	550.4
664.094	547.5
664.514	548.3
664.934	550
665.333	553.4
665.753	544.7
666.152	548.6
666.572	540.5
666.993	559.3
667.392	549.6
667.812	546.6
668.212	542.3
668.632	559.3
669.053	548.9
669.453	552.1
669.874	549.6
670.273	549.2
670.694	538.8
671.116	561.7
671.515	558.6
671.937	546.5
672.337	544.2
672.758	546.2
673.158	552.5
673.58	544.7
673.98	552.4
674.402	560.4
674.824	545
675.224	548.7
675.646	537.1
676.047	540.8
676.469	548.9
676.869	555.4
677.292	548.4
677.693	546.7
678.115	547.3
678.516	554.4
678.939	558.9
679.34	546.6
679.762	560.3
680.164	556
680.586	541.5
680.988	549.4
681.411	573.8
681.812	547
682.236	540.9
682.637	539.3
683.061	535.8
683.462	552.9
683.864	547.3
684.288	555.3
684.69	540.2
685.114	557.5
685.516	552.4
685.94	541.3
686.342	554.5
686.766	549.8
687.168	548.2
687.571	565.2
687.995	545
688.398	537.2
688.822	550.2
689.225	566.6
689.628	569.2
690.052	550
690.456	552.8
690.88	549.2
691.284	540.4
691.687	555.7
692.112	536.3
692.515	538.6
692.919	550.9
693.344	554.3
693.747	548.3
694.173	545.4
694.577	562.1
694.98	547.1
695.406	540.4
695.81	548.1
696.214	553.8
696.64	550.6
697.044	552.9
697.448	548.7
697.874	542.5
698.279	547.2
698.684	542.8
699.11	540.9
699.514	543.1
699.919	544.4
700.324	541.3
700.75	547.9
701.156	550.8
701.561	559.9
701.987	552.6
702.393	561.1
702.798	563.9
703.203	553.8
703.63	546
704.036	541.8
704.442	554.2
704.847	540.7
705.274	545.2
705.68	552.1
706.086	551.1
706.492	541.9
706.92	550.2
707.326	559.9
707.732	546.5
708.139	540.7
708.545	547.7
708.973	543.5
709.38	544.2
709.786	540.3
710.193	561.9
710.6	549
711.028	548.6
711.435	550.9
711.842	550.1
712.249	543.8
712.656	549.6
713.064	556.8
713.492	536.9
713.9	540.5
714.307	548.7
714.715	546.6
715.123	554.4
715.53	548.1
715.938	557.9
716.367	552.6
716.775	544.8
717.184	539.5
717.592	542.7
718	556.9
718.408	579.5
718.816	588.9
719.225	550.7
719.633	544.6
720.042	540.2
720.472	549.7
720.881	565.3
721.29	552.2
721.699	538.4
722.108	547.3
722.517	549.1
722.926	540.8
723.335	554.4
723.744	543.2
724.154	552.2
724.563	547.7
724.973	547.7
725.382	548.7
725.792	547.6
726.202	540.1
726.612	559.5
727.022	544
727.432	541.1
779.813	543.9
780.223	582.8
780.634	544.2
781.044	539.2
781.454	542.9
781.865	559
782.276	532.9
782.686	551.8
783.097	548.9
783.508	546.4
783.919	550.4
784.33	558.5
784.741	559.7
785.152	544.3
785.563	530
785.974	541.7
786.386	559.9
786.776	543.2
787.188	550.2
787.599	537.8
788.011	550
788.423	551.6
788.835	544.4
789.247	536.5
789.659	543.2
790.071	541.6
790.483	585.5
790.874	541.1
791.286	549.4
791.699	545.6
792.111	545.7
792.524	551.6
792.937	544.3
793.349	534.1
793.741	539.1
794.154	542.8
794.567	560.8
794.98	546.6
795.393	535.3
795.785	562.2
796.198	540.7
796.612	546.8
797.026	544
797.439	530
797.831	541.4
798.245	536.3
798.659	547.9
799.073	542.3
799.487	534.7
799.88	545.7
800.294	538.2
800.708	554.3
801.123	549.9
801.516	562.4
801.93	541.2
802.345	532
802.76	546.5
803.153	554.3
803.568	558.1
803.983	549.4
804.377	548.5
804.792	539.4
805.207	534
805.601	540.8
806.016	573.3
806.432	538.8
806.826	570.9
807.242	555.5
807.658	546.7
808.052	540.7
808.468	541.3
808.884	540.8
809.279	545.3
809.695	554.9
810.111	560.3
810.506	545.2
810.922	565.1
811.339	543.5
811.734	557.5
812.151	538.4
812.546	538.6
812.963	536.1
813.38	556.6
813.776	543.5
814.193	559
814.589	540.4
815.006	541.7
815.402	536.5
815.82	541.2
816.237	542.9
816.633	545.6
817.051	532.4
817.448	545.2
817.866	536.4
818.262	558.9
818.68	541.4
819.077	542.4
819.495	536.9
819.892	583.5
820.311	538.5
820.708	542.3
821.127	544.8
821.524	556.4
821.943	553.4
822.34	562.4
822.759	544.5
823.157	542.4
823.576	553.6
823.974	552.8
824.393	557.6
824.791	536.6
825.189	534.6
825.609	545.9
826.007	544.4
826.427	534.1
826.826	545.4
827.246	549.9
827.644	534.9
828.043	551.9
828.463	540.2
828.862	546.3
829.261	553
829.682	529.4
830.081	548.9
830.502	537.6
830.901	544.7
831.301	537
831.722	530.4
832.121	542.1
832.521	537.3
832.943	540.9
833.342	540.8
833.742	534.4
834.164	537.9
834.564	530.6
834.965	543.1
835.386	541.5
835.787	542.5
836.188	538.2
836.588	544.3
837.01	540.5
837.411	539.6
837.812	547.8
838.213	548.1
838.636	540.8
839.037	604
839.438	546
839.84	545.7
840.263	554
840.664	548.3
841.066	541.6
841.468	544.3
841.891	539.9
842.293	548.6
842.695	548.2
843.098	552.4
843.5	532
843.902	545.8
844.326	541.3
844.729	543.6
845.131	553
845.534	549.5
845.937	555.4
846.34	561.4
846.764	537.7
847.167	548.6
