#lambda/nm	C1
208.295	474.9
208.67	439
209.045	401
209.419	408.6
209.794	574.4
210.169	557.3
210.544	666.9
210.919	569.4
211.295	557.9
211.67	572.9
212.045	566.3
212.421	560.9
212.796	597.3
213.172	562.9
213.547	565.8
213.923	568.4
214.299	565.6
214.675	574.5
215.051	569.1
215.427	569.4
215.803	584.9
216.179	573.7
216.555	559.6
216.932	569.6
217.308	569.6
217.684	564.2
218.061	576.1
218.438	570.5
218.814	566.9
219.191	576.4
219.568	560.6
219.945	565
220.322	575.1
220.699	569.5
221.076	572.4
221.453	571.2
221.83	558.6
222.208	564.2
222.585	566.3
222.962	568.8
223.34	568.7
223.717	563.1
224.095	564.6
224.473	561.8
224.851	557
225.229	557
225.607	576
225.985	554.1
226.363	568.8
226.741	566.2
227.119	562.8
227.497	580.6
227.876	555.6
228.254	567.9
228.633	568.5
229.011	563.5
229.39	572.8
229.769	563.1
230.148	574
230.527	583.3
230.905	568.1
231.284	568.3
231.664	562.1
232.043	576.2
232.422	572.9
232.801	565.6
233.181	572.4
233.56	560.9
233.94	563.7
234.319	559.2
234.699	561.7
235.079	595.4
235.458	599.3
235.838	578.1
236.218	556.9
236.598	552.5
236.978	559.7
237.358	559.6
237.738	565.7
238.119	573.2
238.499	555.9
238.88	558.7
239.26	579
239.641	557.2
240.021	561.1
240.402	565.2
240.783	559.9
241.163	565.5
241.544	565.6
241.925	561.6
242.306	577.4
242.687	562.2
243.069	574
243.45	572.8
243.831	564.2
244.212	565.4
244.594	596.9
244.975	577.6
245.357	568.1
245.739	556.4
246.12	570.5
246.502	577.5
246.884	564.7
247.266	559.7
247.648	571.7
248.03	582.5
248.412	569.6
248.794	570.5
249.176	557.8
249.559	574.7
249.941	557.2
250.323	556.6
250.706	555.5
251.089	565.8
251.471	573.5
251.854	568.2
252.237	562.8
252.62	576.3
253.002	567.1
253.385	569.1
253.769	579.7
254.152	569.3
254.535	576.2
254.918	562.9
255.301	559.6
255.685	562.5
256.068	561.9
256.452	588.1
256.835	567
257.219	572.8
257.603	574.8
257.986	558.1
258.37	572.1
258.754	558.4
259.138	567.1
259.522	567.6
259.906	562
260.29	568.5
260.675	557.3
261.059	570
261.443	563.2
261.828	575.3
262.212	572.9
262.597	562.1
262.981	561.2
263.366	570.4
263.751	564.5
264.136	563.2
264.521	562.2
264.906	558.3
265.291	580.6
265.676	562.5
266.061	576.2
266.446	585.2
266.831	564.2
267.217	577.8
267.602	564.3
267.987	569.7
268.373	564.2
268.759	573.1
269.144	569.8
269.53	560.6
269.916	558.2
270.302	558.7
270.688	571.1
271.074	565.1
271.46	582.2
271.846	591.9
272.232	567.2
272.618	557.8
273.004	568.6
273.391	568.5
273.777	574.9
274.164	566.1
274.55	578.6
274.937	567.8
275.324	567.5
275.71	567.2
276.097	577.4
276.484	559.1
276.871	570.5
277.258	576
277.645	560.9
278.032	565.8
278.419	569.5
278.807	571.5
279.194	564.5
279.581	562.8
279.969	571.1
280.356	562.6
280.744	567
281.131	589.4
281.519	576.4
281.907	564.5
282.295	569
282.682	576
283.07	566.2
283.458	579.1
283.846	575.9
284.235	579
284.623	575.2
285.011	563.4
285.399	565.6
285.788	570.4
286.176	555.7
286.565	578.6
286.953	564.3
287.342	565
287.731	563.8
288.119	563.6
288.508	563.3
288.897	569.7
289.286	558
289.675	568.9
290.064	575.8
290.453	562.8
290.821	566.5
291.21	576.7
291.599	560.3
291.989	570.7
292.378	573.4
292.768	581.7
293.157	567.2
293.547	577.9
293.936	570.8
294.326	561.7
294.716	578.9
295.106	567.4
295.496	576
295.886	574.3
296.276	568.9
296.666	562.3
297.056	564
297.446	563
297.836	578.8
298.227	567.3
298.617	568.1
299.008	577.3
299.398	562.8
299.789	560.5
300.179	570.4
300.57	573.6
300.961	565.7
301.352	562.6
301.742	575.5
302.133	566.1
302.524	568.3
302.915	570.3
303.307	564.3
303.698	573.5
304.089	574.3
304.48	569.7
304.872	570.9
305.263	574.7
305.655	565.5
306.046	570.4
306.438	567.8
306.829	569.8
307.221	584.2
307.613	571.8
308.005	579.7
308.397	581.2
308.789	591.7
309.181	590.7
309.573	582.8
309.965	578.1
310.357	564.7
310.749	569.1
311.142	562.6
311.534	559.4
311.926	575.2
312.319	567.5
312.711	558.2
313.104	574
313.497	565.2
313.889	601.5
314.282	581.4
314.675	591
315.068	570
315.461	572.9
315.854	594.4
316.247	575.1
316.64	568.3
317.033	569.2
317.405	577.7
317.798	570.9
318.192	569.5
318.585	560.2
318.979	569.1
319.372	563
319.766	566.1
320.16	582.1
320.553	584.8
320.947	588.6
321.341	565.4
321.735	572.6
322.129	557.1
322.523	594.8
322.917	558.7
323.311	576.2
323.705	569.6
324.099	572.4
324.494	584.9
324.888	572.9
325.282	564.7
325.677	573.9
326.071	576.7
326.466	577.8
326.861	574.8
327.255	581.8
327.65	586
328.045	584.6
328.44	566.4
328.835	568.6
329.23	564
329.625	589
330.02	569.6
330.415	584.6
330.81	576.6
331.206	576.4
331.601	563.3
331.996	576
332.37	580.4
332.766	563.2
333.161	587.8
333.557	567.4
333.953	566.5
334.348	970.1
334.744	566.6
335.14	567.6
335.536	565.8
335.932	580.3
336.328	569.3
336.724	577
337.12	570
337.516	570
337.913	570.5
338.309	580.4
338.705	570
339.102	577
339.498	564.5
339.895	580.2
340.291	565.8
340.688	576.1
341.085	563.4
341.481	563.7
341.878	568.6
342.275	584.7
342.672	557.3
343.069	561.3
343.466	558.1
343.842	577.2
344.239	559.3
344.636	564.2
345.033	559.4
345.431	561.5
345.828	565.9
346.225	560.7
346.623	573.8
347.02	573.3
347.418	572.8
347.816	580.3
348.213	558.5
348.611	567.7
349.009	560.4
349.407	572.3
349.805	555.2
350.203	557.3
350.601	572.7
350.999	561.6
351.397	558.9
351.795	566.5
352.193	567.8
352.57	571.4
352.969	571.7
353.367	554.4
353.766	557.8
354.164	560.2
354.563	571.9
354.961	560.8
355.36	559.7
355.759	565.6
356.158	554.4
356.557	559.7
356.956	558.3
357.355	550.5
357.754	566.3
358.153	575.7
358.552	587.6
358.951	569.7
359.35	578.4
359.75	562.7
360.149	558.5
360.527	549.4
360.926	554
361.326	559.1
361.726	561.9
362.125	555.7
362.525	567.4
362.925	555.3
363.325	566.4
363.724	560.8
364.124	553.1
364.524	553.3
364.924	562.9
365.324	573.4
365.725	546.7
366.125	557.9
366.525	560.5
366.904	554.9
367.304	543.5
367.705	577.2
368.105	568.7
368.506	560
368.906	562.8
369.307	554.9
369.708	567.9
370.108	554.6
370.509	568.5
370.91	554.9
371.311	557.5
371.712	560.6
372.113	560
372.514	549.9
372.894	557.7
373.295	554.9
373.696	565.4
374.097	566.2
374.499	590.8
374.9	564.1
375.301	556.6
375.703	563.1
376.105	550.7
376.506	566.1
376.908	565
377.309	563.7
377.711	559.5
378.113	558.3
378.493	560.3
378.895	553.4
379.297	567.9
379.699	550.3
380.102	569.2
380.504	562.7
380.906	552.8
381.308	584.9
381.71	555.5
382.113	569.4
382.515	557.5
382.918	562.6
383.299	566.2
383.701	566.7
384.104	562.5
384.507	547
384.909	556.1
385.312	549.1
385.715	549.5
386.118	558.4
386.521	548.4
386.924	567.9
387.327	554.8
387.709	551.1
388.112	545.5
388.515	561.6
388.918	560.7
389.322	565
389.725	551.7
390.129	574.4
390.532	563.3
390.936	562.6
391.339	554.5
391.743	565.1
392.125	555.6
392.529	565.8
392.933	576.1
393.337	565.3
393.74	557.6
394.144	555.8
394.548	555.2
394.953	550.1
395.357	566.6
395.761	556.8
396.144	559.9
396.548	556.4
396.952	557.3
397.357	558.3
397.761	553.2
398.166	552.4
398.57	553
398.975	549.9
399.379	557.5
399.763	606.3
400.168	562.4
400.572	559.8
400.977	553.2
401.382	579.8
401.787	569.1
402.192	575.8
402.597	574.2
403.002	550.3
403.386	572.2
403.791	574.1
404.197	557
404.602	555.2
405.007	553.7
405.413	558.5
405.818	552.1
406.224	552.4
406.608	556.2
407.014	550.5
407.42	574.3
407.825	552.1
408.231	566.1
408.637	560.9
409.043	575.3
409.449	557.6
409.834	552.3
410.24	560.2
410.646	573.7
411.052	568.9
411.458	563.2
411.865	570.9
412.271	569.6
412.677	564
413.062	566.9
413.469	552.6
413.875	585
414.282	574.9
414.689	560.8
415.095	565.9
415.502	557.1
415.888	560
416.294	549.1
416.701	599.9
417.108	554
417.515	570.1
417.923	556.4
418.33	577.7
418.715	565.3
419.123	559.6
419.53	560.6
419.937	557.2
420.345	571.6
420.752	552.2
421.16	575.6
421.546	566.8
421.953	565.7
422.361	553.1
422.769	558
423.177	550.3
423.585	585.2
423.992	574.1
424.379	569.4
424.787	568
425.195	582.3
425.603	557.1
426.011	574
426.419	573.2
426.806	558.6
427.214	565.6
427.623	575.7
428.031	576.4
428.44	563.9
428.848	572.8
429.235	579.8
429.644	560.7
430.053	560.8
430.461	577.4
430.87	583
431.279	577.4
431.666	554.8
432.075	559
432.484	567.6
432.893	559.7
433.302	580.5
433.711	597.6
434.099	568.4
434.508	560.5
434.918	557
435.327	563.8
435.737	562
436.125	565.2
436.534	566
436.944	560.7
437.353	566.1
437.763	579.7
438.173	559.3
438.561	567.3
438.971	545.4
439.381	556.7
439.791	560.2
440.201	542.4
440.589	560.7
440.999	561.9
441.409	562.1
441.819	545.3
442.23	565
442.619	563.8
443.029	554.6
443.439	563.6
443.85	569.5
444.26	575.1
444.649	573
445.06	560.1
445.471	553.3
445.881	558.9
446.292	574.4
446.682	573.3
447.092	546.1
447.503	605.4
447.914	559.5
448.325	555.9
448.715	563.3
449.126	543.9
449.537	557.2
449.948	556.4
450.338	559.7
450.75	564
451.161	551.9
451.572	563.4
451.984	550.5
452.374	547.5
452.786	556.5
453.197	562.2
453.609	562.4
453.999	543.8
454.411	549
454.823	561.5
455.235	561.8
455.647	553.5
456.037	562.2
456.449	540.6
456.862	560.7
457.274	554.8
457.665	545.3
458.077	558.4
458.489	565.3
458.902	551.6
459.293	555.9
459.705	558
460.118	548.4
460.53	554.8
460.921	559.4
461.334	555.8
461.747	561.1
462.16	559
462.551	561.8
462.964	561.9
463.377	540.7
463.79	553.6
464.182	563.7
464.595	548.4
465.008	559
465.421	560.8
465.813	550.2
466.226	562.2
466.64	547
467.053	595
467.445	562
467.859	559.9
468.272	560.9
468.686	565.6
469.078	550.5
469.492	536.7
469.906	555.6
470.298	560.4
470.712	546
471.126	587.6
471.54	547.5
471.933	547.5
472.347	556.7
472.761	551.4
473.175	542.9
473.568	550.7
473.982	545.9
474.397	551
474.79	552.5
475.204	554.7
475.619	556.8
476.033	556.2
476.426	556.1
476.841	544
477.256	573
477.649	547.3
478.064	547.7
478.479	551.6
478.872	550.6
479.287	541.1
479.702	542.2
480.118	550.4
480.511	550.9
480.927	541.7
481.342	544.6
481.736	555
482.151	545.7
482.566	562.3
482.96	557.9
483.376	563.4
483.792	548.5
484.186	552.4
484.602	554.3
485.017	552.7
485.412	556.6
485.827	559.5
486.243	553.5
486.638	580.6
487.054	567.2
487.47	566.1
487.865	552.6
488.281	547.7
488.697	548.1
489.092	550.2
489.508	542
489.925	555.6
490.32	543.5
490.736	555.1
491.153	544.4
491.548	555.5
491.964	560.3
492.381	542.5
492.776	556.9
493.193	549.3
493.61	559.2
494.006	552.3
494.422	554.6
494.84	540.7
495.235	562.1
495.652	549.9
496.069	555.4
496.465	539.8
496.883	551.1
497.3	569.9
497.696	543.5
498.113	561.5
498.509	536.4
498.927	542
499.344	550.4
499.741	548.2
500.158	561.3
500.576	559.7
500.973	554.8
501.39	541.9
501.787	542.8
502.205	551.5
502.623	544.7
503.02	541.4
503.438	548.6
503.856	551.2
504.253	555.1
504.671	550
505.068	544.6
505.486	549.1
505.905	570.9
506.302	556.4
506.72	561.6
507.118	537.7
507.536	550.8
507.955	548.6
508.352	549.9
508.771	552.7
509.169	552.6
509.587	543.3
510.006	548.8
510.404	542.8
510.823	542.6
511.221	545.7
511.64	543
512.038	556.9
512.457	551.7
512.877	542.1
513.275	546.7
513.694	551.1
514.092	545.1
514.512	558.1
514.91	545.7
515.33	551.1
515.749	554.6
516.148	552.5
516.568	552.1
516.966	548.6
517.386	547.4
517.785	545.6
518.205	540.9
518.603	545.7
519.024	545.5
519.444	552.2
519.843	557.3
520.263	554.3
520.662	556.2
521.082	544.4
521.481	551.4
521.902	546.3
522.301	545
522.722	549.5
523.121	548.9
523.542	543
523.963	547.5
524.362	550.4
524.783	549.5
525.183	544.7
525.604	549.4
526.003	542.4
526.425	541.2
526.824	553
527.246	556.1
527.646	555.8
528.067	552.4
528.467	550.5
528.888	551.1
529.289	544.5
529.71	544.3
530.11	546.2
530.532	542
530.932	536.4
531.354	537.2
531.755	568.9
532.176	551.5
532.577	547
532.999	550.6
533.4	546.7
533.822	556.8
534.223	546.5
534.645	541.9
535.046	540.5
535.468	548.5
535.869	558.2
536.292	539.7
536.693	545.1
537.115	549.1
537.516	541.4
537.939	541.9
538.34	560
538.742	556.5
539.165	545.3
539.566	548.9
539.989	541.7
540.391	544.8
540.814	546.1
541.216	548.7
541.639	549.9
542.041	557.2
542.464	540.6
542.866	539.6
543.268	536.6
543.691	549.3
544.093	546
544.517	558.5
544.919	536.1
545.343	562.9
545.745	533.7
546.147	544.6
546.571	542.3
546.974	537.7
547.398	548.8
547.8	554.9
548.224	544.8
548.627	536.4
549.03	552.4
549.454	546.1
549.857	535.4
550.281	543.9
550.684	542.7
551.087	557.6
551.512	546.7
551.915	549.6
552.34	550
552.743	539.7
553.146	542.9
553.571	546.1
553.975	564.5
554.399	540.8
554.803	586.5
555.207	544.7
555.632	539.9
556.036	548.7
556.461	535.1
556.865	548.6
557.268	535.1
557.694	544.8
558.098	547.5
558.502	546
558.927	540.2
559.332	545.8
559.736	545.5
560.162	548.5
560.566	542.2
560.992	547.3
561.396	543.9
561.801	547.6
562.227	548.7
562.631	542.9
563.036	547
563.462	552.5
563.867	544.6
564.272	534
564.698	549
565.103	530.3
565.508	561.6
565.935	547.4
566.34	542.8
566.745	559.4
567.172	543.5
567.577	564.3
567.982	555.9
568.409	545.3
568.815	538.8
569.22	549.1
569.626	554.6
570.053	533.2
570.459	547.8
570.865	552.9
571.292	550.2
571.698	546.8
572.104	536.2
572.531	541.6
572.937	550.4
573.343	546.6
573.75	539.6
574.177	540.8
574.583	550
574.99	548.4
575.396	553.4
575.824	541
576.231	550.2
576.637	540
577.065	565.4
577.472	538.7
577.879	547.7
578.286	560.4
578.714	541.2
579.121	540
579.528	543.3
579.935	551.9
580.364	542.7
580.771	532
581.178	544.2
581.585	547.4
582.014	548.8
582.421	541.9
582.829	540.1
583.236	552.8
583.644	538.7
584.073	543.2
584.481	550
584.889	537.3
585.296	549.5
585.726	544
586.134	536.4
586.542	539.5
586.95	557.1
587.358	538
587.787	545.9
588.196	528
588.604	543.1
589.012	550.6
589.421	532.6
589.851	541.1
590.259	551.1
590.668	540.7
591.076	579.3
591.485	534.5
591.894	540.3
592.324	557.5
592.733	549
593.142	528.4
593.551	552.7
593.96	548.9
594.369	535.1
594.8	535.3
595.209	537.2
595.618	530
596.028	545.8
596.437	536
596.847	544.1
597.256	546.3
597.687	545.6
598.097	542
598.507	536.3
598.917	548.8
599.327	552.2
599.736	542.2
600.146	551.1
600.556	545.6
600.988	559.2
601.398	545
601.808	553.9
602.219	534.5
602.629	544.9
603.039	546.6
603.45	562
603.86	545.5
604.271	551.8
604.703	550.9
605.114	540.3
605.525	549.2
605.935	547.7
606.346	563.9
606.757	542.7
607.168	544.7
607.579	540.4
607.99	549
608.402	546.6
608.813	542.4
609.224	536.7
609.636	532.4
610.047	535.3
610.48	547.6
610.892	551.1
611.303	544.1
611.715	542.8
612.127	536
612.539	543.1
612.95	546.7
613.362	534.8
613.774	530.4
614.186	540.2
614.599	535.2
615.011	547.3
615.423	535.1
615.835	536.8
616.248	531.7
616.66	545.4
617.073	537.9
617.485	538.8
617.898	545.9
618.311	539.5
618.723	541.8
619.136	563.2
619.549	548.7
619.962	559.9
620.375	537.8
620.788	547.5
621.201	532.1
621.614	548.4
622.028	546.1
622.441	546.8
622.854	552.5
623.268	539.9
623.681	548.3
624.095	536.4
624.509	547.7
624.922	545.8
625.336	536.6
625.728	544.1
626.142	547.5
626.556	557.7
626.97	545.3
627.384	534.9
627.799	543.2
628.213	547.8
628.627	541.8
629.041	542.1
629.456	539.5
629.87	542.4
630.285	543.8
630.699	555.8
631.093	537.5
631.507	546.9
631.922	544.6
632.337	555.7
632.752	535.5
633.167	533.1
633.582	534.6
633.997	535.9
634.412	532.3
634.806	543.1
635.221	529.9
635.637	549.5
636.052	528.4
636.468	541.2
636.883	557.3
637.299	538.2
637.715	531
638.109	540.1
638.525	527.9
638.941	549.1
639.357	539.6
639.773	545.7
640.189	536.6
640.584	539.6
641	542.4
641.416	529.3
641.832	532.7
642.249	531.3
642.665	538.2
643.06	546.2
643.477	549.5
643.894	529.9
644.31	540.9
644.727	543.1
645.123	536.4
645.54	531.9
645.957	543.5
646.374	543.3
646.77	536.5
647.187	571.9
647.604	541.6
648.021	525.9
648.439	531
648.835	542.5
649.252	540.9
649.67	537.2
650.088	541.8
650.484	540.8
650.902	543
651.32	543.6
651.738	537.3
652.134	544.8
652.552	554.1
652.971	543.6
653.389	539.5
653.786	556.6
654.204	540.1
654.622	536.7
655.019	544.5
655.438	545
655.857	544.7
656.275	546.5
656.673	537.1
657.091	605.3
657.51	539
657.908	550
658.327	556.6
658.746	533.7
659.144	542.3
659.563	552
659.982	540.2
660.38	535.4
660.8	540.8
661.219	548.7
661.617	546.9
662.037	543.9
662.457	550.5
662.855	530.4
663.275	569.3
663.695	546
664.094	544.5
664.514	546.2
664.934	537.1
665.333	547.8
665.753	539.7
666.152	538.7
666.572	529.7
666.993	559.7
667.392	538.8
667.812	542
668.212	536.8
668.632	552.4
669.053	536.6
669.453	541.8
669.874	542.4
670.273	547.2
670.694	534.6
671.116	545.1
671.515	546
671.937	540
672.337	538.9
672.758	536.4
673.158	545.3
673.58	532.3
673.98	544.5
674.402	551.9
674.824	543
675.224	535.2
675.646	532.9
676.047	542.4
676.469	542.9
676.869	552.2
677.292	546.6
677.693	533.1
678.115	527.8
678.516	546
678.939	541.2
679.34	538.9
679.762	548.1
680.164	542.7
680.586	532.7
680.988	544.3
681.411	553.6
681.812	539.6
682.236	531.3
682.637	531.1
683.061	524.3
683.462	539.5
683.864	531
684.288	540.4
684.69	529
685.114	548
685.516	545.1
685.94	535.4
686.342	547.6
686.766	533.2
687.168	534.5
687.571	556.5
687.995	541.2
688.398	525.3
688.822	536.6
689.225	555.2
689.628	561.2
690.052	541.4
690.456	543
690.88	536.1
691.284	530.1
691.687	543.6
692.112	528.3
692.515	531.7
692.919	543.8
693.344	538.8
693.747	535.6
694.173	537.3
694.577	551.1
694.98	536.6
695.406	530
695.81	546.7
696.214	545.5
696.64	542.7
697.044	537.3
697.448	549
697.874	541.6
698.279	540.2
698.684	528.8
699.11	532.5
699.514	535.9
699.919	537
700.324	535.1
700.75	539.4
701.156	543.1
701.561	547.7
701.987	547.2
702.393	549.1
702.798	544.5
703.203	536.4
703.63	534.2
704.036	537.8
704.442	535.5
704.847	532
705.274	536.3
705.68	545.3
706.086	541
706.492	536.7
706.92	535.8
707.326	545.3
707.732	533.3
708.139	531.1
708.545	531
708.973	538.9
709.38	540
709.786	529.8
710.193	545.9
710.6	537.4
711.028	530.4
711.435	538
711.842	531.5
712.249	528.2
712.656	535.2
713.064	544.1
713.492	530.2
713.9	535.2
714.307	542.3
714.715	537.2
715.123	541.6
715.53	534.9
715.938	547.6
716.367	540.3
716.775	535.4
717.184	532.8
717.592	531.2
718	551.7
718.408	569.4
718.816	575.5
719.225	540.2
719.633	540
720.042	525.4
720.472	535.4
720.881	555.9
721.29	541
721.699	530.3
722.108	540.7
722.517	543.7
722.926	537.5
723.335	547.9
723.744	537.8
724.154	535.6
724.563	537.7
724.973	535.3
725.382	531.9
725.792	537.5
726.202	529.5
726.612	543.8
727.022	538.6
727.432	529
779.813	535.7
780.223	571.2
780.634	530.2
781.044	529.8
781.454	537.8
781.865	551
782.276	526
782.686	547.8
783.097	537.3
783.508	541.6
783.919	542.6
784.33	550.1
784.741	554.4
785.152	527.8
785.563	522.2
785.974	530.2
786.386	545
786.776	532.2
787.188	537.8
787.599	528.7
788.011	536.3
788.423	538.5
788.835	534
789.247	528
789.659	534.8
790.071	532.2
790.483	576.3
790.874	536.1
791.286	540.6
791.699	531.6
792.111	539.8
792.524	543.1
792.937	538
793.349	531.5
793.741	526.1
794.154	532
794.567	547.1
794.98	529
795.393	527.8
795.785	543.5
796.198	525.9
796.612	535.2
797.026	533
797.439	516.3
797.831	529.6
798.245	522.3
798.659	532.6
799.073	532.6
799.487	532.9
799.88	530.8
800.294	533.4
800.708	537
801.123	535.8
801.516	553
801.93	525.3
802.345	521.7
802.76	531.7
803.153	543.4
803.568	542.9
803.983	543.9
804.377	534.9
804.792	527.6
805.207	522.7
805.601	542.8
806.016	565.9
806.432	532.5
806.826	565
807.242	545.3
807.658	539.2
808.052	535.4
808.468	531.1
808.884	527.7
809.279	535.6
809.695	549.1
810.111	556.9
810.506	534.5
810.922	544.4
811.339	532.8
811.734	552.7
812.151	536.2
812.546	531.5
812.963	534.2
813.38	536.5
813.776	534.8
814.193	550.4
814.589	530.5
815.006	534
815.402	527.9
815.82	533.8
816.237	538
816.633	534.6
817.051	529.8
817.448	534.5
817.866	525.7
818.262	552.7
818.68	531.1
819.077	533.4
819.495	536.4
819.892	571.3
820.311	527.8
820.708	536.5
821.127	530.1
821.524	549.2
821.943	538.6
822.34	549.6
822.759	539.5
823.157	533.3
823.576	543
823.974	542.6
824.393	538.2
824.791	531.7
825.189	527.6
825.609	531.1
826.007	535.5
826.427	527.3
826.826	525.6
827.246	535.1
827.644	520.8
828.043	546.8
828.463	527.4
828.862	543.7
829.261	535.1
829.682	523.2
830.081	539.2
830.502	526
830.901	539.7
831.301	529.5
831.722	517.1
832.121	533.3
832.521	532.6
832.943	526.1
833.342	533.8
833.742	531.1
834.164	530.2
834.564	530.5
834.965	529.1
835.386	529.4
835.787	536.8
836.188	533.4
836.588	535.4
837.01	535.5
837.411	525.3
837.812	537.5
838.213	540.5
838.636	529.1
839.037	592.5
839.438	531.6
839.84	537.6
840.263	543.1
840.664	539.3
841.066	534.9
841.468	537.3
841.891	529.3
842.293	545.5
842.695	538.9
843.098	539.6
843.5	533.9
843.902	541.1
844.326	538.6
844.729	536.5
845.131	548.9
845.534	537.2
845.937	542
846.34	546.6
846.764	533
847.167	537.5
847.571	525.5
847.974	529.5
