#lambda/nm	C1
208.295	469
208.67	437.3
209.045	399.2
209.419	406.9
209.794	567.1
210.169	549.8
210.544	655.4
210.919	567.1
211.295	547.8
211.67	564.2
212.045	557.6
212.421	558.6
212.796	587.6
213.172	551.8
213.547	554.3
213.923	554.7
214.299	554.7
214.675	567.5
215.051	567.5
215.427	567.2
215.803	577.6
216.179	564.5
216.555	557.9
216.932	561.9
217.308	560.7
217.684	559.2
218.061	566.1
218.438	559.4
218.814	552.3
219.191	570.7
219.568	551.6
219.945	554
220.322	561.2
220.699	564.4
221.076	568.1
221.453	560.3
221.83	552.4
222.208	556.9
222.585	554.6
222.962	561.5
223.34	562.7
223.717	562.6
224.095	559.4
224.473	560.4
224.851	553.2
225.229	553
225.607	573.7
225.985	548.3
226.363	561.9
226.741	562.2
227.119	560.2
227.497	573.5
227.876	549.3
228.254	566.7
228.633	563.9
229.011	559.2
229.39	568.4
229.769	559.2
230.148	564.5
230.527	572.2
230.905	559.4
231.284	562.6
231.664	552.4
232.043	573.8
232.422	572
232.801	556
233.181	564.3
233.56	553.6
233.94	564.1
234.319	544.9
234.699	559.7
235.079	595.8
235.458	585.2
235.838	584
236.218	559.8
236.598	552.1
236.978	554.3
237.358	554.6
237.738	554.7
238.119	564.3
238.499	551.4
238.88	560.6
239.26	570.6
239.641	547.5
240.021	553.9
240.402	561.8
240.783	557.9
241.163	562
241.544	557.5
241.925	561.2
242.306	573.1
242.687	551.3
243.069	560.8
243.45	569.9
243.831	549.9
244.212	557.3
244.594	591.1
244.975	559.8
245.357	557.6
245.739	557.4
246.12	559.9
246.502	572.3
246.884	551.6
247.266	551
247.648	560.5
248.03	575.8
248.412	562
248.794	562
249.176	555.1
249.559	569.6
249.941	553.7
250.323	553.8
250.706	554.1
251.089	558.7
251.471	562.2
251.854	560.3
252.237	567.7
252.62	567.5
253.002	562.4
253.385	560.9
253.769	571.9
254.152	557.5
254.535	566.5
254.918	550.6
255.301	556.3
255.685	554.5
256.068	550.9
256.452	582.5
256.835	564.3
257.219	564.1
257.603	573.1
257.986	549.7
258.37	567
258.754	549.3
259.138	561.2
259.522	572.2
259.906	559.4
260.29	560
260.675	556.4
261.059	561.4
261.443	551.5
261.828	571
262.212	571.8
262.597	547.6
262.981	552.4
263.366	573.7
263.751	566.2
264.136	557.7
264.521	555.7
264.906	553.7
265.291	569.3
265.676	553
266.061	567.7
266.446	578.7
266.831	559.9
267.217	575.9
267.602	564
267.987	559.7
268.373	556.9
268.759	570.1
269.144	566.8
269.53	559.6
269.916	555.6
270.302	551.9
270.688	563.8
271.074	565.6
271.46	575.5
271.846	588.8
272.232	560.4
272.618	552.7
273.004	558.8
273.391	568.5
273.777	570.6
274.164	564
274.55	573.5
274.937	559.4
275.324	558.7
275.71	570.1
276.097	564.8
276.484	550.1
276.871	562.1
277.258	565.1
277.645	547.8
278.032	559
278.419	556.8
278.807	560.1
279.194	556.3
279.581	549.2
279.969	565.1
280.356	565.6
280.744	560.6
281.131	585.5
281.519	563.6
281.907	558.2
282.295	561.7
282.682	571.2
283.07	564.1
283.458	565.9
283.846	575.6
284.235	570.4
284.623	566.8
285.011	556.5
285.399	564.1
285.788	559.9
286.176	548.5
286.565	568.7
286.953	554
287.342	560.6
287.731	552.1
288.119	550.5
288.508	561.5
288.897	565.9
289.286	553
289.675	565.6
290.064	569.3
290.453	554.5
290.821	559.1
291.21	573.5
291.599	556.1
291.989	559.2
292.378	566.6
292.768	572
293.157	563.8
293.547	561.3
293.936	556.8
294.326	554.6
294.716	561.5
295.106	557.5
295.496	562.2
295.886	565.5
296.276	558.2
296.666	555.4
297.056	555.9
297.446	548.6
297.836	572.9
298.227	558.8
298.617	564.1
299.008	574.7
299.398	559.2
299.789	554
300.179	560.9
300.57	575.1
300.961	557.1
301.352	558.8
301.742	563.5
302.133	558.1
302.524	566
302.915	560.2
303.307	554
303.698	569
304.089	566.7
304.48	562.1
304.872	563.5
305.263	562.2
305.655	558.8
306.046	566.9
306.438	571.4
306.829	556.3
307.221	570.4
307.613	571.8
308.005	567.2
308.397	573.2
308.789	580.7
309.181	587.8
309.573	576.4
309.965	572.2
310.357	558.7
310.749	562.7
311.142	550.7
311.534	555.4
311.926	563.5
312.319	558.9
312.711	551.3
313.104	575
313.497	556.7
313.889	594.4
314.282	580.3
314.675	579.5
315.068	567
315.461	569.7
315.854	592.3
316.247	563.4
316.64	560.1
317.033	566.3
317.405	570.6
317.798	561
318.192	570
318.585	549.3
318.979	572.5
319.372	558.5
319.766	564.7
320.16	571.9
320.553	572.5
320.947	576
321.341	559.7
321.735	564.5
322.129	555.1
322.523	583
322.917	556.7
323.311	571.2
323.705	565.9
324.099	569.8
324.494	577.8
324.888	571.8
325.282	558.2
325.677	564
326.071	570.7
326.466	568.6
326.861	566.3
327.255	569.5
327.65	574
328.045	579.2
328.44	571.6
328.835	565.8
329.23	559.7
329.625	584.4
330.02	556.7
330.415	581.1
330.81	567.2
331.206	567.6
331.601	557.5
331.996	566.2
332.37	571.1
332.766	557.9
333.161	584.3
333.557	559.2
333.953	567.1
334.348	919.7
334.744	560.3
335.14	560.1
335.536	551.7
335.932	575.3
336.328	559.8
336.724	571.6
337.12	560
337.516	571.4
337.913	565.6
338.309	573.4
338.705	555.7
339.102	570.3
339.498	561.5
339.895	574.2
340.291	557.1
340.688	561.8
341.085	553.6
341.481	562.4
341.878	559.7
342.275	581.3
342.672	557.9
343.069	552.5
343.466	551
343.842	569.7
344.239	554
344.636	557.1
345.033	562.5
345.431	553.5
345.828	561.9
346.225	549
346.623	565.8
347.02	559.6
347.418	563.8
347.816	578.8
348.213	557.2
348.611	560.8
349.009	556.1
349.407	572.6
349.805	553.1
350.203	550.6
350.601	574.5
350.999	558.3
351.397	551.2
351.795	553.9
352.193	567.9
352.57	565.7
352.969	564.3
353.367	552.3
353.766	555.7
354.164	555.1
354.563	569.5
354.961	559.3
355.36	555.2
355.759	559.7
356.158	551.4
356.557	552.1
356.956	550.2
357.355	548
357.754	558.7
358.153	563.3
358.552	578.2
358.951	553.2
359.35	570.4
359.75	553.5
360.149	552.6
360.527	547.9
360.926	548.2
361.326	557.3
361.726	555.5
362.125	548.7
362.525	558.7
362.925	556.8
363.325	560.5
363.724	560.6
364.124	553
364.524	545.9
364.924	553.9
365.324	565.8
365.725	541.2
366.125	563.8
366.525	555.6
366.904	551.5
367.304	540.4
367.705	571.7
368.105	566.9
368.506	549.8
368.906	555.3
369.307	555.5
369.708	558.1
370.108	547.4
370.509	567
370.91	549.1
371.311	556.2
371.712	557.9
372.113	557.2
372.514	540.9
372.894	549.9
373.295	547.9
373.696	567
374.097	558.1
374.499	581.9
374.9	558.1
375.301	550.3
375.703	555.4
376.105	554
376.506	555.1
376.908	561.1
377.309	556.7
377.711	555.1
378.113	552.4
378.493	550.6
378.895	548.8
379.297	560.1
379.699	544.7
380.102	561.6
380.504	557.5
380.906	555.1
381.308	571.6
381.71	552.8
382.113	566.5
382.515	553.3
382.918	556.3
383.299	549.8
383.701	562.2
384.104	555.6
384.507	540.5
384.909	551.8
385.312	540.8
385.715	541.9
386.118	549.6
386.521	545.2
386.924	562.5
387.327	548.5
387.709	542.7
388.112	535.8
388.515	550.1
388.918	545.4
389.322	553.7
389.725	550.7
390.129	569.2
390.532	554.5
390.936	548.5
391.339	545.6
391.743	557
392.125	543.3
392.529	560.5
392.933	566
393.337	553.2
393.74	550.9
394.144	550.6
394.548	546.1
394.953	548
395.357	560.7
395.761	555
396.144	553
396.548	552.3
396.952	555
397.357	551.4
397.761	551
398.166	547.5
398.57	553.3
398.975	544.1
399.379	553.1
399.763	599.4
400.168	552.8
400.572	551.3
400.977	549.6
401.382	565.3
401.787	559.8
402.192	569.5
402.597	569.2
403.002	544.2
403.386	567.2
403.791	567.1
404.197	547.3
404.602	556.3
405.007	549.1
405.413	549.9
405.818	547.3
406.224	542.5
406.608	547.7
407.014	544.6
407.42	564.8
407.825	542.8
408.231	559.5
408.637	551.1
409.043	564.6
409.449	548.1
409.834	544.9
410.24	552.5
410.646	564.2
411.052	557
411.458	557.5
411.865	562.1
412.271	566.4
412.677	554.9
413.062	559.3
413.469	545.7
413.875	576.5
414.282	567.7
414.689	560.3
415.095	559
415.502	546
415.888	554.1
416.294	540.3
416.701	587.3
417.108	553.4
417.515	560.3
417.923	554.7
418.33	572.6
418.715	564
419.123	554
419.53	545.5
419.937	556.1
420.345	569
420.752	553.3
421.16	567.9
421.546	549.4
421.953	564.1
422.361	547.4
422.769	559.4
423.177	551.7
423.585	574.5
423.992	575.7
424.379	566.4
424.787	563.7
425.195	576.9
425.603	549.8
426.011	563.5
426.419	566.4
426.806	557.8
427.214	561.3
427.623	565.6
428.031	568.9
428.44	558.9
428.848	570.8
429.235	566.6
429.644	558.6
430.053	552.3
430.461	570.2
430.87	582
431.279	568.2
431.666	551.6
432.075	553.8
432.484	564
432.893	553.9
433.302	568.4
433.711	590.8
434.099	553.4
434.508	549.9
434.918	544.5
435.327	559.4
435.737	561.1
436.125	556.5
436.534	550.6
436.944	559.4
437.353	557.9
437.763	574.4
438.173	546.9
438.561	566.3
438.971	545.6
439.381	552.8
439.791	557.8
440.201	534.9
440.589	558.4
440.999	555.1
441.409	556
441.819	542.5
442.23	560.7
442.619	554.6
443.029	549.4
443.439	555.5
443.85	557.4
444.26	564.6
444.649	551.6
445.06	554.5
445.471	547.1
445.881	554.8
446.292	560.2
446.682	570.4
447.092	537.9
447.503	595.2
447.914	555.3
448.325	551.7
448.715	548.6
449.126	544.7
449.537	551.2
449.948	554.5
450.338	551.3
450.75	560.5
451.161	553.9
451.572	554.8
451.984	551.6
452.374	537.4
452.786	548.9
453.197	548.3
453.609	563.9
453.999	537.4
454.411	544.5
454.823	558.7
455.235	553.1
455.647	546.5
456.037	551.5
456.449	535.4
456.862	552.4
457.274	548.4
457.665	539.6
458.077	556.5
458.489	558.4
458.902	547.8
459.293	547.5
459.705	547.3
460.118	542.6
460.53	547.3
460.921	558.3
461.334	549.5
461.747	549.6
462.16	566.8
462.551	566.1
462.964	553
463.377	539.2
463.79	544.9
464.182	552.6
464.595	540.7
465.008	552.5
465.421	551.6
465.813	546.9
466.226	558.7
466.64	544.5
467.053	589
467.445	557.3
467.859	546.9
468.272	552.6
468.686	559.9
469.078	544.2
469.492	540.8
469.906	547.8
470.298	553.5
470.712	542.5
471.126	572.3
471.54	539
471.933	541.7
472.347	544.3
472.761	547
473.175	543.1
473.568	545.6
473.982	545.6
474.397	547
474.79	547.7
475.204	552.7
475.619	547.8
476.033	551.3
476.426	544.7
476.841	544.9
477.256	565
477.649	540.6
478.064	543.4
478.479	539.6
478.872	543.4
479.287	529.4
479.702	537
480.118	544.9
480.511	535.6
480.927	533.1
481.342	536.1
481.736	548.8
482.151	537.6
482.566	553
482.96	544.2
483.376	554.8
483.792	536.4
484.186	544.1
484.602	546.7
485.017	546.8
485.412	543.4
485.827	553.6
486.243	540.2
486.638	560.8
487.054	548.5
487.47	562.3
487.865	542.5
488.281	542.5
488.697	539
489.092	544.8
489.508	540.8
489.925	549.4
490.32	529.2
490.736	546.7
491.153	550.2
491.548	545.4
491.964	553.1
492.381	528.9
492.776	543.1
493.193	547.3
493.61	554.7
494.006	544.3
494.422	553.9
494.84	538.7
495.235	548.4
495.652	548.2
496.069	549.6
496.465	533.2
496.883	545
497.3	569
497.696	540.1
498.113	549.6
498.509	539.5
498.927	531.7
499.344	540.9
499.741	542.4
500.158	554.3
500.576	549.1
500.973	543.7
501.39	534.9
501.787	534.3
502.205	541.6
502.623	536.1
503.02	535.7
503.438	540.2
503.856	540.9
504.253	543.1
504.671	540
505.068	539.5
505.486	538.2
505.905	559.5
506.302	542.5
506.72	551.8
507.118	539
507.536	543.7
507.955	535.9
508.352	546.2
508.771	545.1
509.169	545
509.587	539.9
510.006	544.9
510.404	536.5
510.823	530.9
511.221	547.2
511.64	541.3
512.038	553.3
512.457	541.5
512.877	543.4
513.275	543.2
513.694	536.7
514.092	540.8
514.512	541.4
514.91	541.3
515.33	541.8
515.749	545.2
516.148	546.7
516.568	543
516.966	542.4
517.386	537.7
517.785	539.1
518.205	543.6
518.603	531.1
519.024	537.5
519.444	539.3
519.843	547.5
520.263	547.2
520.662	544.7
521.082	539
521.481	542.4
521.902	544
522.301	545.6
522.722	542.4
523.121	540.7
523.542	541.2
523.963	542
524.362	544.4
524.783	543
525.183	542.1
525.604	547.4
526.003	538.4
526.425	539.7
526.824	545.9
527.246	549.3
527.646	548.2
528.067	542.2
528.467	544.3
528.888	545.2
529.289	540.6
529.71	540.1
530.11	541.5
530.532	541.7
530.932	540.1
531.354	530.6
531.755	570.5
532.176	543.4
532.577	538.8
532.999	535.7
533.4	539.4
533.822	553.2
534.223	544.1
534.645	533.9
535.046	538.8
535.468	544.6
535.869	551.1
536.292	536.5
536.693	541.7
537.115	544.3
537.516	532.1
537.939	533.9
538.34	554.4
538.742	554.1
539.165	542.6
539.566	543
539.989	533.4
540.391	539.6
540.814	538.4
541.216	542.7
541.639	539.3
542.041	545.9
542.464	537.8
542.866	534.9
543.268	525.7
543.691	545.3
544.093	548.8
544.517	557.7
544.919	531.1
545.343	562.2
545.745	533.6
546.147	543.1
546.571	535.1
546.974	536.2
547.398	538.1
547.8	553.4
548.224	541.7
548.627	534.5
549.03	547.4
549.454	533.9
549.857	538.1
550.281	533.1
550.684	530.9
551.087	548.3
551.512	543.9
551.915	536
552.34	541.7
552.743	540.2
553.146	541.7
553.571	540.3
553.975	554.7
554.399	536
554.803	584.5
555.207	541.4
555.632	528.2
556.036	540.6
556.461	529.2
556.865	542.7
557.268	533.7
557.694	537.6
558.098	543.6
558.502	546.7
558.927	533.8
559.332	541.2
559.736	538.3
560.162	539.4
560.566	545.8
560.992	549.7
561.396	539
561.801	536.1
562.227	542.2
562.631	538.9
563.036	539.1
563.462	547.4
563.867	537.8
564.272	531.9
564.698	540.2
565.103	527.5
565.508	559.5
565.935	542.9
566.34	533.7
566.745	545.2
567.172	537.1
567.577	555.6
567.982	545
568.409	545.5
568.815	532.8
569.22	533.8
569.626	539.3
570.053	529.8
570.459	544.4
570.865	540.9
571.292	544.9
571.698	542.9
572.104	527.8
572.531	536.7
572.937	544.2
573.343	534.9
573.75	532.2
574.177	543
574.583	548.2
574.99	538.4
575.396	539.3
575.824	534.8
576.231	540.1
576.637	533.5
577.065	556.9
577.472	526.6
577.879	532.7
578.286	546.7
578.714	531.7
579.121	533.9
579.528	536.7
579.935	548.8
580.364	531.4
580.771	523.5
581.178	539.6
581.585	539.6
582.014	546.9
582.421	532.6
582.829	538.4
583.236	540.2
583.644	531.2
584.073	535
584.481	535.8
584.889	536.6
585.296	540.1
585.726	534
586.134	531.1
586.542	531.4
586.95	551.1
587.358	526.3
587.787	538.6
588.196	527.6
588.604	538.1
589.012	536.4
589.421	533.1
589.851	529.8
590.259	538.7
590.668	536.2
591.076	567.9
591.485	535.4
591.894	534.9
592.324	547.3
592.733	546.5
593.142	527.8
593.551	531.2
593.96	564.8
594.369	528.5
594.8	527.6
595.209	532.4
595.618	521.2
596.028	534.1
596.437	528.8
596.847	542.4
597.256	538.8
597.687	532.3
598.097	534.4
598.507	522.4
598.917	534.7
599.327	535.5
599.736	536.5
600.146	548.4
600.556	534.7
600.988	551.4
601.398	533.2
601.808	553.9
602.219	527
602.629	537.1
603.039	536
603.45	561.3
603.86	542
604.271	551.2
604.703	538.4
605.114	535.6
605.525	542.3
605.935	545.6
606.346	557.6
606.757	541.5
607.168	536.8
607.579	538.7
607.99	554.9
608.402	535.4
608.813	541.8
609.224	534.7
609.636	528.3
610.047	533.4
610.48	535.7
610.892	544.7
611.303	544.3
611.715	538.1
612.127	529
612.539	535.2
612.95	538.2
613.362	523
613.774	524
614.186	531.9
614.599	530.7
615.011	541.8
615.423	527.4
615.835	536
616.248	527.1
616.66	542.6
617.073	526.4
617.485	531.9
617.898	542.8
618.311	535.5
618.723	533.2
619.136	561.8
619.549	547.3
619.962	556.9
620.375	536.4
620.788	534.4
621.201	534.5
621.614	542.8
622.028	534.1
622.441	543
622.854	547.7
623.268	528.3
623.681	536.9
624.095	537.1
624.509	545.8
624.922	541.8
625.336	523.5
625.728	531.3
626.142	539.9
626.556	550.9
626.97	543.1
627.384	529.9
627.799	538.2
628.213	544.9
628.627	533.9
629.041	531
629.456	533.9
629.87	535.7
630.285	538.8
630.699	545.1
631.093	532.2
631.507	541.5
631.922	542.4
632.337	548.4
632.752	526.1
633.167	534.8
633.582	532
633.997	532.5
634.412	531.7
634.806	537.9
635.221	525.6
635.637	542.5
636.052	525.9
636.468	536.1
636.883	551.6
637.299	530.4
637.715	518.9
638.109	537.8
638.525	520
638.941	543.8
639.357	541.1
639.773	547.4
640.189	525.6
640.584	536.2
641	536.2
641.416	524.1
641.832	534.1
642.249	525.3
642.665	532.1
643.06	530.8
643.477	539.8
643.894	524.8
644.31	531.5
644.727	534.1
645.123	534
645.54	528.6
645.957	532.2
646.374	538.7
646.77	533.4
647.187	565
647.604	540.8
648.021	523.5
648.439	530.2
648.835	539.7
649.252	539.2
649.67	529.8
650.088	530.6
650.484	535.2
650.902	538.2
651.32	543.1
651.738	530
652.134	535.8
652.552	550.3
652.971	538.3
653.389	538.6
653.786	546.3
654.204	536.1
654.622	526.8
655.019	538
655.438	538
655.857	535.8
656.275	536.3
656.673	527.6
657.091	591.9
657.51	536.6
657.908	539.4
658.327	551.8
658.746	526.2
659.144	532.2
659.563	544.1
659.982	535.8
660.38	528.7
660.8	536.8
661.219	546.2
661.617	538.4
662.037	524.2
662.457	543.7
662.855	520.2
663.275	560.4
663.695	536
664.094	535.5
664.514	532.4
664.934	524.8
665.333	539.9
665.753	531.3
666.152	525.9
666.572	532
666.993	545.5
667.392	530.6
667.812	536.1
668.212	531.3
668.632	542.2
669.053	533.3
669.453	538.1
669.874	537.4
670.273	537.6
670.694	530.7
671.116	538.1
671.515	540.8
671.937	531.9
672.337	526.5
672.758	528.1
673.158	540.4
673.58	530.8
673.98	536.8
674.402	542.4
674.824	530.6
675.224	525.3
675.646	527
676.047	524
676.469	536.6
676.869	535.6
677.292	531.4
677.693	526
678.115	531.1
678.516	537.7
678.939	532.6
679.34	529.5
679.762	545.1
680.164	537.1
680.586	525.1
680.988	528.4
681.411	550.2
681.812	527.4
682.236	527.7
682.637	523.1
683.061	520.6
683.462	539
683.864	529.1
684.288	540
684.69	524.6
685.114	543.7
685.516	544.2
685.94	529.1
686.342	542.7
686.766	530.3
687.168	529.1
687.571	547.3
687.995	530.8
688.398	521.6
688.822	530.2
689.225	549.5
689.628	549.9
690.052	530.3
690.456	540.2
690.88	530.5
691.284	520.5
691.687	531.5
692.112	522
692.515	523.7
692.919	533.1
693.344	532
693.747	530.7
694.173	530.2
694.577	545.8
694.98	534.1
695.406	531.3
695.81	532.4
696.214	538.3
696.64	534
697.044	534.7
697.448	535.9
697.874	533.1
698.279	534.6
698.684	525.1
699.11	526.7
699.514	529.4
699.919	529.9
700.324	525
700.75	531.9
701.156	529.8
701.561	541.8
701.987	537.8
702.393	548.9
702.798	542.2
703.203	535.2
703.63	530.9
704.036	530.4
704.442	533.3
704.847	524.5
705.274	532
705.68	537
706.086	544.3
706.492	524.4
706.92	529.2
707.326	536.8
707.732	525.4
708.139	531.1
708.545	522.7
708.973	526.9
709.38	533.8
709.786	523.1
710.193	539.5
710.6	536.1
711.028	524.1
711.435	531.8
711.842	531
712.249	523.8
712.656	529.4
713.064	540.5
713.492	519.8
713.9	530.3
714.307	536.7
714.715	531.9
715.123	538.4
715.53	533.9
715.938	540.1
716.367	533
716.775	535.3
717.184	521.6
717.592	526.5
718	544.3
718.408	562.1
718.816	572
719.225	536.4
719.633	528.7
720.042	524
720.472	531.8
720.881	545.5
721.29	531.8
721.699	524.3
722.108	534.2
722.517	532.2
722.926	529.7
723.335	534.6
723.744	524
724.154	530.2
724.563	530.5
724.973	535.6
725.382	527.7
725.792	531.1
726.202	524.6
726.612	541.5
727.022	534.7
727.432	526
779.813	530.6
780.223	567.6
780.634	530.3
781.044	530.8
781.454	530.9
781.865	539.1
782.276	524.1
782.686	540.8
783.097	533.8
783.508	526.1
783.919	531.5
784.33	536.5
784.741	542.6
785.152	526.9
785.563	518.3
785.974	524.8
786.386	536.6
786.776	529
787.188	531.8
787.599	520
788.011	537
788.423	527.9
788.835	523
789.247	521
789.659	523.4
790.071	525.3
790.483	565.3
790.874	529.3
791.286	533.8
791.699	528.2
792.111	531
792.524	532.8
792.937	532
793.349	522.5
793.741	522.1
794.154	523.5
794.567	547.1
794.98	528
795.393	520.8
795.785	542
796.198	524.8
796.612	528.8
797.026	524
797.439	516.7
797.831	526.2
798.245	517.2
798.659	529.9
799.073	522.1
799.487	521.3
799.88	529.6
800.294	530.4
800.708	533.5
801.123	527.9
801.516	544.3
801.93	518.8
802.345	513.9
802.76	528.6
803.153	538.8
803.568	537.8
803.983	536.2
804.377	528.2
804.792	513.7
805.207	516
805.601	528.6
806.016	557
806.432	526
806.826	565.2
807.242	537.3
807.658	534
808.052	528
808.468	525.4
808.884	523.9
809.279	530
809.695	545.5
810.111	551.8
810.506	529.4
810.922	544.4
811.339	525.9
811.734	532.5
812.151	524.2
812.546	527.3
812.963	528.5
813.38	534.5
813.776	525
814.193	549.5
814.589	525.6
815.006	524.1
815.402	523.3
815.82	527.8
816.237	525.5
816.633	530.8
817.051	517.4
817.448	528.9
817.866	517.7
818.262	544.8
818.68	519.9
819.077	520.2
819.495	525
819.892	559.4
820.311	522.6
820.708	526.6
821.127	521.5
821.524	536.5
821.943	529.4
822.34	541.7
822.759	531.5
823.157	526.5
823.576	537.6
823.974	529.8
824.393	532.9
824.791	516.7
825.189	521.2
825.609	525.1
826.007	527.1
826.427	519
826.826	525.8
827.246	528.7
827.644	514.3
828.043	536.6
828.463	524.2
828.862	535.2
829.261	534.1
829.682	516.8
830.081	533.1
830.502	518.3
830.901	524.5
831.301	524.7
831.722	523.4
832.121	526
832.521	524.6
832.943	521.2
833.342	528.6
833.742	517.1
834.164	525.6
834.564	516.9
834.965	527.2
835.386	525
835.787	525.6
836.188	523.3
836.588	529.6
837.01	523.3
837.411	523.3
837.812	531.6
838.213	528.5
838.636	518.2
839.037	582.6
839.438	526.6
839.84	529.1
840.263	530.9
840.664	528.8
841.066	522.4
841.468	530.1
841.891	521.1
842.293	531.7
842.695	530.1
843.098	535.1
843.5	524.7
843.902	529.4
844.326	528.3
844.729	529.6
845.131	536.1
845.534	525.2
845.937	538.3
846.34	541.7
846.764	523.2
847.167	529
847.571	520.7
