#lambda/nm	C1
208.295	471
208.67	439.9
209.045	401.3
209.419	408.7
209.794	583.5
210.169	565.1
210.544	686
210.919	583.3
211.295	567.9
211.67	584.4
212.045	576.9
212.421	568.7
212.796	611.8
213.172	575.7
213.547	574.1
213.923	575.1
214.299	574.3
214.675	588.9
215.051	579.4
215.427	578.4
215.803	598.3
216.179	586.5
216.555	567.7
216.932	590.8
217.308	578.6
217.684	576.9
218.061	586.6
218.438	582.7
218.814	575.5
219.191	590.9
219.568	572.5
219.945	577.6
220.322	586.1
220.699	580.4
221.076	585.4
221.453	579.4
221.83	568
222.208	575.5
222.585	573.6
222.962	582.2
223.34	585.6
223.717	574.4
224.095	576.9
224.473	585.9
224.851	574.3
225.229	572.7
225.607	596.6
225.985	572.6
226.363	587.7
226.741	577.5
227.119	576.3
227.497	592
227.876	564.7
228.254	583.2
228.633	589.4
229.011	580.8
229.39	588.2
229.769	584.2
230.148	582.7
230.527	598.4
230.905	578.8
231.284	583.3
231.664	569
232.043	586.3
232.422	584.3
232.801	577.3
233.181	583.5
233.56	573
233.94	574.7
234.319	563.2
234.699	573.3
235.079	618.8
235.458	617.5
235.838	594.4
236.218	569.4
236.598	564.5
236.978	567.8
237.358	571.8
237.738	572.3
238.119	578.7
238.499	573.3
238.88	583.2
239.26	588.4
239.641	565.9
240.021	575.8
240.402	580.7
240.783	573.4
241.163	566.8
241.544	576.8
241.925	579.6
242.306	595.2
242.687	572.7
243.069	580.6
243.45	579.2
243.831	574.8
244.212	570.6
244.594	614.5
244.975	589.9
245.357	577.5
245.739	574
246.12	580.6
246.502	591.7
246.884	574.2
247.266	574.7
247.648	580
248.03	602.7
248.412	584.6
248.794	580.6
249.176	578.5
249.559	585
249.941	574.4
250.323	570.1
250.706	577.9
251.089	581.9
251.471	574.4
251.854	579.2
252.237	581.4
252.62	588.6
253.002	574.1
253.385	578.4
253.769	591.9
254.152	578.6
254.535	584.7
254.918	573.7
255.301	579.9
255.685	578.4
256.068	570.1
256.452	594
256.835	583.7
257.219	589.8
257.603	588.1
257.986	576.1
258.37	591.2
258.754	570.3
259.138	588
259.522	590.1
259.906	579.7
260.29	584.6
260.675	572.5
261.059	583.1
261.443	571.9
261.828	582
262.212	585
262.597	564.3
262.981	579.4
263.366	583.3
263.751	580.2
264.136	574.5
264.521	578.1
264.906	570.7
265.291	592.4
265.676	577.6
266.061	584
266.446	596.3
266.831	582.1
267.217	601.2
267.602	584.8
267.987	586
268.373	580
268.759	587.5
269.144	585.8
269.53	580.9
269.916	581.9
270.302	578.1
270.688	582
271.074	580.8
271.46	590.6
271.846	609.4
272.232	578.1
272.618	575.9
273.004	573.5
273.391	585.7
273.777	587.2
274.164	584.1
274.55	595.5
274.937	582.6
275.324	575.7
275.71	581.9
276.097	584.5
276.484	570.9
276.871	578.1
277.258	583.7
277.645	566.3
278.032	584.1
278.419	579
278.807	584.8
279.194	573.7
279.581	576.1
279.969	587.5
280.356	580.7
280.744	577.2
281.131	603.9
281.519	594
281.907	571.7
282.295	577.6
282.682	591.7
283.07	583.1
283.458	582.6
283.846	590.8
284.235	592.8
284.623	584.3
285.011	578.8
285.399	583.5
285.788	583.9
286.176	572.2
286.565	597.3
286.953	573.2
287.342	578.4
287.731	575
288.119	573.7
288.508	579.4
288.897	579.8
289.286	564.5
289.675	583.7
290.064	595.8
290.453	584.8
290.821	576
291.21	596.8
291.599	574.9
291.989	582.2
292.378	589.2
292.768	602.4
293.157	583.4
293.547	587.3
293.936	577.4
294.326	580.1
294.716	584.7
295.106	580.1
295.496	584.4
295.886	593.8
296.276	581.7
296.666	572.8
297.056	571.2
297.446	571.6
297.836	591.2
298.227	580.1
298.617	579.4
299.008	592
299.398	575.2
299.789	578.3
300.179	583.8
300.57	594.7
300.961	575.1
301.352	579.5
301.742	584.5
302.133	582.8
302.524	580.1
302.915	586.8
303.307	574.5
303.698	585.1
304.089	590
304.48	573.9
304.872	582.4
305.263	583.3
305.655	576.4
306.046	583.2
306.438	585
306.829	575.7
307.221	595.6
307.613	588.9
308.005	599.5
308.397	590.8
308.789	603.6
309.181	609.6
309.573	601.7
309.965	592.4
310.357	581.1
310.749	585.2
311.142	574.1
311.534	576
311.926	584.4
312.319	584.6
312.711	578.9
313.104	589.8
313.497	583.6
313.889	616.8
314.282	596
314.675	604.4
315.068	585.4
315.461	593
315.854	609.1
316.247	588.9
316.64	580.2
317.033	584.7
317.405	593.7
317.798	587.2
318.192	582.1
318.585	574.9
318.979	588.6
319.372	570.9
319.766	584
320.16	589.9
320.553	599.6
320.947	601
321.341	579.8
321.735	578.9
322.129	571.9
322.523	603.3
322.917	569.3
323.311	591.5
323.705	579
324.099	582.3
324.494	597.1
324.888	602.8
325.282	580.6
325.677	590.8
326.071	593.1
326.466	592.1
326.861	584.9
327.255	590.6
327.65	594.7
328.045	594.7
328.44	582
328.835	579.2
329.23	569.3
329.625	604.3
330.02	576.6
330.415	602.4
330.81	583.8
331.206	588.8
331.601	576.8
331.996	593.2
332.37	589.4
332.766	567.1
333.161	609.8
333.557	576.9
333.953	580.9
334.348	920.3
334.744	582.2
335.14	572.9
335.536	580.3
335.932	596.6
336.328	583.4
336.724	591.2
337.12	581.5
337.516	591.9
337.913	577.8
338.309	595.4
338.705	576.5
339.102	590.7
339.498	577.1
339.895	597.5
340.291	577.8
340.688	595
341.085	572.8
341.481	575.3
341.878	575.7
342.275	595.8
342.672	571.9
343.069	571.8
343.466	566.7
343.842	589.1
344.239	578.2
344.636	583.5
345.033	569.1
345.431	577.1
345.828	583.1
346.225	573.1
346.623	587.4
347.02	578.3
347.418	581.8
347.816	594.1
348.213	574.7
348.611	586.7
349.009	575.8
349.407	592.4
349.805	569
350.203	570.6
350.601	593.8
350.999	579.7
351.397	572.3
351.795	574.3
352.193	589.2
352.57	586.8
352.969	589
353.367	565.8
353.766	567.7
354.164	571.9
354.563	585.4
354.961	577.1
355.36	569.6
355.759	578.4
356.158	564.4
356.557	570.4
356.956	571.6
357.355	569.1
357.754	583.7
358.153	583.8
358.552	602.4
358.951	576.4
359.35	587.8
359.75	572.4
360.149	564.2
360.527	563.7
360.926	567.6
361.326	576.9
361.726	577.8
362.125	570.3
362.525	585.4
362.925	570.9
363.325	578.2
363.724	575.9
364.124	569.2
364.524	567.5
364.924	575.2
365.324	586.2
365.725	557.1
366.125	578.9
366.525	578.5
366.904	566.2
367.304	565.5
367.705	593.2
368.105	586.1
368.506	573.3
368.906	574.5
369.307	569.3
369.708	578
370.108	562.7
370.509	583.9
370.91	564.5
371.311	572.7
371.712	576.5
372.113	567.3
372.514	567
372.894	570.4
373.295	566.7
373.696	587.3
374.097	583.6
374.499	606.3
374.9	573.2
375.301	567.6
375.703	574.8
376.105	565.7
376.506	575.1
376.908	578.8
377.309	581.4
377.711	575.2
378.113	567.7
378.493	577.7
378.895	570.1
379.297	584.7
379.699	563.3
380.102	579.7
380.504	576.6
380.906	566
381.308	602.1
381.71	570.7
382.113	590.5
382.515	575.4
382.918	574.4
383.299	576.6
383.701	583.8
384.104	579
384.507	560.8
384.909	566.9
385.312	562.8
385.715	565.2
386.118	567.3
386.521	562.2
386.924	582.6
387.327	564.5
387.709	559.2
388.112	551.7
388.515	565.3
388.918	568.8
389.322	576.3
389.725	566.7
390.129	590
390.532	581.7
390.936	567.9
391.339	566.9
391.743	574.6
392.125	566.6
392.529	581.5
392.933	580.3
393.337	574.7
393.74	567.7
394.144	569.7
394.548	565
394.953	574
395.357	581.5
395.761	570
396.144	568.5
396.548	570
396.952	572.9
397.357	570.5
397.761	566.8
398.166	566.8
398.57	571.5
398.975	559
399.379	579.1
399.763	619.6
400.168	572.2
400.572	568.6
400.977	572.6
401.382	591.4
401.787	581
402.192	588
402.597	581.3
403.002	560.9
403.386	581.9
403.791	592.2
404.197	564.6
404.602	577.4
405.007	575.9
405.413	575.3
405.818	569.3
406.224	563
406.608	572.9
407.014	568.1
407.42	590.1
407.825	572.5
408.231	585.7
408.637	571.7
409.043	590.1
409.449	571.5
409.834	572.4
410.24	574.2
410.646	585.8
411.052	580.6
411.458	576.6
411.865	579.3
412.271	578.7
412.677	578.1
413.062	587.2
413.469	567.2
413.875	596
414.282	588.5
414.689	581.8
415.095	576.4
415.502	566.6
415.888	570.7
416.294	562.1
416.701	605.3
417.108	563.5
417.515	584
417.923	575.8
418.33	597.1
418.715	581
419.123	573
419.53	572.1
419.937	578.5
420.345	585.5
420.752	574.3
421.16	587.6
421.546	573
421.953	581.6
422.361	569.2
422.769	572
423.177	566.2
423.585	596.1
423.992	593.3
424.379	587
424.787	585.7
425.195	585.1
425.603	576.5
426.011	582.3
426.419	589.5
426.806	570.1
427.214	578.9
427.623	586.9
428.031	590.3
428.44	576.8
428.848	580.5
429.235	593.1
429.644	575.4
430.053	572
430.461	593.4
430.87	604.1
431.279	584.9
431.666	564.8
432.075	578.8
432.484	579.7
432.893	575.3
433.302	592.6
433.711	611.8
434.099	575.8
434.508	575
434.918	569.6
435.327	578.1
435.737	578.2
436.125	575.2
436.534	570.4
436.944	582.8
437.353	573.4
437.763	593.5
438.173	568.5
438.561	584.9
438.971	554.1
439.381	567.9
439.791	579.7
440.201	554.6
440.589	579.1
440.999	582.6
441.409	572.1
441.819	562.2
442.23	577.8
442.619	575.8
443.029	578
443.439	576.7
443.85	584.6
444.26	589.4
444.649	581.2
445.06	571.8
445.471	566.9
445.881	571.7
446.292	584.8
446.682	588
447.092	559.4
447.503	618.3
447.914	573.4
448.325	566.5
448.715	569.3
449.126	563.2
449.537	568.7
449.948	577.1
450.338	569.7
450.75	577.5
451.161	575.8
451.572	568.9
451.984	565.3
452.374	556.4
452.786	570.3
453.197	577.7
453.609	572
453.999	557
454.411	562.9
454.823	577.1
455.235	569.6
455.647	567
456.037	571.5
456.449	562.1
456.862	574.1
457.274	575.2
457.665	566.5
458.077	575.7
458.489	586.7
458.902	570
459.293	571
459.705	572.7
460.118	562.2
460.53	571.8
460.921	572.5
461.334	577.5
461.747	569.4
462.16	586.1
462.551	578.5
462.964	575.7
463.377	556.3
463.79	565.3
464.182	575.2
464.595	564.1
465.008	571.6
465.421	572.6
465.813	563.2
466.226	568.9
466.64	564.9
467.053	611.7
467.445	579.2
467.859	568.3
468.272	571.1
468.686	579.5
469.078	563.5
469.492	556.6
469.906	573.2
470.298	572.2
470.712	563.6
471.126	594.6
471.54	558
471.933	561.5
472.347	563.4
472.761	561.3
473.175	556.8
473.568	562.1
473.982	557.5
474.397	564.1
474.79	569.9
475.204	569.7
475.619	567.3
476.033	569.6
476.426	568.8
476.841	561.9
477.256	588
477.649	560.1
478.064	555.2
478.479	552.9
478.872	562.9
479.287	552.2
479.702	558.3
480.118	566.2
480.511	560.5
480.927	547.3
481.342	563.4
481.736	569.7
482.151	554.6
482.566	577
482.96	563.2
483.376	570.2
483.792	558.7
484.186	566.6
484.602	561.6
485.017	564.6
485.412	566.1
485.827	569.4
486.243	565.6
486.638	583.3
487.054	570.6
487.47	581.4
487.865	563.6
488.281	556.2
488.697	563.8
489.092	560.4
489.508	550.4
489.925	574.9
490.32	559.4
490.736	566.4
491.153	565.2
491.548	566.8
491.964	581.3
492.381	552.2
492.776	571.8
493.193	567.6
493.61	571
494.006	559.1
494.422	568
494.84	555.9
495.235	574.3
495.652	562.4
496.069	564.5
496.465	554.9
496.883	562.4
497.3	587.8
497.696	557.7
498.113	572.9
498.509	553.3
498.927	551.6
499.344	558.1
499.741	561.4
500.158	571.3
500.576	567.1
500.973	567
501.39	553.5
501.787	557.8
502.205	563
502.623	558.9
503.02	552.5
503.438	560.9
503.856	557.6
504.253	567.4
504.671	562
505.068	556.8
505.486	557.7
505.905	574
506.302	568.7
506.72	571.2
507.118	553.2
507.536	566.1
507.955	563
508.352	561.4
508.771	569.7
509.169	564.8
509.587	559.3
510.006	566.6
510.404	550.4
510.823	551.7
511.221	555.9
511.64	559.5
512.038	571.8
512.457	554
512.877	563.2
513.275	561.9
513.694	558.1
514.092	559.5
514.512	562.8
514.91	555.8
515.33	562.7
515.749	563.4
516.148	568.1
516.568	569.8
516.966	564.8
517.386	562.6
517.785	560.5
518.205	558
518.603	555.4
519.024	557.9
519.444	559
519.843	565.7
520.263	562.2
520.662	569.4
521.082	556.6
521.481	558.6
521.902	559.9
522.301	561.9
522.722	558.3
523.121	557.8
523.542	559.1
523.963	560
524.362	563.5
524.783	562.7
525.183	563.7
525.604	567.1
526.003	551.9
526.425	549.5
526.824	563.7
527.246	572.2
527.646	571.5
528.067	563.7
528.467	560.3
528.888	569.7
529.289	562.2
529.71	552.8
530.11	557.9
530.532	556.5
530.932	548
531.354	555.7
531.755	589.7
532.176	565.4
532.577	559.2
532.999	560.5
533.4	557.6
533.822	567.2
534.223	553.5
534.645	555
535.046	561.7
535.468	564.2
535.869	570.3
536.292	556.9
536.693	560.7
537.115	557.9
537.516	557.6
537.939	551.9
538.34	578.1
538.742	571.2
539.165	560.2
539.566	562
539.989	551.2
540.391	555.3
540.814	557.5
541.216	560
541.639	557.2
542.041	568.3
542.464	555.4
542.866	554.6
543.268	547.1
543.691	563.4
544.093	561.3
544.517	574.7
544.919	551.7
545.343	579.9
545.745	550.3
546.147	562.5
546.571	553.3
546.974	556
547.398	562
547.8	572.6
548.224	561
548.627	548.6
549.03	562.9
549.454	557.4
549.857	548.9
550.281	555.6
550.684	553.5
551.087	569.7
551.512	563.7
551.915	563.7
552.34	561.9
552.743	553.9
553.146	562.3
553.571	556.1
553.975	577.2
554.399	555.6
554.803	602.3
555.207	554.9
555.632	555.1
556.036	568.7
556.461	550.8
556.865	560.9
557.268	546.6
557.694	551.9
558.098	559.7
558.502	559.4
558.927	554.4
559.332	554.1
559.736	559.5
560.162	562
560.566	556.3
560.992	564.8
561.396	561
561.801	560.5
562.227	559.4
562.631	563.2
563.036	559
563.462	566.6
563.867	558.4
564.272	551.6
564.698	564.8
565.103	554.2
565.508	576.6
565.935	560.2
566.34	556.5
566.745	568.6
567.172	552.9
567.577	580.6
567.982	569.2
568.409	557.4
568.815	545.8
569.22	561.6
569.626	571.5
570.053	551.8
570.459	567.3
570.865	565.2
571.292	562.8
571.698	560.4
572.104	541.6
572.531	559.2
572.937	562
573.343	553.7
573.75	552.6
574.177	557.9
574.583	563.1
574.99	555.6
575.396	558.1
575.824	553.7
576.231	559
576.637	557.6
577.065	579.9
577.472	558.6
577.879	553.5
578.286	568.6
578.714	550.1
579.121	551.5
579.528	564
579.935	563.9
580.364	550.9
580.771	542.8
581.178	546.3
581.585	556.5
582.014	561.3
582.421	548.1
582.829	552.9
583.236	567.9
583.644	551.1
584.073	547.6
584.481	556.2
584.889	551.2
585.296	565.6
585.726	557.2
586.134	550.9
586.542	549.2
586.95	573.5
587.358	554
587.787	554.1
588.196	545.7
588.604	556.5
589.012	553.5
589.421	546.3
589.851	548.6
590.259	558.6
590.668	552.7
591.076	595.4
591.485	545.4
591.894	554.6
592.324	573.3
592.733	568.2
593.142	543
593.551	557.1
593.96	586.5
594.369	547.2
594.8	547.8
595.209	554.9
595.618	543
596.028	550.3
596.437	544
596.847	554.8
597.256	560.7
597.687	553.8
598.097	551.9
598.507	548.6
598.917	558.3
599.327	561.9
599.736	554.1
600.146	564.8
600.556	556.1
600.988	570.4
601.398	548.1
601.808	564.1
602.219	542.4
602.629	558.1
603.039	559.4
603.45	580.4
603.86	553.1
604.271	571.4
604.703	558.5
605.114	552.7
605.525	552.2
605.935	563
606.346	581.9
606.757	561.1
607.168	557.1
607.579	554.9
607.99	563.9
608.402	553.1
608.813	560.8
609.224	553.1
609.636	548.6
610.047	552.6
610.48	556.6
610.892	569.2
611.303	569.5
611.715	554.1
612.127	547.1
612.539	547.7
612.95	560.3
613.362	547.2
613.774	548.5
614.186	553
614.599	549.3
615.011	561
615.423	544.9
615.835	550.4
616.248	544.4
616.66	558.7
617.073	544.6
617.485	540.5
617.898	560.3
618.311	557.7
618.723	552.8
619.136	583.6
619.549	570.1
619.962	573.2
620.375	548
620.788	553
621.201	545.9
621.614	560.8
622.028	558.4
622.441	561.9
622.854	571.8
623.268	542.3
623.681	559.2
624.095	550.9
624.509	559.9
624.922	560.5
625.336	541.3
625.728	554.4
626.142	565.4
626.556	566.1
626.97	561.8
627.384	553.1
627.799	554.9
628.213	561.8
628.627	551.2
629.041	555.8
629.456	550.7
629.87	553
630.285	561.7
630.699	565.4
631.093	547.5
631.507	563.9
631.922	554.3
632.337	559.3
632.752	544.1
633.167	556.6
633.582	546.8
633.997	546.9
634.412	543.1
634.806	551.8
635.221	545.4
635.637	565.4
636.052	541.7
636.468	560.6
636.883	571.2
637.299	547.4
637.715	540.9
638.109	549.7
638.525	541.7
638.941	567.4
639.357	564.2
639.773	558.7
640.189	544
640.584	550.5
641	559.3
641.416	548.9
641.832	552.2
642.249	548.2
642.665	553.1
643.06	554.5
643.477	562.3
643.894	545.4
644.31	547.5
644.727	549.6
645.123	554.2
645.54	543.5
645.957	555.5
646.374	559.4
646.77	551.3
647.187	581
647.604	558.2
648.021	537.5
648.439	548.4
648.835	556
649.252	555.2
649.67	556.2
650.088	553.2
650.484	557.4
650.902	560.3
651.32	556.9
651.738	550.1
652.134	559.7
652.552	572.9
652.971	560
653.389	554.1
653.786	566.8
654.204	552.8
654.622	544.3
655.019	551.9
655.438	558.1
655.857	549.7
656.275	555.2
656.673	543.2
657.091	619.9
657.51	550.1
657.908	561.9
658.327	566.3
658.746	542.9
659.144	550.8
659.563	569.9
659.982	554
660.38	546.1
660.8	554.5
661.219	570.6
661.617	556.1
662.037	557.2
662.457	562.5
662.855	539.6
663.275	572.7
663.695	555.2
664.094	557
664.514	558.5
664.934	549.2
665.333	562.7
665.753	552.9
666.152	543.1
666.572	550.4
666.993	562.5
667.392	553.9
667.812	550.4
668.212	546.6
668.632	559.7
669.053	551.4
669.453	551.4
669.874	552.1
670.273	554
670.694	548.4
671.116	559.4
671.515	558.4
671.937	550.2
672.337	547.6
672.758	553.3
673.158	560.8
673.58	539.2
673.98	555.1
674.402	560.1
674.824	553.4
675.224	541.5
675.646	537.1
676.047	542.1
676.469	551.9
676.869	554.6
677.292	554.6
677.693	544
678.115	539.5
678.516	554.7
678.939	550.5
679.34	549.4
679.762	564.2
680.164	555.3
680.586	545.9
680.988	554.7
681.411	571.8
681.812	540.4
682.236	548.1
682.637	549.4
683.061	541
683.462	553.2
683.864	552.1
684.288	554.7
684.69	551.9
685.114	563.1
685.516	558.9
685.94	538.2
686.342	562.1
686.766	547
687.168	548.3
687.571	569.6
687.995	546.4
688.398	544.1
688.822	550.8
689.225	574.2
689.628	568.5
690.052	553.5
690.456	555.5
690.88	552.8
691.284	546.6
691.687	554.6
692.112	538.2
692.515	549.2
692.919	553.8
693.344	557.5
693.747	548.7
694.173	546.8
694.577	561
694.98	554.6
695.406	554.5
695.81	554.6
696.214	552.8
696.64	555.8
697.044	553.4
697.448	558
697.874	551.6
698.279	554.4
698.684	544.1
699.11	545.6
699.514	552.6
699.919	549.7
700.324	538.2
700.75	551.1
701.156	549.5
701.561	558.7
701.987	553
702.393	563.4
702.798	557.7
703.203	548.9
703.63	541.4
704.036	548.9
704.442	555.8
704.847	544.3
705.274	548.9
705.68	555.8
706.086	556.6
706.492	538.1
706.92	551.8
707.326	553.4
707.732	546.1
708.139	543.4
708.545	548.3
708.973	546.9
709.38	542.8
709.786	540.6
710.193	574
710.6	549.4
711.028	546.9
711.435	548.6
711.842	552.5
712.249	543.8
712.656	546.8
713.064	553.1
713.492	542
713.9	548.6
714.307	554.4
714.715	548.1
715.123	551.1
715.53	551.5
715.938	557.6
716.367	552.1
716.775	547.6
717.184	536.5
717.592	551.6
718	561.9
718.408	584.4
718.816	586.8
719.225	553
719.633	551.1
720.042	540.3
720.472	546
720.881	570
721.29	554
721.699	545.6
722.108	552.4
722.517	550.2
722.926	547.9
723.335	561.3
723.744	546.2
724.154	546.5
724.563	552.9
724.973	554
725.382	544.9
725.792	543.4
726.202	542.7
726.612	560.6
727.022	552.3
727.432	544.4
779.813	547
780.223	597.2
780.634	548.7
781.044	548.3
781.454	553
781.865	555.5
782.276	541.6
782.686	559
783.097	551.7
783.508	542.6
783.919	554
784.33	559.7
784.741	557.9
785.152	545.9
785.563	537.2
785.974	548
786.386	560.8
786.776	541.5
787.188	546.5
787.599	536.8
788.011	553
788.423	547.9
788.835	545.8
789.247	546.7
789.659	541.5
790.071	544
790.483	590.8
790.874	547.8
791.286	555.4
791.699	548.6
792.111	549.6
792.524	547.6
792.937	551.1
793.349	541.7
793.741	544.2
794.154	548.5
794.567	567.4
794.98	546.2
795.393	535.9
795.785	561.5
796.198	541
796.612	548.4
797.026	544
797.439	531.1
797.831	550
798.245	538.6
798.659	546.9
799.073	547.1
799.487	543.1
799.88	547
800.294	543.3
800.708	549.1
801.123	547.3
801.516	565.4
801.93	533.5
802.345	535.3
802.76	543.9
803.153	555.8
803.568	561.9
803.983	555.4
804.377	550.8
804.792	538.6
805.207	533.6
805.601	545.6
806.016	580.7
806.432	542.9
806.826	583
807.242	559.7
807.658	548.6
808.052	543.8
808.468	548.8
808.884	545
809.279	549.4
809.695	559.5
810.111	568
810.506	552.4
810.922	567.7
811.339	546.5
811.734	554.5
812.151	544.5
812.546	542.3
812.963	538.9
813.38	548.3
813.776	551.7
814.193	562.2
814.589	540.3
815.006	542.9
815.402	541.8
815.82	540
816.237	545.9
816.633	547
817.051	540.7
817.448	545.9
817.866	534.7
818.262	562.5
818.68	538.4
819.077	539.6
819.495	547.1
819.892	580.2
820.311	539.4
820.708	545.5
821.127	542.9
821.524	554.6
821.943	546.7
822.34	561.1
822.759	546.3
823.157	543.9
823.576	556.9
823.974	554.8
824.393	554.7
824.791	539.1
825.189	536.9
825.609	539
826.007	544.3
826.427	533.3
826.826	542.5
827.246	545
827.644	532.5
828.043	555.8
828.463	541.6
828.862	553.5
829.261	550.6
829.682	534.1
830.081	551.7
830.502	542.1
830.901	545.1
831.301	539
831.722	541.1
832.121	541.1
832.521	541.8
832.943	545.7
833.342	545.5
833.742	541.2
834.164	544.4
834.564	534.2
834.965	545.3
835.386	544.7
835.787	542
836.188	547.8
836.588	551
837.01	545.4
837.411	535.4
837.812	553.7
838.213	548.7
838.636	542.9
839.037	611.2
839.438	547.7
839.84	548.1
840.263	558.1
840.664	550
841.066	543.2
841.468	547.1
841.891	542.8
842.293	554.5
842.695	550.6
843.098	558.8
843.5	545.3
843.902	551.5
844.326	549.7
844.729	550.9
845.131	557.6
845.534	548.9
845.937	550.7
846.34	563.5
846.764	540.5
847.167	549.4
847.571	535.1
