#lambda/nm	C1
208.295	470.6
208.67	438.2
209.045	401.6
209.419	406
209.794	582.1
210.169	561.5
210.544	678.6
210.919	579.7
211.295	563.6
211.67	577.3
212.045	571.9
212.421	573.7
212.796	607.8
213.172	571.4
213.547	571.6
213.923	571.3
214.299	570.4
214.675	586.4
215.051	584.2
215.427	581.5
215.803	590.6
216.179	581.6
216.555	565.9
216.932	579.6
217.308	580.3
217.684	572
218.061	578.8
218.438	576.2
218.814	573.6
219.191	579.1
219.568	568.5
219.945	571
220.322	580.5
220.699	574.2
221.076	579.4
221.453	578.5
221.83	567.6
222.208	571.1
222.585	573.6
222.962	573.5
223.34	572.8
223.717	577.8
224.095	568
224.473	578.3
224.851	564.2
225.229	561.5
225.607	585.5
225.985	566.8
226.363	573.6
226.741	574
227.119	573.6
227.497	582.5
227.876	560.6
228.254	581.5
228.633	577.1
229.011	573.7
229.39	576.2
229.769	576.8
230.148	581.1
230.527	594.6
230.905	580.3
231.284	574.5
231.664	570.4
232.043	588.7
232.422	582.9
232.801	569.4
233.181	577.2
233.56	569
233.94	575.6
234.319	564.2
234.699	570.6
235.079	613.2
235.458	611.7
235.838	593.1
236.218	572.2
236.598	567.6
236.978	570.6
237.358	571.5
237.738	568.9
238.119	579.7
238.499	567.4
238.88	573.1
239.26	590.1
239.641	561.6
240.021	570.6
240.402	570.8
240.783	565.1
241.163	569.8
241.544	570.2
241.925	577.7
242.306	587.1
242.687	569.4
243.069	569.6
243.45	580.4
243.831	566.4
244.212	573.5
244.594	603.9
244.975	576.9
245.357	582
245.739	561
246.12	578.2
246.502	587.1
246.884	571.8
247.266	566.6
247.648	573.4
248.03	596.3
248.412	575.2
248.794	576.2
249.176	572.2
249.559	581.4
249.941	564.6
250.323	563
250.706	568.6
251.089	569.3
251.471	574.6
251.854	576.2
252.237	572.8
252.62	577.5
253.002	575.2
253.385	574.9
253.769	583.9
254.152	576.2
254.535	579.1
254.918	566.9
255.301	570.9
255.685	570.1
256.068	567.2
256.452	594.1
256.835	585.2
257.219	581
257.603	586.4
257.986	569.2
258.37	581
258.754	567
259.138	581.4
259.522	586.6
259.906	569.5
260.29	575.4
260.675	574.9
261.059	580.2
261.443	569
261.828	577.8
262.212	581.2
262.597	566.9
262.981	569.6
263.366	581.1
263.751	576.5
264.136	569.4
264.521	573.6
264.906	562.8
265.291	588.8
265.676	569
266.061	581.5
266.446	586.1
266.831	581.8
267.217	593
267.602	576.3
267.987	578.3
268.373	571.9
268.759	584.5
269.144	585.6
269.53	575.5
269.916	575.2
270.302	568.9
270.688	574.6
271.074	580.2
271.46	586.8
271.846	600.1
272.232	577.1
272.618	573
273.004	577.9
273.391	584
273.777	585.2
274.164	574.7
274.55	593.6
274.937	572.8
275.324	569.1
275.71	583.9
276.097	580.3
276.484	567.9
276.871	575
277.258	583.6
277.645	562.9
278.032	576.6
278.419	574.4
278.807	580
279.194	565.7
279.581	571.3
279.969	585.4
280.356	576.4
280.744	583.4
281.131	600.8
281.519	580.5
281.907	567.5
282.295	579.7
282.682	583.9
283.07	579.8
283.458	584.2
283.846	587.1
284.235	590.4
284.623	583.4
285.011	567.8
285.399	576.6
285.788	571.9
286.176	564
286.565	587.5
286.953	571.9
287.342	574.4
287.731	570.8
288.119	571.1
288.508	574.7
288.897	573.7
289.286	566.7
289.675	572.4
290.064	581.3
290.453	571.8
290.821	572.3
291.21	590.6
291.599	568.4
291.989	575.8
292.378	585.5
292.768	591.6
293.157	577.3
293.547	588.6
293.936	567.1
294.326	571.7
294.716	580.7
295.106	573.9
295.496	581.9
295.886	584.7
296.276	572.7
296.666	577.8
297.056	567.4
297.446	566.5
297.836	589.1
298.227	576.7
298.617	571.7
299.008	584.4
299.398	571.4
299.789	575.6
300.179	580.6
300.57	594.3
300.961	569.5
301.352	571.2
301.742	582.7
302.133	572.2
302.524	574.8
302.915	582.7
303.307	567
303.698	580.1
304.089	583.5
304.48	570.9
304.872	585.3
305.263	580
305.655	569.9
306.046	580.2
306.438	576.3
306.829	570.4
307.221	586.9
307.613	592.2
308.005	590.4
308.397	591.2
308.789	596.9
309.181	605.1
309.573	591.9
309.965	587.8
310.357	576.7
310.749	584
311.142	572.3
311.534	576.4
311.926	584.6
312.319	579.2
312.711	570.1
313.104	587.7
313.497	577
313.889	614.5
314.282	598.1
314.675	604.7
315.068	581.6
315.461	583.3
315.854	603.4
316.247	580.2
316.64	578.1
317.033	576.6
317.405	585.2
317.798	577.9
318.192	580.1
318.585	571.4
318.979	582.8
319.372	569.9
319.766	581.1
320.16	588
320.553	592.6
320.947	593.7
321.341	581.9
321.735	576.6
322.129	566.1
322.523	601.9
322.917	567.6
323.311	587.1
323.705	577.4
324.099	580.4
324.494	594.1
324.888	589.2
325.282	572.4
325.677	585.1
326.071	585.1
326.466	586.3
326.861	584.3
327.255	584.8
327.65	586.5
328.045	593.9
328.44	580.2
328.835	573.4
329.23	574
329.625	603.9
330.02	571
330.415	602.4
330.81	582.7
331.206	580
331.601	566.5
331.996	581.7
332.37	589
332.766	570.5
333.161	594
333.557	567.9
333.953	571.8
334.348	995.1
334.744	574.9
335.14	570.1
335.536	572.8
335.932	582.5
336.328	573.8
336.724	581.3
337.12	572.3
337.516	580.5
337.913	568.7
338.309	586.8
338.705	579.7
339.102	585.3
339.498	571.1
339.895	586.6
340.291	571.5
340.688	587.8
341.085	571.8
341.481	571.1
341.878	573.8
342.275	602.7
342.672	566.5
343.069	568.5
343.466	564.6
343.842	583.9
344.239	565.4
344.636	569.4
345.033	560.9
345.431	569.1
345.828	575.5
346.225	570.1
346.623	586.8
347.02	571.6
347.418	581.4
347.816	581.5
348.213	563.6
348.611	573.1
349.009	565.8
349.407	583.8
349.805	572
350.203	567.5
350.601	582.1
350.999	566.5
351.397	564.5
351.795	578.5
352.193	583.4
352.57	582.5
352.969	587.6
353.367	564.7
353.766	566.2
354.164	574.2
354.563	584.2
354.961	574.4
355.36	567.5
355.759	582.4
356.158	564.8
356.557	568.1
356.956	564.2
357.355	562
357.754	576.8
358.153	580.4
358.552	595.6
358.951	573
359.35	583.3
359.75	565.8
360.149	562.3
360.527	555.7
360.926	562.5
361.326	571.9
361.726	567.2
362.125	565.3
362.525	573.6
362.925	565.6
363.325	567.6
363.724	574
364.124	564.2
364.524	561.9
364.924	575.3
365.324	580.7
365.725	552.5
366.125	578.7
366.525	570.6
366.904	567.6
367.304	548.3
367.705	590.1
368.105	575.8
368.506	567.5
368.906	568.2
369.307	571.8
369.708	575.2
370.108	557.8
370.509	575
370.91	563
371.311	571.4
371.712	572.9
372.113	565
372.514	561.6
372.894	570.7
373.295	564.3
373.696	578.1
374.097	578.7
374.499	595.4
374.9	575.1
375.301	566
375.703	577.2
376.105	561
376.506	574.9
376.908	578.3
377.309	574.7
377.711	572.3
378.113	567.8
378.493	573.6
378.895	566
379.297	578.6
379.699	558
380.102	571.2
380.504	573.9
380.906	568
381.308	589.1
381.71	565.9
382.113	577.4
382.515	567.8
382.918	573.2
383.299	567.2
383.701	578.5
384.104	567.1
384.507	554.2
384.909	561.2
385.312	557.1
385.715	556.5
386.118	566.9
386.521	551.2
386.924	579
387.327	564.7
387.709	549.5
388.112	556.3
388.515	559.6
388.918	564.3
389.322	573.4
389.725	560.9
390.129	584.8
390.532	573.2
390.936	561.9
391.339	566.8
391.743	572.6
392.125	561.1
392.529	575.1
392.933	577.9
393.337	566.3
393.74	564.2
394.144	568
394.548	561.9
394.953	562.1
395.357	567.6
395.761	563.8
396.144	566.8
396.548	569.9
396.952	565.1
397.357	569.1
397.761	560.9
398.166	555.5
398.57	565.4
398.975	553
399.379	569.8
399.763	615.5
400.168	568
400.572	573.1
400.977	560.5
401.382	584.3
401.787	578.6
402.192	586
402.597	583.4
403.002	555.8
403.386	578.7
403.791	585.5
404.197	563.2
404.602	569.4
405.007	568.2
405.413	566.2
405.818	562.2
406.224	562.8
406.608	556.9
407.014	561.8
407.42	589.3
407.825	560
408.231	579.4
408.637	569.2
409.043	585.4
409.449	560.6
409.834	561.3
410.24	567.5
410.646	575.7
411.052	572.5
411.458	572.5
411.865	572.1
412.271	573.1
412.677	564.2
413.062	571.5
413.469	562.8
413.875	593.8
414.282	579.3
414.689	574.9
415.095	579.1
415.502	563.3
415.888	570.8
416.294	553.9
416.701	603.6
417.108	564.4
417.515	576.9
417.923	562.4
418.33	590.3
418.715	577.9
419.123	562.4
419.53	564.5
419.937	567
420.345	584.8
420.752	568.1
421.16	586
421.546	567.2
421.953	579.6
422.361	560.3
422.769	568.5
423.177	563.2
423.585	593
423.992	589.8
424.379	578.7
424.787	583.3
425.195	593.1
425.603	571.5
426.011	586
426.419	587.2
426.806	571.5
427.214	576.3
427.623	579.3
428.031	585.5
428.44	565.9
428.848	582.2
429.235	590.1
429.644	568.6
430.053	568.6
430.461	582.4
430.87	595
431.279	576.7
431.666	560.9
432.075	573.4
432.484	576.1
432.893	567.6
433.302	585.2
433.711	606.2
434.099	580.1
434.508	565
434.918	565.7
435.327	573.7
435.737	574.5
436.125	571.2
436.534	570.5
436.944	568.5
437.353	574.4
437.763	592.6
438.173	562.9
438.561	577.6
438.971	555.2
439.381	569.3
439.791	569.7
440.201	547.2
440.589	566.7
440.999	569.4
441.409	566.4
441.819	557.8
442.23	575.8
442.619	568.7
443.029	565.6
443.439	567
443.85	569
444.26	576.8
444.649	577.4
445.06	569.9
445.471	556.9
445.881	565.9
446.292	582.3
446.682	586.2
447.092	554.9
447.503	612
447.914	568.3
448.325	563
448.715	565.4
449.126	556.6
449.537	566.8
449.948	564.1
450.338	568.8
450.75	574
451.161	569.4
451.572	576.6
451.984	556.6
452.374	554.8
452.786	565.3
453.197	566.6
453.609	573.5
453.999	553
454.411	556.9
454.823	574.7
455.235	569.7
455.647	559.2
456.037	569.8
456.449	550.3
456.862	565.1
457.274	568.5
457.665	558.5
458.077	575.4
458.489	574.7
458.902	560.5
459.293	563.2
459.705	561.6
460.118	555.5
460.53	565.8
460.921	567.2
461.334	566.8
461.747	565.2
462.16	572.3
462.551	579.5
462.964	571.4
463.377	556.2
463.79	558.1
464.182	574.8
464.595	557.4
465.008	572.7
465.421	565.4
465.813	563.7
466.226	571.6
466.64	558.8
467.053	604.9
467.445	572.6
467.859	566
468.272	564.5
468.686	581.7
469.078	560
469.492	546.5
469.906	568.5
470.298	566.7
470.712	554.2
471.126	592.1
471.54	551.9
471.933	552.5
472.347	562
472.761	555
473.175	549.6
473.568	558.2
473.982	553.2
474.397	559.8
474.79	565.6
475.204	565.8
475.619	558.9
476.033	565.8
476.426	554.7
476.841	561
477.256	583.4
477.649	554.4
478.064	556.9
478.479	558.8
478.872	560.6
479.287	550.2
479.702	553.5
480.118	559.1
480.511	559.2
480.927	547.1
481.342	558.1
481.736	561.7
482.151	556.1
482.566	565.9
482.96	558
483.376	568.5
483.792	554
484.186	562.1
484.602	554.8
485.017	557.4
485.412	558.1
485.827	561.8
486.243	560.1
486.638	581.4
487.054	568.2
487.47	578.3
487.865	558.1
488.281	554.1
488.697	554.8
489.092	556.3
489.508	547.8
489.925	567.8
490.32	551
490.736	563.5
491.153	561
491.548	564.2
491.964	565.8
492.381	547.4
492.776	561.1
493.193	556.7
493.61	564
494.006	557.6
494.422	563.6
494.84	554.6
495.235	571
495.652	554.3
496.069	567
496.465	548
496.883	561.9
497.3	581.9
497.696	554.6
498.113	566.6
498.509	549.1
498.927	550.1
499.344	551.9
499.741	549.2
500.158	565.4
500.576	570.6
500.973	554
501.39	551.2
501.787	550.1
502.205	560.6
502.623	560.8
503.02	551.1
503.438	547.1
503.856	558.5
504.253	558.5
504.671	559
505.068	553.5
505.486	553.9
505.905	578.6
506.302	562.3
506.72	574.7
507.118	550
507.536	557.6
507.955	551.9
508.352	561.4
508.771	562.9
509.169	564.6
509.587	550.8
510.006	560.3
510.404	547.5
510.823	549.8
511.221	555.9
511.64	556.3
512.038	567.2
512.457	556.9
512.877	554.3
513.275	551.8
513.694	555.4
514.092	553.1
514.512	557.3
514.91	555.9
515.33	556.1
515.749	556.8
516.148	556.7
516.568	562.6
516.966	558.9
517.386	555.7
517.785	554
518.205	557.1
518.603	553.2
519.024	553.1
519.444	555.5
519.843	561.4
520.263	560
520.662	563.2
521.082	553
521.481	558.3
521.902	557
522.301	556.8
522.722	555.6
523.121	558.1
523.542	552.9
523.963	556.3
524.362	552.2
524.783	559.4
525.183	554.6
525.604	560
526.003	549.5
526.425	551.8
526.824	556.7
527.246	560.4
527.646	560.9
528.067	547.8
528.467	557.3
528.888	558.9
529.289	551.9
529.71	552
530.11	550.8
530.532	550.4
530.932	549.3
531.354	546.9
531.755	584.5
532.176	565.5
532.577	556.1
532.999	556.5
533.4	546.9
533.822	558.5
534.223	556.5
534.645	555.5
535.046	551.3
535.468	555.3
535.869	565.7
536.292	550.6
536.693	548.2
537.115	555.4
537.516	546.5
537.939	553.5
538.34	569.8
538.742	567.6
539.165	553.2
539.566	552.9
539.989	544.3
540.391	548
540.814	554.3
541.216	560.4
541.639	552.8
542.041	557.3
542.464	552.3
542.866	544.8
543.268	545.7
543.691	558.8
544.093	561.6
544.517	571.7
544.919	544.2
545.343	568.8
545.745	546.1
546.147	557.5
546.571	554.5
546.974	548.7
547.398	554
547.8	568.5
548.224	552.2
548.627	547.8
549.03	561.5
549.454	544.6
549.857	550.8
550.281	553.7
550.684	549.9
551.087	565.7
551.512	558.8
551.915	559.8
552.34	553.8
552.743	545.2
553.146	556.3
553.571	551.5
553.975	571.2
554.399	546.9
554.803	606
555.207	556.8
555.632	552.1
556.036	560.1
556.461	548.5
556.865	553.4
557.268	544.6
557.694	557.7
558.098	560.6
558.502	561.4
558.927	548.2
559.332	550.6
559.736	556.3
560.162	562.8
560.566	554.4
560.992	561.9
561.396	556.8
561.801	553.4
562.227	554.2
562.631	552.4
563.036	555.4
563.462	561.8
563.867	555.1
564.272	545.3
564.698	555.7
565.103	543.5
565.508	574.5
565.935	550.9
566.34	557.6
566.745	563.3
567.172	551
567.577	573.5
567.982	561.3
568.409	560.9
568.815	545
569.22	553.3
569.626	564.4
570.053	537.7
570.459	556.1
570.865	563
571.292	561.2
571.698	557.3
572.104	546.8
572.531	550.1
572.937	565
573.343	553.9
573.75	552.6
574.177	551.2
574.583	561
574.99	550.2
575.396	557.4
575.824	550.2
576.231	555.7
576.637	552.5
577.065	575
577.472	542.1
577.879	554.5
578.286	565.2
578.714	545.3
579.121	553.7
579.528	557.1
579.935	555.4
580.364	545.9
580.771	536.3
581.178	547
581.585	550.9
582.014	557.8
582.421	551.1
582.829	547.9
583.236	557.9
583.644	547.1
584.073	548.8
584.481	547.9
584.889	551.8
585.296	557.2
585.726	552.4
586.134	545.3
586.542	550.1
586.95	565.2
587.358	538.4
587.787	554.8
588.196	534
588.604	548.9
589.012	549.5
589.421	544
589.851	548.4
590.259	553.1
590.668	547.6
591.076	589.2
591.485	546.6
591.894	551.1
592.324	558.8
592.733	564
593.142	539.9
593.551	545.6
593.96	580.6
594.369	543.6
594.8	541.7
595.209	547.5
595.618	537.3
596.028	542.5
596.437	541.2
596.847	549
597.256	552.1
597.687	554.8
598.097	552
598.507	542.4
598.917	557.2
599.327	557.5
599.736	551.2
600.146	555.9
600.556	553.7
600.988	563.7
601.398	549.5
601.808	556.3
602.219	538.1
602.629	553.8
603.039	555.7
603.45	577.4
603.86	549.7
604.271	563.6
604.703	551
605.114	553.6
605.525	550.2
605.935	555.6
606.346	571.5
606.757	553.6
607.168	551.7
607.579	545.5
607.99	557.8
608.402	555
608.813	550.9
609.224	543.6
609.636	542.7
610.047	546.9
610.48	555.8
610.892	559
611.303	559.3
611.715	545.7
612.127	542.5
612.539	552.8
612.95	555.3
613.362	535.3
613.774	543.9
614.186	544.9
614.599	543.1
615.011	561.8
615.423	546.3
615.835	543.6
616.248	542.6
616.66	557.2
617.073	541.7
617.485	548.3
617.898	559.8
618.311	549.2
618.723	548.4
619.136	573.4
619.549	566.2
619.962	569.2
620.375	547.2
620.788	552.6
621.201	543.7
621.614	555.4
622.028	548
622.441	554.1
622.854	564.9
623.268	541.4
623.681	548.9
624.095	550.4
624.509	555.7
624.922	554.7
625.336	540.4
625.728	545.5
626.142	553.8
626.556	564.1
626.97	550.9
627.384	548.4
627.799	547.9
628.213	555.3
628.627	545.8
629.041	546
629.456	545.9
629.87	546.9
630.285	554.7
630.699	559.2
631.093	544.1
631.507	553.7
631.922	547.8
632.337	563.1
632.752	538.6
633.167	548.8
633.582	543.7
633.997	542.4
634.412	544.2
634.806	544.8
635.221	537.9
635.637	554.6
636.052	535.9
636.468	553
636.883	563.4
637.299	544.5
637.715	528
638.109	545.2
638.525	534.4
638.941	556.5
639.357	551.5
639.773	554.8
640.189	542.3
640.584	544.2
641	554.9
641.416	533.9
641.832	546.5
642.249	545.4
642.665	550.1
643.06	552.8
643.477	554.9
643.894	536.3
644.31	545.4
644.727	549.7
645.123	540.9
645.54	540.8
645.957	550.8
646.374	555.2
646.77	546.4
647.187	581.9
647.604	547.4
648.021	537.6
648.439	543.6
648.835	547.2
649.252	552.2
649.67	545.3
650.088	548.3
650.484	555
650.902	557.6
651.32	558
651.738	544.9
652.134	550.7
652.552	567.6
652.971	557.8
653.389	551.3
653.786	559.9
654.204	548.6
654.622	544.4
655.019	546.1
655.438	552.4
655.857	549.4
656.275	557.5
656.673	544.4
657.091	613.9
657.51	543.3
657.908	549.6
658.327	561.5
658.746	535.2
659.144	544.7
659.563	561.8
659.982	548.6
660.38	539.6
660.8	549.1
661.219	559.2
661.617	553.6
662.037	553.1
662.457	560.8
662.855	533.1
663.275	577.7
663.695	546.5
664.094	546.6
664.514	553.1
664.934	543
665.333	551.4
665.753	540.2
666.152	543.1
666.572	545.8
666.993	558.3
667.392	552.4
667.812	550.5
668.212	550.6
668.632	551.9
669.053	546.5
669.453	554.8
669.874	545.5
670.273	546.2
670.694	542.2
671.116	561.7
671.515	558.8
671.937	541.4
672.337	541.8
672.758	542.2
673.158	544.4
673.58	540.7
673.98	549.6
674.402	558
674.824	544.3
675.224	543.3
675.646	537.4
676.047	541.3
676.469	549.5
676.869	551.8
677.292	556
677.693	537.7
678.115	540.8
678.516	552.2
678.939	549.3
679.34	543.4
679.762	555.5
680.164	548.4
680.586	539.2
680.988	554
681.411	570.1
681.812	548.5
682.236	537
682.637	542.7
683.061	538.6
683.462	553.1
683.864	548.8
684.288	552.2
684.69	535.9
685.114	552.2
685.516	554.5
685.94	538.2
686.342	551
686.766	543.7
687.168	544.4
687.571	560.4
687.995	550.7
688.398	539
688.822	539.4
689.225	560.6
689.628	566.8
690.052	545.1
690.456	549.3
690.88	544.3
691.284	539.4
691.687	553
692.112	543.1
692.515	538.4
692.919	547.8
693.344	549.4
693.747	541.6
694.173	542.5
694.577	558.3
694.98	543.9
695.406	543.1
695.81	552
696.214	552.8
696.64	545.5
697.044	550.9
697.448	550.3
697.874	542.2
698.279	547.7
698.684	538.4
699.11	543.8
699.514	542.3
699.919	540.1
700.324	536.4
700.75	550.6
701.156	548.2
701.561	557.7
701.987	552.3
702.393	549.5
702.798	557.3
703.203	544.6
703.63	543.4
704.036	539.3
704.442	541.4
704.847	534.6
705.274	549.5
705.68	551.3
706.086	556
706.492	535.4
706.92	539.2
707.326	553.5
707.732	543.3
708.139	543.3
708.545	536.3
708.973	544.2
709.38	543.6
709.786	539.9
710.193	562
710.6	550.6
711.028	540.3
711.435	544.8
711.842	548.1
712.249	542.3
712.656	547
713.064	552.8
713.492	542.5
713.9	541.2
714.307	550
714.715	544.5
715.123	548.8
715.53	548.4
715.938	550
716.367	541.1
716.775	540.5
717.184	532.8
717.592	538.7
718	552.5
718.408	577.5
718.816	581.1
719.225	545.8
719.633	549.3
720.042	537
720.472	545
720.881	562.7
721.29	550.9
721.699	536.9
722.108	552.4
722.517	546.4
722.926	542.2
723.335	552.3
723.744	546.5
724.154	548.7
724.563	547.3
724.973	547.3
725.382	547.1
725.792	541.2
726.202	534.3
726.612	552.4
727.022	542.1
727.432	538.1
779.813	545.1
780.223	586.2
780.634	535.1
781.044	534.7
781.454	542.3
781.865	552.5
782.276	531.8
782.686	553.1
783.097	540.9
783.508	542.2
783.919	546
784.33	554
784.741	553.6
785.152	537.8
785.563	530.7
785.974	542
786.386	550.5
786.776	539.6
787.188	547.3
787.599	539.5
788.011	552.3
788.423	546.7
788.835	538.6
789.247	537
789.659	536.7
790.071	537.5
790.483	580.1
790.874	540.3
791.286	552.1
791.699	541
792.111	539.1
792.524	545.7
792.937	545.6
793.349	537.3
793.741	533.1
794.154	544.1
794.567	560
794.98	545.5
795.393	534.4
795.785	554.9
796.198	541.5
796.612	545.7
797.026	540.5
797.439	528.5
797.831	535.6
798.245	535.7
798.659	535.8
799.073	535.7
799.487	536.8
799.88	542.5
800.294	541.6
800.708	543.2
801.123	545.5
801.516	558.5
801.93	535.2
802.345	532
802.76	546.5
803.153	554.9
803.568	558.6
803.983	551.8
804.377	551.3
804.792	531.9
805.207	536.4
805.601	546.2
806.016	580.9
806.432	542.6
806.826	571.6
807.242	553.7
807.658	545.2
808.052	546.2
808.468	540.8
808.884	540.7
809.279	547.1
809.695	551.9
810.111	564.9
810.506	550.7
810.922	557.2
811.339	537.5
811.734	552.3
812.151	541.5
812.546	541.3
812.963	542.6
813.38	549.1
813.776	549.8
814.193	567.8
814.589	533.9
815.006	540.4
815.402	535.4
815.82	538.1
816.237	540.7
816.633	546.2
817.051	540.4
817.448	544.5
817.866	532.5
818.262	560.1
818.68	532.2
819.077	539.8
819.495	537.3
819.892	579.8
820.311	541.9
820.708	536.7
821.127	536.6
821.524	552.3
821.943	542.1
822.34	557.1
822.759	542.5
823.157	543.6
823.576	551.2
823.974	545.7
824.393	549.3
824.791	533.5
825.189	531.2
825.609	540
826.007	540.5
826.427	532.2
826.826	540.3
827.246	548
827.644	529.4
828.043	548.6
828.463	537.8
828.862	546.8
829.261	552
829.682	532.8
830.081	544
830.502	535.3
830.901	542.7
831.301	533.9
831.722	531.2
832.121	544.2
832.521	539.8
832.943	540.6
833.342	542.6
833.742	536.2
834.164	539.3
834.564	530.3
834.965	540.4
835.386	537.2
835.787	536
836.188	540.7
836.588	539.1
837.01	537.9
837.411	529.1
837.812	550.2
838.213	541.8
838.636	539.4
839.037	606.7
839.438	544.8
839.84	546.1
840.263	548.5
840.664	546.8
841.066	535.9
841.468	543.3
841.891	538.9
842.293	555.4
842.695	549.8
843.098	546
843.5	538.2
843.902	543
844.326	545.8
844.729	540.3
845.131	549.6
845.534	541.8
845.937	554.7
846.34	550.9
846.764	534.2
847.167	544.3
