#lambda/nm	C1
208.295	470.6
208.67	440.3
209.045	397.7
209.419	404.9
209.794	577.1
210.169	556.7
210.544	672.7
210.919	577.8
211.295	565.2
211.67	575.1
212.045	573
212.421	566.7
212.796	603.1
213.172	569.5
213.547	573.5
213.923	565.6
214.299	566.1
214.675	579.2
215.051	572.4
215.427	578.2
215.803	598
216.179	578.2
216.555	562.5
216.932	581.2
217.308	578.3
217.684	578.1
218.061	577.8
218.438	576.3
218.814	569.3
219.191	581.8
219.568	563.1
219.945	570.5
220.322	585.8
220.699	578.6
221.076	583.9
221.453	578.9
221.83	565.3
222.208	575.4
222.585	573.8
222.962	574.4
223.34	581.5
223.717	576.9
224.095	574.5
224.473	579.6
224.851	564.9
225.229	565.3
225.607	592.3
225.985	564.9
226.363	582
226.741	580.5
227.119	578.3
227.497	576.3
227.876	566.5
228.254	582.3
228.633	581.3
229.011	578.9
229.39	580.9
229.769	578.8
230.148	579.7
230.527	593.3
230.905	574.1
231.284	582.1
231.664	572.4
232.043	584.4
232.422	579.7
232.801	567.6
233.181	581.6
233.56	571.7
233.94	571.9
234.319	562.7
234.699	575.1
235.079	616.8
235.458	609.7
235.838	594
236.218	572.5
236.598	561.9
236.978	571.9
237.358	571.4
237.738	574.4
238.119	583.7
238.499	560.9
238.88	577.1
239.26	590.2
239.641	565.7
240.021	571.8
240.402	568
240.783	571.8
241.163	570.7
241.544	578
241.925	570
242.306	587.2
242.687	570.3
243.069	575.3
243.45	580.9
243.831	567.5
244.212	567.7
244.594	600.7
244.975	584.5
245.357	576
245.739	567.9
246.12	572.8
246.502	585.2
246.884	575.1
247.266	571.5
247.648	577.3
248.03	596
248.412	572.1
248.794	574.2
249.176	570.2
249.559	578.8
249.941	570.5
250.323	567.8
250.706	567.3
251.089	568.2
251.471	579.5
251.854	576.7
252.237	568.3
252.62	585.1
253.002	577.6
253.385	579
253.769	591.6
254.152	575.4
254.535	579.8
254.918	572.2
255.301	572.3
255.685	574.1
256.068	571.3
256.452	602.8
256.835	578.2
257.219	582.3
257.603	587.6
257.986	563.6
258.37	581.3
258.754	564.2
259.138	577.6
259.522	586.7
259.906	574.5
260.29	576.5
260.675	571.9
261.059	577.2
261.443	566.1
261.828	579
262.212	581.1
262.597	563.9
262.981	570.6
263.366	578.6
263.751	579.5
264.136	573.1
264.521	573.8
264.906	568.3
265.291	583.7
265.676	568
266.061	586.1
266.446	592.5
266.831	579
267.217	594
267.602	580.6
267.987	577.6
268.373	565.8
268.759	584.6
269.144	573.6
269.53	575
269.916	571.4
270.302	577.8
270.688	581
271.074	575.5
271.46	584.4
271.846	603.9
272.232	574.5
272.618	569.4
273.004	573.5
273.391	581.9
273.777	586.2
274.164	576.2
274.55	583.4
274.937	575.5
275.324	573.6
275.71	582
276.097	581.4
276.484	565.5
276.871	583.3
277.258	579.7
277.645	566.3
278.032	574.6
278.419	573.2
278.807	583.5
279.194	568.3
279.581	568.7
279.969	583.1
280.356	570.4
280.744	567.3
281.131	600.8
281.519	588
281.907	570.5
282.295	568.7
282.682	583.2
283.07	579
283.458	583.9
283.846	582.6
284.235	583.6
284.623	582
285.011	564.5
285.399	572.3
285.788	570.8
286.176	570
286.565	583.6
286.953	571.5
287.342	574.9
287.731	572.8
288.119	570.9
288.508	572.4
288.897	581.1
289.286	564.8
289.675	577.7
290.064	580.3
290.453	576
290.821	573.9
291.21	589
291.599	566.4
291.989	574.4
292.378	574.2
292.768	589.4
293.157	580.1
293.547	579.8
293.936	578.7
294.326	570.6
294.716	580
295.106	573
295.496	584.1
295.886	583.7
296.276	572.9
296.666	571.1
297.056	568.7
297.446	566.7
297.836	589.1
298.227	570.1
298.617	576.9
299.008	584.5
299.398	575.3
299.789	565.9
300.179	576.8
300.57	588.7
300.961	569.9
301.352	571.5
301.742	584.1
302.133	581.4
302.524	579
302.915	575
303.307	571.7
303.698	583.5
304.089	587.4
304.48	574.2
304.872	581.5
305.263	578
305.655	571.3
306.046	582.2
306.438	578.2
306.829	569.7
307.221	585.6
307.613	574.5
308.005	586.8
308.397	587.4
308.789	598.4
309.181	600.5
309.573	593.7
309.965	588.8
310.357	567.7
310.749	578.2
311.142	567.9
311.534	569
311.926	586.3
312.319	574.6
312.711	570.3
313.104	590.1
313.497	569
313.889	611.9
314.282	592.7
314.675	597.3
315.068	579.3
315.461	581.5
315.854	607.5
316.247	576.2
316.64	575.7
317.033	575.6
317.405	583.5
317.798	583
318.192	578.5
318.585	570.2
318.979	572.7
319.372	569.3
319.766	579.8
320.16	580
320.553	588.3
320.947	599.2
321.341	574.7
321.735	579.6
322.129	567.5
322.523	599.8
322.917	567.5
323.311	587.7
323.705	574.3
324.099	585.8
324.494	596.2
324.888	580.8
325.282	576.7
325.677	584.1
326.071	586.3
326.466	596.2
326.861	581.7
327.255	584.2
327.65	591.1
328.045	595.7
328.44	579.1
328.835	576.8
329.23	570.8
329.625	602.1
330.02	571.2
330.415	600.3
330.81	582.3
331.206	575.7
331.601	571.7
331.996	581.7
332.37	589.5
332.766	565.6
333.161	595.1
333.557	572.3
333.953	577.4
334.348	996.1
334.744	580.8
335.14	573.6
335.536	572.6
335.932	584.3
336.328	577.7
336.724	584.6
337.12	577.9
337.516	581.9
337.913	581.2
338.309	591.8
338.705	575.6
339.102	586.2
339.498	576.6
339.895	592.9
340.291	571.2
340.688	576.5
341.085	567.7
341.481	579.7
341.878	572.8
342.275	597.6
342.672	565.1
343.069	573.9
343.466	563.8
343.842	586.1
344.239	569.8
344.636	575.4
345.033	565
345.431	565.6
345.828	576.3
346.225	568
346.623	583.1
347.02	575.9
347.418	583.7
347.816	591.3
348.213	568.3
348.611	577.8
349.009	573.4
349.407	587
349.805	568.2
350.203	563.8
350.601	584
350.999	573.2
351.397	566.3
351.795	571.9
352.193	581.4
352.57	581.5
352.969	583.7
353.367	563.3
353.766	568.5
354.164	571.3
354.563	581.1
354.961	574.9
355.36	573.2
355.759	569.3
356.158	572.2
356.557	567.6
356.956	567.1
357.355	566.1
357.754	571.4
358.153	578.6
358.552	589.4
358.951	569.2
359.35	584.7
359.75	567.5
360.149	568
360.527	558.7
360.926	556.8
361.326	576.7
361.726	572
362.125	563.1
362.525	575.5
362.925	570.7
363.325	577.7
363.724	568.9
364.124	568.7
364.524	559.9
364.924	569.8
365.324	579.7
365.725	557.9
366.125	572.7
366.525	570.2
366.904	561.4
367.304	554.2
367.705	582.8
368.105	578.8
368.506	571.4
368.906	567.9
369.307	570
369.708	571.2
370.108	557.2
370.509	578.7
370.91	560.5
371.311	566.7
371.712	563.3
372.113	571.8
372.514	555.9
372.894	569.1
373.295	558.8
373.696	581.8
374.097	573.4
374.499	593.4
374.9	568.7
375.301	561.2
375.703	572.9
376.105	561.4
376.506	567.6
376.908	566.6
377.309	568.6
377.711	569.5
378.113	563.2
378.493	570.1
378.895	557.2
379.297	578.1
379.699	560.3
380.102	564.7
380.504	564.7
380.906	561.9
381.308	586.5
381.71	568.5
382.113	576.7
382.515	568.1
382.918	569.7
383.299	564.9
383.701	578.6
384.104	567.4
384.507	550.1
384.909	564
385.312	554.9
385.715	563.7
386.118	566.1
386.521	558
386.924	575.3
387.327	561.8
387.709	558.6
388.112	554.4
388.515	562.2
388.918	561.4
389.322	575.9
389.725	561.3
390.129	586.7
390.532	568.3
390.936	563.6
391.339	567.1
391.743	566.4
392.125	557.4
392.529	570.4
392.933	575.1
393.337	566.9
393.74	564.5
394.144	565.7
394.548	556.9
394.953	566.9
395.357	572
395.761	562.8
396.144	572
396.548	565.3
396.952	565.3
397.357	567.2
397.761	568.8
398.166	565.6
398.57	562.8
398.975	559.9
399.379	568.4
399.763	617.5
400.168	562.6
400.572	568
400.977	565.8
401.382	586.4
401.787	569.6
402.192	582.4
402.597	581.6
403.002	552.2
403.386	575.4
403.791	581.2
404.197	566
404.602	565.2
405.007	566.1
405.413	562.2
405.818	566.8
406.224	563.9
406.608	564.2
407.014	554.6
407.42	580.3
407.825	560.5
408.231	578.2
408.637	565.6
409.043	582.7
409.449	563.9
409.834	556.4
410.24	564.9
410.646	580
411.052	576.4
411.458	573.1
411.865	573.2
412.271	578.4
412.677	569.4
413.062	573.4
413.469	562.1
413.875	594.9
414.282	574.9
414.689	571.6
415.095	573
415.502	562.5
415.888	566.9
416.294	560
416.701	609.5
417.108	564.8
417.515	575.4
417.923	566.7
418.33	587.6
418.715	579.4
419.123	574
419.53	564.7
419.937	573.3
420.345	584.9
420.752	563.8
421.16	583.2
421.546	570.2
421.953	579.3
422.361	564.7
422.769	569.7
423.177	560.7
423.585	592
423.992	584.4
424.379	579.7
424.787	580.4
425.195	588.5
425.603	570.4
426.011	574.2
426.419	581.3
426.806	570.4
427.214	572.8
427.623	588.3
428.031	587.2
428.44	575.6
428.848	576.4
429.235	588.6
429.644	572.6
430.053	569.8
430.461	583.3
430.87	595.7
431.279	578.4
431.666	568.7
432.075	572.6
432.484	575
432.893	571.5
433.302	591.3
433.711	607.8
434.099	574.8
434.508	572.7
434.918	558.4
435.327	571.6
435.737	570.3
436.125	568.5
436.534	569.8
436.944	574.9
437.353	572
437.763	588.6
438.173	564.7
438.561	576.4
438.971	553.9
439.381	564
439.791	568.3
440.201	543.4
440.589	565.7
440.999	571.9
441.409	571.5
441.819	555.8
442.23	578.2
442.619	572
443.029	567.3
443.439	571
443.85	578.8
444.26	582.7
444.649	575.2
445.06	569.5
445.471	560.1
445.881	568.7
446.292	584.8
446.682	588.8
447.092	555.8
447.503	609.8
447.914	564.9
448.325	562.8
448.715	568.9
449.126	559.5
449.537	566
449.948	567.6
450.338	567.8
450.75	574.5
451.161	567.8
451.572	573.8
451.984	556.5
452.374	551.3
452.786	566.6
453.197	566.1
453.609	577.4
453.999	551.3
454.411	561.7
454.823	573.8
455.235	569.9
455.647	562.4
456.037	570.2
456.449	554.1
456.862	568.3
457.274	570.4
457.665	559.4
458.077	567.6
458.489	577
458.902	565.4
459.293	562.9
459.705	568.9
460.118	567.4
460.53	568.7
460.921	562.2
461.334	565.7
461.747	564.4
462.16	577.4
462.551	574.9
462.964	565.2
463.377	554.3
463.79	560
464.182	574.1
464.595	554.5
465.008	569.5
465.421	565.3
465.813	557.4
466.226	571.7
466.64	558.3
467.053	606
467.445	569.1
467.859	558.3
468.272	562.6
468.686	567.8
469.078	559.9
469.492	550.1
469.906	566
470.298	565.4
470.712	551.9
471.126	588
471.54	549.5
471.933	551.8
472.347	557.2
472.761	556.8
473.175	551
473.568	561
473.982	550.5
474.397	561.5
474.79	556.9
475.204	567.7
475.619	557.3
476.033	560.1
476.426	565.4
476.841	556.5
477.256	581.8
477.649	559.7
478.064	553.9
478.479	551.9
478.872	555.2
479.287	547.5
479.702	553.1
480.118	561.4
480.511	560.7
480.927	547.3
481.342	555.6
481.736	564.1
482.151	556.3
482.566	567.1
482.96	560.4
483.376	569.5
483.792	553
484.186	557.5
484.602	559.7
485.017	559
485.412	559
485.827	564.9
486.243	559.5
486.638	579.2
487.054	567.2
487.47	576.5
487.865	556.7
488.281	557.2
488.697	553.7
489.092	559.4
489.508	548.1
489.925	564.1
490.32	554.9
490.736	562.9
491.153	554.2
491.548	563.9
491.964	576.5
492.381	554
492.776	561.8
493.193	560.9
493.61	563.4
494.006	561.1
494.422	563
494.84	548.7
495.235	568.9
495.652	559.5
496.069	555.1
496.465	546.6
496.883	556
497.3	578.2
497.696	550.6
498.113	566.9
498.509	548.5
498.927	549.6
499.344	548.5
499.741	549.6
500.158	566.9
500.576	566.7
500.973	556.2
501.39	551.3
501.787	555.6
502.205	558.2
502.623	550.2
503.02	547.7
503.438	555.3
503.856	550.6
504.253	558.1
504.671	559.9
505.068	553.6
505.486	555.5
505.905	569.7
506.302	554.8
506.72	562.2
507.118	550.7
507.536	557.6
507.955	556.4
508.352	554.3
508.771	562.4
509.169	558.1
509.587	549.8
510.006	560
510.404	547.7
510.823	558.8
511.221	553.4
511.64	554.5
512.038	576.5
512.457	555
512.877	556.8
513.275	556.1
513.694	563.3
514.092	551.3
514.512	563.2
514.91	559.9
515.33	556.7
515.749	558.7
516.148	557.1
516.568	558.8
516.966	558.3
517.386	551.1
517.785	554.5
518.205	557.9
518.603	554.2
519.024	549.9
519.444	560.7
519.843	563
520.263	562.4
520.662	558.8
521.082	557.7
521.481	559.1
521.902	555.4
522.301	560.3
522.722	563.9
523.121	556.4
523.542	556.4
523.963	554.3
524.362	556.8
524.783	563.7
525.183	556.7
525.604	562.5
526.003	552.8
526.425	554.9
526.824	560.1
527.246	565.6
527.646	571
528.067	560.2
528.467	557.4
528.888	558.6
529.289	554.4
529.71	559.2
530.11	553.3
530.532	551.9
530.932	547
531.354	546.3
531.755	587.7
532.176	563.7
532.577	549.8
532.999	559.4
533.4	549
533.822	567.8
534.223	554.2
534.645	554.3
535.046	549.9
535.468	558.6
535.869	566.3
536.292	548.2
536.693	554
537.115	555.3
537.516	552.8
537.939	550.6
538.34	572.8
538.742	564.4
539.165	559.7
539.566	558.2
539.989	543.7
540.391	549.5
540.814	557.1
541.216	555.9
541.639	548.6
542.041	555.9
542.464	552.7
542.866	550.9
543.268	551.3
543.691	562.2
544.093	560.6
544.517	574.7
544.919	543.7
545.343	576.5
545.745	550.2
546.147	553.1
546.571	551
546.974	550.3
547.398	553.6
547.8	570.8
548.224	551.3
548.627	555.2
549.03	557
549.454	543.7
549.857	547
550.281	552.6
550.684	547.8
551.087	562.6
551.512	556
551.915	557.6
552.34	556.6
552.743	548.4
553.146	554.1
553.571	554.8
553.975	570.5
554.399	547.8
554.803	597.2
555.207	548.7
555.632	545.3
556.036	558
556.461	543.7
556.865	555
557.268	538.3
557.694	548.1
558.098	558.9
558.502	554.8
558.927	547.4
559.332	549.3
559.736	553.6
560.162	559.3
560.566	551.6
560.992	554.3
561.396	551.5
561.801	554
562.227	551.1
562.631	554.8
563.036	549
563.462	557.8
563.867	558.3
564.272	545
564.698	550.8
565.103	543.3
565.508	568.9
565.935	548.7
566.34	557
566.745	556.2
567.172	554.6
567.577	575.9
567.982	566.1
568.409	554.7
568.815	542.8
569.22	559.1
569.626	552.5
570.053	537
570.459	549.9
570.865	559.6
571.292	565.1
571.698	552.2
572.104	538.8
572.531	547.1
572.937	564.2
573.343	553.8
573.75	548.6
574.177	549.5
574.583	560.1
574.99	550
575.396	556.5
575.824	551.1
576.231	553.5
576.637	551.7
577.065	575.2
577.472	550
577.879	550.6
578.286	572.6
578.714	552.8
579.121	549.9
579.528	560.1
579.935	558.5
580.364	549.4
580.771	535
581.178	547.9
581.585	555.9
582.014	553.6
582.421	546.5
582.829	550.3
583.236	556.6
583.644	546.4
584.073	552.7
584.481	550.9
584.889	544.3
585.296	556.7
585.726	551.6
586.134	546.6
586.542	546.2
586.95	563.3
587.358	545.2
587.787	556.7
588.196	541.7
588.604	550.3
589.012	555.2
589.421	550.5
589.851	545.9
590.259	552
590.668	550
591.076	580.7
591.485	540.8
591.894	550.3
592.324	562.5
592.733	559.6
593.142	537.4
593.551	548.4
593.96	580.1
594.369	542
594.8	544.9
595.209	547.7
595.618	534.1
596.028	543.6
596.437	536.4
596.847	548.4
597.256	555.5
597.687	552.7
598.097	549.7
598.507	543.2
598.917	550.6
599.327	558.5
599.736	553.2
600.146	556.7
600.556	550
600.988	563.7
601.398	552.6
601.808	560.2
602.219	542.1
602.629	551.4
603.039	551.8
603.45	577.1
603.86	545.8
604.271	563.7
604.703	559.5
605.114	547.6
605.525	553.6
605.935	559.4
606.346	566.8
606.757	560.1
607.168	553.5
607.579	548.8
607.99	563
608.402	555.4
608.813	551.4
609.224	546.4
609.636	543.8
610.047	546.2
610.48	551.8
610.892	556.3
611.303	565.1
611.715	552.1
612.127	548.5
612.539	543.7
612.95	545.5
613.362	539.7
613.774	535.7
614.186	545.9
614.599	542.8
615.011	557.1
615.423	541.8
615.835	546.5
616.248	543.5
616.66	551.7
617.073	544.1
617.485	549.3
617.898	555.1
618.311	551.8
618.723	545.9
619.136	571.4
619.549	561.3
619.962	576
620.375	546
620.788	551.9
621.201	538.4
621.614	553.6
622.028	543.5
622.441	552.3
622.854	564.3
623.268	538.9
623.681	555.5
624.095	551.5
624.509	560.6
624.922	554
625.336	539.9
625.728	548.8
626.142	562
626.556	566.6
626.97	556.6
627.384	547.9
627.799	549.7
628.213	558
628.627	546
629.041	544.1
629.456	539.3
629.87	548.5
630.285	561.3
630.699	562.2
631.093	548.7
631.507	557.5
631.922	554.2
632.337	559.2
632.752	539.1
633.167	550.4
633.582	546.7
633.997	551.7
634.412	538.4
634.806	542.9
635.221	540.8
635.637	559
636.052	539.9
636.468	555.7
636.883	566.5
637.299	548.7
637.715	537
638.109	549.3
638.525	539.8
638.941	558.3
639.357	551.6
639.773	560.5
640.189	540
640.584	547.5
641	546.7
641.416	539.7
641.832	548.7
642.249	546.9
642.665	554.4
643.06	556.1
643.477	555.6
643.894	534
644.31	550.8
644.727	546.1
645.123	543.5
645.54	539.1
645.957	546
646.374	556.6
646.77	551.2
647.187	579.9
647.604	549.5
648.021	535.8
648.439	539
648.835	553.1
649.252	547
649.67	548.9
650.088	547.2
650.484	548.8
650.902	551.7
651.32	551.1
651.738	545.2
652.134	546
652.552	564
652.971	550.1
653.389	545
653.786	562.7
654.204	546.4
654.622	540.9
655.019	549.2
655.438	544.8
655.857	548.8
656.275	554.3
656.673	544.4
657.091	613.4
657.51	544.6
657.908	554.9
658.327	564.8
658.746	537.7
659.144	555.1
659.563	555.9
659.982	550.8
660.38	542.4
660.8	546.5
661.219	553.1
661.617	550.5
662.037	541
662.457	560.1
662.855	537.3
663.275	579.2
663.695	546.7
664.094	543.4
664.514	550
664.934	542.9
665.333	550.7
665.753	535.8
666.152	540.4
666.572	542.8
666.993	559.5
667.392	543.3
667.812	545.2
668.212	548
668.632	557.4
669.053	548.6
669.453	554.4
669.874	554.8
670.273	545
670.694	542.6
671.116	556.2
671.515	553.4
671.937	548.9
672.337	547.1
672.758	544.3
673.158	554.1
673.58	536.1
673.98	548.2
674.402	555.1
674.824	542.8
675.224	543.1
675.646	534.9
676.047	544.2
676.469	543.1
676.869	553.5
677.292	556.5
677.693	543.7
678.115	543.1
678.516	550.1
678.939	549.5
679.34	543.3
679.762	559.6
680.164	552.3
680.586	537.6
680.988	551.5
681.411	571.4
681.812	542.2
682.236	543.4
682.637	543.8
683.061	537.1
683.462	549.9
683.864	540.7
684.288	552.9
684.69	533.9
685.114	555.6
685.516	552.6
685.94	542.3
686.342	548.1
686.766	542.9
687.168	543.1
687.571	563.5
687.995	541.7
688.398	534.3
688.822	544.3
689.225	561.5
689.628	563.8
690.052	545.5
690.456	551.3
690.88	548.9
691.284	537
691.687	553
692.112	542.5
692.515	537.4
692.919	546.1
693.344	551.2
693.747	541.9
694.173	546.7
694.577	555.8
694.98	544.6
695.406	543.5
695.81	550.6
696.214	550
696.64	550.2
697.044	548
697.448	551
697.874	545.2
698.279	543.8
698.684	539.3
699.11	542.9
699.514	545.9
699.919	545
700.324	540.6
700.75	547
701.156	547.4
701.561	556.7
701.987	548.7
702.393	557.5
702.798	554.6
703.203	544.3
703.63	544.9
704.036	539.6
704.442	552
704.847	539.6
705.274	546.4
705.68	549.2
706.086	558.1
706.492	536.1
706.92	544.8
707.326	558
707.732	543.6
708.139	538.9
708.545	536
708.973	544.1
709.38	547.4
709.786	535.6
710.193	557
710.6	550.9
711.028	538.7
711.435	543
711.842	545.9
712.249	547.3
712.656	546.7
713.064	550.9
713.492	539.6
713.9	545.4
714.307	552.7
714.715	544.2
715.123	549.2
715.53	541.5
715.938	552.2
716.367	548.8
716.775	544.4
717.184	536.7
717.592	539.8
718	554.8
718.408	575.6
718.816	586.7
719.225	554.5
719.633	544.5
720.042	539.8
720.472	541.5
720.881	563.8
721.29	548.5
721.699	534.9
722.108	551.3
722.517	547.1
722.926	539.7
723.335	557.1
723.744	542.6
724.154	545.4
724.563	547.1
724.973	542.6
725.382	543.4
725.792	544.4
726.202	535.1
726.612	554.2
727.022	544.5
727.432	539
779.813	548.3
780.223	586.5
780.634	540.5
781.044	542
781.454	545.1
781.865	552.8
782.276	537.7
782.686	554.5
783.097	544.3
783.508	541.5
783.919	543.9
784.33	557.4
784.741	562.9
785.152	543
785.563	534.5
785.974	540.5
786.386	555.8
786.776	542.7
787.188	543
787.599	543.8
788.011	551.9
788.423	544.9
788.835	537.6
789.247	533.9
789.659	540.8
790.071	539.5
790.483	580.1
790.874	542.9
791.286	554.9
791.699	535.8
792.111	543.6
792.524	541.4
792.937	543.6
793.349	536.6
793.741	538.5
794.154	542.8
794.567	562.1
794.98	542.8
795.393	534.9
795.785	553.1
796.198	537.5
796.612	544.6
797.026	538.4
797.439	529
797.831	541.8
798.245	533.4
798.659	538
799.073	534.5
799.487	535.4
799.88	542.7
800.294	546.5
800.708	542.3
801.123	549.2
801.516	562.4
801.93	526.9
802.345	526.8
802.76	544
803.153	551.1
803.568	554.4
803.983	547.9
804.377	539.7
804.792	534.4
805.207	530.3
805.601	542.1
806.016	578.5
806.432	538.1
806.826	568.4
807.242	548.6
807.658	548.3
808.052	539.8
808.468	536.8
808.884	536.7
809.279	535.8
809.695	548.6
810.111	561.5
810.506	550.5
810.922	558.2
811.339	538
811.734	551.7
812.151	541.9
812.546	538
812.963	534.4
813.38	551.6
813.776	545.8
814.193	561.9
814.589	530.8
815.006	537
815.402	537.6
815.82	534.8
816.237	543.8
816.633	547.9
817.051	534.4
817.448	544.9
817.866	535.7
818.262	557.3
818.68	540.6
819.077	538.2
819.495	544
819.892	577.8
820.311	539.3
820.708	536.4
821.127	539
821.524	555.8
821.943	547.9
822.34	563.5
822.759	541.8
823.157	542.3
823.576	554
823.974	552.6
824.393	547.1
824.791	537.3
825.189	533.3
825.609	532.6
826.007	541.9
826.427	532.3
826.826	537.9
827.246	546.6
827.644	528.4
828.043	546.6
828.463	542.2
828.862	550.5
829.261	541.7
829.682	528.2
830.081	544.6
830.502	534.9
830.901	545.1
831.301	533.5
831.722	530.3
832.121	539.7
832.521	535
832.943	541.4
833.342	538.8
833.742	533.6
834.164	539.4
834.564	525.5
834.965	540.4
835.386	532.7
835.787	533.6
836.188	539.2
836.588	540.3
837.01	546.8
837.411	529.7
837.812	546.3
838.213	543.4
838.636	539.8
839.037	606.2
839.438	538.9
839.84	538.6
840.263	544
840.664	542.4
841.066	538.5
841.468	546.4
841.891	531.2
842.293	553.9
842.695	546
843.098	550.4
843.5	546.4
843.902	547
844.326	547.7
844.729	544.5
845.131	552.5
845.534	541.2
845.937	554.7
846.34	562.2
846.764	538.3
847.167	543.2
847.571	531.3
847.974	538
