#lambda/nm	C1
208.295	471.8
208.67	439.1
209.045	402.7
209.419	410.2
209.794	576.7
210.169	559.8
210.544	671.5
210.919	579.2
211.295	563.9
211.67	574.6
212.045	569.5
212.421	571.8
212.796	603.9
213.172	566.6
213.547	564.9
213.923	566.2
214.299	569.5
214.675	581.1
215.051	578.3
215.427	575.5
215.803	590.2
216.179	579.1
216.555	570.8
216.932	582.5
217.308	572.3
217.684	570.8
218.061	577
218.438	573.8
218.814	564.3
219.191	575.3
219.568	565.9
219.945	571.3
220.322	573.1
220.699	573
221.076	581.8
221.453	576
221.83	563.7
222.208	568.5
222.585	563.6
222.962	572.4
223.34	581.6
223.717	571.1
224.095	571.9
224.473	572.8
224.851	562.9
225.229	562.6
225.607	584.8
225.985	559.1
226.363	576.3
226.741	573.3
227.119	575.8
227.497	583.4
227.876	559.4
228.254	584.3
228.633	579.8
229.011	570.6
229.39	576.4
229.769	578.7
230.148	582.8
230.527	586.1
230.905	579
231.284	579.2
231.664	566
232.043	580.9
232.422	577.5
232.801	566.5
233.181	578.7
233.56	568.1
233.94	577.1
234.319	562.2
234.699	571.9
235.079	615
235.458	612
235.838	587.9
236.218	559.5
236.598	564.6
236.978	573.7
237.358	564.8
237.738	568.2
238.119	580.5
238.499	560.2
238.88	570.3
239.26	581.7
239.641	561.5
240.021	569
240.402	571.1
240.783	570.4
241.163	572.9
241.544	572
241.925	572.8
242.306	584
242.687	566.3
243.069	571.9
243.45	583.5
243.831	559
244.212	567.3
244.594	603
244.975	583.9
245.357	577.1
245.739	566
246.12	577.1
246.502	581.1
246.884	570.1
247.266	571.8
247.648	570.7
248.03	591.4
248.412	575.1
248.794	576.1
249.176	569.4
249.559	581.7
249.941	568.5
250.323	562.4
250.706	564
251.089	576.8
251.471	574.8
251.854	577.4
252.237	569.5
252.62	580.4
253.002	574.6
253.385	574.6
253.769	586.5
254.152	573.9
254.535	581.7
254.918	566.5
255.301	576.4
255.685	571
256.068	570.1
256.452	591.3
256.835	578
257.219	579.1
257.603	580.9
257.986	566
258.37	573.7
258.754	565.5
259.138	578
259.522	578.8
259.906	568.5
260.29	580.3
260.675	570.3
261.059	576.6
261.443	563.7
261.828	576.7
262.212	579.1
262.597	561.6
262.981	567.3
263.366	578.3
263.751	579.3
264.136	572.6
264.521	573.4
264.906	566.5
265.291	587.4
265.676	568.3
266.061	575
266.446	590.8
266.831	580.3
267.217	592.6
267.602	574.4
267.987	574.9
268.373	571.3
268.759	585
269.144	583.9
269.53	574.5
269.916	571.1
270.302	567.2
270.688	579.4
271.074	577.3
271.46	585.1
271.846	598.5
272.232	576.2
272.618	570.1
273.004	574.1
273.391	583.7
273.777	579.6
274.164	581.8
274.55	584.8
274.937	578.6
275.324	575.5
275.71	576.4
276.097	579.1
276.484	560.8
276.871	577.7
277.258	580.7
277.645	564.4
278.032	571.5
278.419	574.6
278.807	577
279.194	566.8
279.581	566.1
279.969	579.3
280.356	571.2
280.744	571.7
281.131	596.2
281.519	584.6
281.907	577.4
282.295	566.2
282.682	582.7
283.07	578.9
283.458	586.9
283.846	588.1
284.235	586.2
284.623	585.5
285.011	568.3
285.399	574.9
285.788	570.7
286.176	561.3
286.565	584.6
286.953	567.6
287.342	565.8
287.731	567
288.119	565.2
288.508	566
288.897	571.6
289.286	559.8
289.675	574.2
290.064	578.3
290.453	570
290.821	571.2
291.21	588
291.599	565.8
291.989	573.3
292.378	581.9
292.768	587
293.157	579.7
293.547	583.3
293.936	575
294.326	570.2
294.716	576.6
295.106	568.4
295.496	579.4
295.886	579.2
296.276	574.9
296.666	568.6
297.056	568.9
297.446	567.4
297.836	590.6
298.227	577.2
298.617	579.7
299.008	583
299.398	573
299.789	570.5
300.179	573.5
300.57	588.3
300.961	567.5
301.352	571.7
301.742	584.2
302.133	578.4
302.524	565.3
302.915	576.4
303.307	564.9
303.698	582.6
304.089	581.9
304.48	570.1
304.872	577
305.263	576.9
305.655	569
306.046	580.3
306.438	579.1
306.829	570.7
307.221	588.5
307.613	577.8
308.005	588.1
308.397	588.8
308.789	588.2
309.181	591.7
309.573	586.6
309.965	582.2
310.357	570.6
310.749	578
311.142	566.6
311.534	567.9
311.926	588.4
312.319	570.3
312.711	574.1
313.104	584.7
313.497	571.3
313.889	610.6
314.282	597.2
314.675	594.1
315.068	577.1
315.461	581
315.854	605.7
316.247	582.9
316.64	569.3
317.033	575.1
317.405	577.2
317.798	572.7
318.192	572.7
318.585	565.1
318.979	578.1
319.372	571
319.766	572.8
320.16	585.3
320.553	587.6
320.947	589.3
321.341	573.3
321.735	572.1
322.129	564.3
322.523	601.6
322.917	567.6
323.311	583.3
323.705	577
324.099	581.1
324.494	591.9
324.888	586.6
325.282	574.1
325.677	578.6
326.071	585
326.466	585.4
326.861	578.5
327.255	585.7
327.65	587.8
328.045	587.8
328.44	579.5
328.835	581.4
329.23	570.4
329.625	597.9
330.02	569.6
330.415	594.8
330.81	581
331.206	577.6
331.601	568.3
331.996	583.9
332.37	586
332.766	562
333.161	595
333.557	573.7
333.953	573.3
334.348	937.6
334.744	576.7
335.14	569.1
335.536	570.5
335.932	584.1
336.328	573.3
336.724	586.3
337.12	571.6
337.516	576.1
337.913	575.3
338.309	590.3
338.705	573.4
339.102	580.6
339.498	569.3
339.895	577.9
340.291	571.4
340.688	585.2
341.085	562.5
341.481	570.6
341.878	571.7
342.275	595.9
342.672	565.4
343.069	561.9
343.466	560.9
343.842	582.6
344.239	568.5
344.636	572.8
345.033	570.3
345.431	564.6
345.828	572.7
346.225	567.5
346.623	581.1
347.02	573
347.418	581.3
347.816	585.1
348.213	569.6
348.611	576.8
349.009	566.7
349.407	586.6
349.805	558.7
350.203	559.6
350.601	588.3
350.999	569.3
351.397	565.9
351.795	572.5
352.193	581.5
352.57	580
352.969	583.7
353.367	560.7
353.766	565.7
354.164	571.2
354.563	580.3
354.961	574.7
355.36	566.7
355.759	568.7
356.158	567.9
356.557	563.9
356.956	564.3
357.355	563.4
357.754	574.9
358.153	577
358.552	595
358.951	572.1
359.35	576.9
359.75	566.5
360.149	561.3
360.527	560
360.926	566.5
361.326	573.5
361.726	569.9
362.125	564.3
362.525	572.3
362.925	563.2
363.325	574.2
363.724	571.7
364.124	566.4
364.524	565.3
364.924	569.8
365.324	577.4
365.725	556.9
366.125	572.8
366.525	567.3
366.904	561.6
367.304	551.9
367.705	585
368.105	583.5
368.506	565
368.906	568.1
369.307	569.9
369.708	569.3
370.108	557.7
370.509	579.8
370.91	569.7
371.311	568.3
371.712	575.8
372.113	570.5
372.514	560.6
372.894	568.2
373.295	565.2
373.696	574.4
374.097	572.2
374.499	597.8
374.9	567.5
375.301	559.2
375.703	571.6
376.105	561.9
376.506	570.7
376.908	567.4
377.309	568.4
377.711	571.5
378.113	565.3
378.493	570.9
378.895	560.9
379.297	571.7
379.699	565.1
380.102	572.5
380.504	567.3
380.906	559.8
381.308	590.3
381.71	563.6
382.113	576.4
382.515	559.3
382.918	575.1
383.299	563.7
383.701	573.7
384.104	567.5
384.507	543.9
384.909	561.8
385.312	553.7
385.715	554.8
386.118	560.8
386.521	551.3
386.924	574.3
387.327	558.8
387.709	551.9
388.112	553
388.515	566.7
388.918	567
389.322	568.4
389.725	560.6
390.129	586.4
390.532	567.6
390.936	564.9
391.339	559.4
391.743	569.3
392.125	558
392.529	576.5
392.933	575.3
393.337	567.3
393.74	566.7
394.144	567.1
394.548	560.1
394.953	561.8
395.357	576
395.761	562.1
396.144	568.8
396.548	566.9
396.952	565.1
397.357	563.4
397.761	562.6
398.166	563
398.57	566.3
398.975	555.9
399.379	565.2
399.763	615.8
400.168	565.1
400.572	570.2
400.977	566.9
401.382	587.3
401.787	572.7
402.192	579.4
402.597	583.3
403.002	556.2
403.386	582.5
403.791	584.2
404.197	558
404.602	566
405.007	566.2
405.413	559.8
405.818	560.4
406.224	555.3
406.608	562.7
407.014	555.1
407.42	579.6
407.825	562
408.231	573.1
408.637	572
409.043	579.6
409.449	565
409.834	565.7
410.24	568
410.646	580.2
411.052	579
411.458	570.6
411.865	574.4
412.271	575.5
412.677	570.3
413.062	576.2
413.469	565.3
413.875	588.2
414.282	577.5
414.689	569.4
415.095	568.7
415.502	560.5
415.888	571
416.294	555.7
416.701	602.8
417.108	560.8
417.515	574.2
417.923	557.5
418.33	581.8
418.715	581.5
419.123	564.6
419.53	560.4
419.937	568.4
420.345	578.3
420.752	562.8
421.16	584.6
421.546	563.7
421.953	572.4
422.361	559.4
422.769	566.5
423.177	559.3
423.585	590.6
423.992	586.8
424.379	584.1
424.787	579.3
425.195	591.6
425.603	575.8
426.011	580.4
426.419	577.4
426.806	569.2
427.214	572.4
427.623	585.3
428.031	580.4
428.44	573.2
428.848	583.3
429.235	586.4
429.644	574.8
430.053	566.3
430.461	588.3
430.87	593.6
431.279	575.8
431.666	560.1
432.075	562.3
432.484	572.4
432.893	567.2
433.302	582.9
433.711	605.9
434.099	568.6
434.508	566.6
434.918	559.7
435.327	571.1
435.737	573.6
436.125	568.7
436.534	566.4
436.944	569.9
437.353	571.3
437.763	583.3
438.173	556.4
438.561	580
438.971	552.3
439.381	561.6
439.791	565.8
440.201	548.8
440.589	570.4
440.999	567.5
441.409	561.4
441.819	552.7
442.23	569.5
442.619	565.3
443.029	560.3
443.439	565.4
443.85	577.5
444.26	579.8
444.649	571.2
445.06	566.7
445.471	562.2
445.881	566.7
446.292	583
446.682	586.4
447.092	557.6
447.503	614.9
447.914	560.9
448.325	564.7
448.715	566.3
449.126	562.8
449.537	569.2
449.948	560.7
450.338	568.5
450.75	573.5
451.161	566
451.572	572.3
451.984	558.8
452.374	549
452.786	562.4
453.197	566.5
453.609	575.1
453.999	553.7
454.411	559.6
454.823	572
455.235	564.4
455.647	559.9
456.037	569.3
456.449	551
456.862	574
457.274	564.2
457.665	555.6
458.077	567.9
458.489	568.4
458.902	560.8
459.293	564.1
459.705	565.1
460.118	561.9
460.53	563.9
460.921	566.4
461.334	575.5
461.747	562.9
462.16	577.9
462.551	571.7
462.964	569
463.377	549.1
463.79	559.8
464.182	575.8
464.595	562.1
465.008	567.7
465.421	570.9
465.813	567.9
466.226	572.8
466.64	552.7
467.053	604.9
467.445	568.2
467.859	566.3
468.272	565.7
468.686	577.2
469.078	559.1
469.492	549.4
469.906	561.6
470.298	567.8
470.712	560.6
471.126	591.5
471.54	544.7
471.933	554.8
472.347	558.1
472.761	555.9
473.175	549.5
473.568	559.1
473.982	548
474.397	556.1
474.79	562
475.204	567.4
475.619	559
476.033	563.5
476.426	559.3
476.841	553.3
477.256	582.3
477.649	553.1
478.064	551.5
478.479	550
478.872	550.6
479.287	540.6
479.702	543.5
480.118	558.2
480.511	553.7
480.927	547.4
481.342	546.8
481.736	561
482.151	555
482.566	565.9
482.96	553.7
483.376	565.9
483.792	552.8
484.186	558.3
484.602	547.9
485.017	562
485.412	555.9
485.827	557.9
486.243	557.1
486.638	579.4
487.054	564.1
487.47	571.3
487.865	553.9
488.281	557.2
488.697	553.5
489.092	558.6
489.508	551.6
489.925	566.5
490.32	550.1
490.736	561
491.153	560.4
491.548	560.7
491.964	570.7
492.381	543
492.776	555.4
493.193	561.1
493.61	568.2
494.006	560.4
494.422	565.8
494.84	556.3
495.235	561.6
495.652	552.8
496.069	560.2
496.465	544.3
496.883	555.3
497.3	580
497.696	552.6
498.113	568.1
498.509	551.1
498.927	543.2
499.344	549.6
499.741	552.9
500.158	573
500.576	565
500.973	556.3
501.39	550.6
501.787	551.5
502.205	562.6
502.623	553.3
503.02	541.9
503.438	552.6
503.856	553.8
504.253	551.6
504.671	553.9
505.068	554.4
505.486	557.5
505.905	576
506.302	559
506.72	561.7
507.118	551.4
507.536	551.9
507.955	547
508.352	557.8
508.771	559
509.169	562.8
509.587	550.2
510.006	556.6
510.404	547.5
510.823	548.1
511.221	551.3
511.64	554.7
512.038	569.1
512.457	558.3
512.877	552.8
513.275	549.2
513.694	555.3
514.092	551.1
514.512	561.1
514.91	555.1
515.33	558.6
515.749	556.9
516.148	558.1
516.568	558.2
516.966	551
517.386	552.5
517.785	554.3
518.205	554.1
518.603	550.3
519.024	551.6
519.444	556.5
519.843	560.6
520.263	560
520.662	560
521.082	553.5
521.481	554.4
521.902	557.6
522.301	556.8
522.722	561.4
523.121	551.5
523.542	552.3
523.963	547
524.362	556.3
524.783	554.1
525.183	554.7
525.604	560
526.003	552.6
526.425	545.2
526.824	556.3
527.246	562.6
527.646	558.3
528.067	552.7
528.467	559.5
528.888	557.7
529.289	549.2
529.71	554.5
530.11	547.6
530.532	541.6
530.932	545.2
531.354	549.5
531.755	584.7
532.176	560.3
532.577	555.6
532.999	561.4
533.4	551.7
533.822	561.7
534.223	557.4
534.645	553.7
535.046	553.6
535.468	549.2
535.869	567.8
536.292	544.4
536.693	551.9
537.115	559.4
537.516	553.8
537.939	550.2
538.34	567.7
538.742	560.8
539.165	555.9
539.566	555.1
539.989	549.8
540.391	547.5
540.814	553.2
541.216	554.3
541.639	557.3
542.041	554.9
542.464	553.4
542.866	550.2
543.268	542.5
543.691	557.4
544.093	563.5
544.517	573.4
544.919	544.8
545.343	576
545.745	547.7
546.147	555.3
546.571	551
546.974	547.6
547.398	550.7
547.8	563.7
548.224	551.6
548.627	543
549.03	556.5
549.454	553.2
549.857	545.3
550.281	547.7
550.684	543.8
551.087	560.5
551.512	554.4
551.915	558.9
552.34	555
552.743	547.6
553.146	548.4
553.571	553.3
553.975	571.3
554.399	547.4
554.803	600
555.207	553.1
555.632	545.2
556.036	559.2
556.461	541.1
556.865	552.9
557.268	545.6
557.694	552.8
558.098	557.4
558.502	554.3
558.927	550
559.332	551.9
559.736	546.9
560.162	562.3
560.566	552.3
560.992	557.3
561.396	551.8
561.801	546.6
562.227	557.9
562.631	552.1
563.036	556.5
563.462	555.2
563.867	556
564.272	543.7
564.698	556
565.103	546.4
565.508	567.1
565.935	549.2
566.34	546
566.745	559.8
567.172	551.7
567.577	572.3
567.982	559
568.409	558
568.815	541.6
569.22	554.4
569.626	558.7
570.053	538
570.459	554.7
570.865	560.4
571.292	562
571.698	547.7
572.104	541
572.531	541.6
572.937	562
573.343	546.7
573.75	552.2
574.177	549.4
574.583	553.4
574.99	546.1
575.396	551.8
575.824	544.4
576.231	548.4
576.637	543.8
577.065	572.9
577.472	545.9
577.879	546.4
578.286	563.7
578.714	545.4
579.121	545.6
579.528	547.7
579.935	561.8
580.364	546.9
580.771	531.5
581.178	547.2
581.585	552.8
582.014	557.4
582.421	546.4
582.829	550.9
583.236	558
583.644	537.4
584.073	546.4
584.481	547.3
584.889	544.5
585.296	561.2
585.726	545.9
586.134	542.5
586.542	540.4
586.95	565.6
587.358	539.8
587.787	553.9
588.196	539.9
588.604	543.1
589.012	548.6
589.421	540.9
589.851	541.9
590.259	556.2
590.668	546.9
591.076	583.3
591.485	545.9
591.894	545.3
592.324	560.9
592.733	562.3
593.142	541.1
593.551	549.4
593.96	575.9
594.369	540.9
594.8	541.1
595.209	547.1
595.618	538
596.028	546.5
596.437	536
596.847	552.1
597.256	554.9
597.687	556
598.097	543.2
598.507	537.2
598.917	550.5
599.327	557.9
599.736	553.3
600.146	561.1
600.556	552.4
600.988	563.1
601.398	550.5
601.808	558.1
602.219	539.6
602.629	554.4
603.039	552.6
603.45	573
603.86	550.4
604.271	562.3
604.703	549.2
605.114	553.1
605.525	551.3
605.935	560.1
606.346	569.2
606.757	553.7
607.168	552.8
607.579	548.2
607.99	560.9
608.402	553.3
608.813	555.4
609.224	552.1
609.636	539.1
610.047	538.3
610.48	550.9
610.892	561.1
611.303	557.8
611.715	550.7
612.127	544.2
612.539	545.3
612.95	551.4
613.362	543.1
613.774	541.3
614.186	540.9
614.599	545
615.011	559.5
615.423	543.6
615.835	549.2
616.248	541.9
616.66	551.1
617.073	541.1
617.485	547.9
617.898	550.6
618.311	553
618.723	541.6
619.136	578.2
619.549	554.4
619.962	566.8
620.375	543.1
620.788	547.7
621.201	538.4
621.614	554
622.028	548.1
622.441	548.4
622.854	556.3
623.268	542.6
623.681	549
624.095	542.5
624.509	555.2
624.922	552.2
625.336	540.2
625.728	545.7
626.142	559
626.556	560.2
626.97	551
627.384	541.9
627.799	544.3
628.213	552.1
628.627	544.5
629.041	546
629.456	543
629.87	547
630.285	556.1
630.699	556.7
631.093	546.3
631.507	552.7
631.922	547.8
632.337	559.7
632.752	542.1
633.167	546.3
633.582	546.5
633.997	543.9
634.412	539
634.806	548.8
635.221	535.9
635.637	551.8
636.052	541.4
636.468	544.4
636.883	567.2
637.299	548.2
637.715	532.9
638.109	545
638.525	536.5
638.941	560.4
639.357	546
639.773	562.8
640.189	541.8
640.584	549.6
641	548.7
641.416	538.3
641.832	545.9
642.249	544.3
642.665	544.7
643.06	552.9
643.477	554.6
643.894	540.5
644.31	549.9
644.727	549.2
645.123	545.2
645.54	541.3
645.957	547.6
646.374	552.8
646.77	545.6
647.187	576.7
647.604	547.4
648.021	538.4
648.439	539.3
648.835	547.7
649.252	545.6
649.67	548.5
650.088	549
650.484	550.6
650.902	551.2
651.32	554.8
651.738	543
652.134	550.1
652.552	564.9
652.971	550.6
653.389	546.3
653.786	560.6
654.204	545.1
654.622	538
655.019	551.4
655.438	548.7
655.857	548.7
656.275	553.7
656.673	540.5
657.091	612.9
657.51	544.1
657.908	556.3
658.327	565.4
658.746	536.3
659.144	552.6
659.563	562.4
659.982	550.6
660.38	538.4
660.8	549.7
661.219	556.1
661.617	547.6
662.037	554.9
662.457	558.8
662.855	536.4
663.275	576.4
663.695	550.4
664.094	547.2
664.514	551.8
664.934	539
665.333	554.6
665.753	545.6
666.152	538.4
666.572	541
666.993	551.5
667.392	542.8
667.812	543.6
668.212	538.9
668.632	549.8
669.053	541.8
669.453	546.1
669.874	541.9
670.273	544.4
670.694	534.6
671.116	550.7
671.515	553.7
671.937	538.5
672.337	538.8
672.758	540.2
673.158	548.1
673.58	534.4
673.98	548.2
674.402	557.2
674.824	545.9
675.224	540.6
675.646	538.3
676.047	540.6
676.469	545.5
676.869	548.9
677.292	548.3
677.693	542.9
678.115	542.5
678.516	552.1
678.939	547.3
679.34	544.2
679.762	553.8
680.164	552.8
680.586	538
680.988	546.1
681.411	567.1
681.812	542.3
682.236	536.5
682.637	536.6
683.061	539.1
683.462	547.3
683.864	542.1
684.288	550.2
684.69	540.3
685.114	558.5
685.516	554.9
685.94	540.1
686.342	555.2
686.766	540.3
687.168	541.2
687.571	561
687.995	543.6
688.398	539.9
688.822	550.6
689.225	562.8
689.628	556.7
690.052	544.8
690.456	551.1
690.88	545.4
691.284	540.5
691.687	555.2
692.112	533
692.515	534.8
692.919	551.6
693.344	548.4
693.747	542.2
694.173	544.4
694.577	558.5
694.98	540.3
695.406	545.3
695.81	546.6
696.214	548
696.64	546.1
697.044	552.3
697.448	555.5
697.874	545.5
698.279	540.9
698.684	540.6
699.11	536.3
699.514	545.6
699.919	543.1
700.324	536.2
700.75	548.6
701.156	545.8
701.561	557.9
701.987	546.7
702.393	545.1
702.798	553.9
703.203	547.4
703.63	537
704.036	540.9
704.442	546.3
704.847	536.1
705.274	542.2
705.68	545.2
706.086	555.4
706.492	537.5
706.92	548.7
707.326	552.6
707.732	546.6
708.139	541.6
708.545	538.1
708.973	546
709.38	542.9
709.786	533
710.193	561.8
710.6	542.6
711.028	537
711.435	544.8
711.842	542.9
712.249	541.7
712.656	542
713.064	552.3
713.492	535.8
713.9	538.3
714.307	544.7
714.715	542.9
715.123	546.5
715.53	547.2
715.938	548.5
716.367	543
716.775	540.2
717.184	537.2
717.592	533.5
718	551.8
718.408	570.4
718.816	581.2
719.225	547.6
719.633	538.3
720.042	532.7
720.472	541.2
720.881	557.5
721.29	544.1
721.699	538.3
722.108	547.4
722.517	547.7
722.926	536.4
723.335	553.5
723.744	545.4
724.154	539.3
724.563	544.3
724.973	543.4
725.382	547.3
725.792	543.5
726.202	536.6
726.612	548.3
727.022	545.2
727.432	539.3
779.813	537.8
780.223	581.8
780.634	540.6
781.044	537.6
781.454	542.3
781.865	553.6
782.276	537
782.686	554.3
783.097	542.5
783.508	542.9
783.919	541.5
784.33	555.6
784.741	555.6
785.152	537.5
785.563	534.3
785.974	538.7
786.386	552.5
786.776	542.4
787.188	545.4
787.599	541.9
788.011	549.7
788.423	547.8
788.835	535.6
789.247	533.3
789.659	538.6
790.071	539.3
790.483	586.3
790.874	541.9
791.286	548.3
791.699	538.5
792.111	545
792.524	549.9
792.937	546.2
793.349	536.3
793.741	542.5
794.154	543.8
794.567	558.5
794.98	538.9
795.393	533.2
795.785	557.7
796.198	536.9
796.612	540.7
797.026	538.1
797.439	528.3
797.831	541.4
798.245	531.4
798.659	535.4
799.073	539
799.487	533.9
799.88	540
800.294	538.6
800.708	545.8
801.123	539.8
801.516	557.5
801.93	526.6
802.345	530.1
802.76	544.7
803.153	555.8
803.568	554.1
803.983	551.7
804.377	544.5
804.792	530.6
805.207	530.2
805.601	537.4
806.016	571.4
806.432	534.2
806.826	568.2
807.242	555.6
807.658	552.2
808.052	539.1
808.468	543.1
808.884	538.1
809.279	542.2
809.695	552
810.111	562.5
810.506	543.7
810.922	556.4
811.339	536.1
811.734	551.4
812.151	541
812.546	536.5
812.963	540.2
813.38	547.2
813.776	538.4
814.193	555.8
814.589	534
815.006	535.7
815.402	527.1
815.82	538.3
816.237	537
816.633	540.2
817.051	529.4
817.448	538.6
817.866	532.1
818.262	552.7
818.68	529.8
819.077	531
819.495	539.7
819.892	577.4
820.311	534.5
820.708	534.5
821.127	536.7
821.524	551.6
821.943	544.8
822.34	558.1
822.759	539.1
823.157	539.6
823.576	555.3
823.974	544
824.393	547.1
824.791	533.1
825.189	534.2
825.609	535.1
826.007	539.9
826.427	527.5
826.826	542.7
827.246	544.3
827.644	527.4
828.043	551.7
828.463	537.3
828.862	545.6
829.261	549.3
829.682	530.1
830.081	548.1
830.502	530.3
830.901	541.9
831.301	536.3
831.722	533.1
832.121	534.8
832.521	532.6
832.943	541.5
833.342	537.8
833.742	529.7
834.164	537.2
834.564	527.8
834.965	535.6
835.386	539.1
835.787	537.6
836.188	542.3
836.588	545
837.01	539.2
837.411	534.7
837.812	546.3
838.213	538.6
838.636	537.5
839.037	602.4
839.438	543.1
839.84	544.5
840.263	544.4
840.664	541.6
841.066	542.1
841.468	540
841.891	530.9
842.293	546.2
842.695	543
843.098	549.4
843.5	541.9
843.902	545.4
844.326	543.7
844.729	539.3
845.131	549.3
845.534	543.2
845.937	550.6
846.34	554.2
846.764	533
847.167	545.5
847.571	534.1
847.974	539.2
848.377	533
