#lambda/nm	C1
208.295	474.5
208.67	443.8
209.045	401.3
209.419	405.8
209.794	567.2
210.169	547.7
210.544	653.7
210.919	563.6
211.295	549.1
211.67	558.1
212.045	555.1
212.421	557.1
212.796	591.8
213.172	555.5
213.547	558.9
213.923	556.1
214.299	554.8
214.675	569.4
215.051	562.8
215.427	564.2
215.803	571.8
216.179	567.5
216.555	553.6
216.932	566.2
217.308	556.6
217.684	557.7
218.061	563.6
218.438	561.2
218.814	558.1
219.191	564
219.568	555
219.945	560.9
220.322	568.6
220.699	560.3
221.076	568.9
221.453	564.1
221.83	551.1
222.208	560.7
222.585	562.8
222.962	562.6
223.34	565.5
223.717	558.3
224.095	558.5
224.473	564.2
224.851	547.2
225.229	554.2
225.607	571
225.985	549.7
226.363	557.8
226.741	564.3
227.119	563.1
227.497	575.3
227.876	552.9
228.254	561.8
228.633	570.6
229.011	557.8
229.39	567.3
229.769	563.2
230.148	568.1
230.527	576.4
230.905	558.7
231.284	562.9
231.664	554.2
232.043	569.1
232.422	567.6
232.801	552.6
233.181	564.1
233.56	558.8
233.94	563.3
234.319	549.8
234.699	557.7
235.079	596.2
235.458	593.2
235.838	568.7
236.218	557.7
236.598	553
236.978	559.2
237.358	556.6
237.738	557.1
238.119	567.5
238.499	554.8
238.88	562.1
239.26	574.9
239.641	544.9
240.021	559.4
240.402	562.2
240.783	552.4
241.163	561.2
241.544	565.5
241.925	564.6
242.306	576.4
242.687	557.7
243.069	565.2
243.45	567.2
243.831	551
244.212	558.2
244.594	589.9
244.975	564.3
245.357	564.8
245.739	548.3
246.12	558.4
246.502	568.6
246.884	554.7
247.266	549.8
247.648	561
248.03	579.5
248.412	561.2
248.794	558.7
249.176	555.2
249.559	572.3
249.941	551.8
250.323	550.4
250.706	552.3
251.089	554.3
251.471	564.3
251.854	561.1
252.237	561.9
252.62	568.9
253.002	554
253.385	558.2
253.769	573.9
254.152	563.5
254.535	563.6
254.918	551.9
255.301	562.1
255.685	554.7
256.068	554.1
256.452	579.8
256.835	565.6
257.219	566.7
257.603	568.3
257.986	555.9
258.37	563.7
258.754	550.3
259.138	569
259.522	571.7
259.906	558.4
260.29	561.6
260.675	551.2
261.059	561.6
261.443	551.3
261.828	566.9
262.212	567.6
262.597	554.1
262.981	556.4
263.366	570.2
263.751	559.8
264.136	558.7
264.521	559.1
264.906	551
265.291	574
265.676	554.2
266.061	569.2
266.446	576.9
266.831	557.9
267.217	576.4
267.602	565.1
267.987	560.6
268.373	558.6
268.759	564.8
269.144	560.2
269.53	560.8
269.916	556.5
270.302	555.8
270.688	561.8
271.074	560.4
271.46	567.4
271.846	585.5
272.232	561.3
272.618	555.7
273.004	554.6
273.391	569
273.777	574.7
274.164	560.1
274.55	575.7
274.937	563.7
275.324	556
275.71	558.1
276.097	563.6
276.484	555.9
276.871	566.5
277.258	566.4
277.645	554.6
278.032	560.7
278.419	557.8
278.807	562.6
279.194	551.9
279.581	558.8
279.969	562.8
280.356	562.6
280.744	560.5
281.131	576.2
281.519	573.3
281.907	559
282.295	561.3
282.682	574.8
283.07	567
283.458	570.5
283.846	569.8
284.235	572.2
284.623	568.6
285.011	551.6
285.399	566.5
285.788	557.5
286.176	555.1
286.565	568.9
286.953	561.3
287.342	560
287.731	555.2
288.119	552.9
288.508	554.5
288.897	562.8
289.286	553
289.675	564.4
290.064	570.3
290.453	554.3
290.821	562.2
291.21	574.2
291.599	558.3
291.989	563.1
292.378	566.7
292.768	580.2
293.157	561.6
293.547	566.4
293.936	559.4
294.326	556.1
294.716	566.8
295.106	556
295.496	568.1
295.886	568.8
296.276	560.5
296.666	559.2
297.056	559.7
297.446	552.4
297.836	583.3
298.227	557.9
298.617	568.4
299.008	573
299.398	561.4
299.789	556.5
300.179	562.1
300.57	574.6
300.961	556.1
301.352	553
301.742	566.5
302.133	559.8
302.524	562.4
302.915	563.9
303.307	556.1
303.698	568.1
304.089	567
304.48	561.1
304.872	566.1
305.263	560.2
305.655	555.9
306.046	563.9
306.438	564.4
306.829	558.4
307.221	572.6
307.613	563.7
308.005	570.7
308.397	571.8
308.789	577.8
309.181	588.6
309.573	577.1
309.965	576.2
310.357	562.3
310.749	574.3
311.142	550.7
311.534	560
311.926	571.8
312.319	560.3
312.711	558.9
313.104	572.5
313.497	553.8
313.889	596.3
314.282	567.7
314.675	586.8
315.068	564.9
315.461	567.5
315.854	588
316.247	569
316.64	561.5
317.033	565.1
317.405	568.6
317.798	563.1
318.192	568.3
318.585	552.7
318.979	562.1
319.372	555.1
319.766	557.2
320.16	567.2
320.553	574.9
320.947	585.2
321.341	554.5
321.735	563.8
322.129	549
322.523	587.9
322.917	561.4
323.311	570
323.705	561.5
324.099	563.5
324.494	578.5
324.888	566.7
325.282	556.6
325.677	565.6
326.071	566.1
326.466	573.8
326.861	567.5
327.255	575.1
327.65	577.3
328.045	579.1
328.44	570.5
328.835	564.1
329.23	554.4
329.625	582.4
330.02	562.1
330.415	579.1
330.81	556.7
331.206	564.8
331.601	559
331.996	571
332.37	570.9
332.766	554.3
333.161	587.2
333.557	556
333.953	564.3
334.348	843.1
334.744	564.6
335.14	559.1
335.536	557
335.932	571.3
336.328	558.5
336.724	568.2
337.12	559.7
337.516	564.9
337.913	566.7
338.309	578.4
338.705	561.9
339.102	569.8
339.498	559.3
339.895	574.3
340.291	557.4
340.688	571.2
341.085	553.2
341.481	555.7
341.878	559.6
342.275	574.9
342.672	552.4
343.069	554.9
343.466	546.5
343.842	569.5
344.239	558
344.636	555.4
345.033	554.2
345.431	552.1
345.828	563.4
346.225	555.3
346.623	568.3
347.02	560.2
347.418	563.1
347.816	568.8
348.213	556.1
348.611	561.8
349.009	554.6
349.407	567.8
349.805	554.2
350.203	548.5
350.601	572.6
350.999	553.8
351.397	554.7
351.795	560.6
352.193	571.8
352.57	568.3
352.969	572.7
353.367	555.6
353.766	551.3
354.164	556.6
354.563	567.3
354.961	555.4
355.36	557
355.759	555.3
356.158	552.9
356.557	551.3
356.956	551
357.355	549.5
357.754	562.6
358.153	566.4
358.552	584
358.951	559.5
359.35	566.6
359.75	557
360.149	555.3
360.527	542.2
360.926	549.9
361.326	555.6
361.726	558.7
362.125	551.8
362.525	566.3
362.925	556.9
363.325	560.4
363.724	556.8
364.124	548.4
364.524	547
364.924	550.3
365.324	563.2
365.725	541.9
366.125	559.2
366.525	555.8
366.904	550.7
367.304	537.9
367.705	568.4
368.105	560.3
368.506	549
368.906	557
369.307	556.2
369.708	562.4
370.108	546.5
370.509	565.3
370.91	550.9
371.311	563.6
371.712	555.7
372.113	550.5
372.514	543.8
372.894	553.3
373.295	552.3
373.696	560.7
374.097	562.3
374.499	581.6
374.9	556.1
375.301	551.1
375.703	553.1
376.105	550.5
376.506	558.7
376.908	559.4
377.309	553.6
377.711	552.5
378.113	551.2
378.493	556
378.895	549.8
379.297	563.1
379.699	550.4
380.102	554.8
380.504	554.7
380.906	551.4
381.308	575.6
381.71	549.3
382.113	562.1
382.515	552
382.918	554.8
383.299	551.6
383.701	561.6
384.104	556.9
384.507	534.6
384.909	555.3
385.312	547.2
385.715	549.2
386.118	558.2
386.521	547.6
386.924	562.2
387.327	551
387.709	545.3
388.112	539.9
388.515	550.5
388.918	555.6
389.322	560.1
389.725	545.4
390.129	571.3
390.532	559.6
390.936	551.8
391.339	541.4
391.743	555.9
392.125	549.7
392.529	563.2
392.933	564.4
393.337	550
393.74	551.7
394.144	549.5
394.548	547.9
394.953	550.1
395.357	555.7
395.761	554.3
396.144	556.4
396.548	553.4
396.952	546.2
397.357	554.1
397.761	548.5
398.166	550.5
398.57	543.1
398.975	546.3
399.379	555
399.763	596.4
400.168	559.6
400.572	552.1
400.977	551.1
401.382	567
401.787	558.1
402.192	574.1
402.597	565.3
403.002	541.9
403.386	563.5
403.791	573.4
404.197	546.9
404.602	552.9
405.007	556
405.413	551
405.818	549.1
406.224	544.8
406.608	545.7
407.014	549
407.42	569
407.825	550.5
408.231	565.6
408.637	555.7
409.043	571.9
409.449	549.8
409.834	546.4
410.24	552.8
410.646	566.4
411.052	560.6
411.458	553.6
411.865	565.2
412.271	556.8
412.677	553.9
413.062	558.7
413.469	547.1
413.875	577
414.282	565.4
414.689	559.3
415.095	567.1
415.502	544
415.888	555.1
416.294	537.3
416.701	589.7
417.108	550.4
417.515	559.1
417.923	553.3
418.33	571.9
418.715	564.5
419.123	553.7
419.53	550.9
419.937	557.4
420.345	572
420.752	551.7
421.16	561.5
421.546	552.3
421.953	564.3
422.361	550.7
422.769	551.6
423.177	546.2
423.585	577.1
423.992	577
424.379	559.8
424.787	555.6
425.195	578.9
425.603	559.7
426.011	565.7
426.419	564.5
426.806	557.4
427.214	559.2
427.623	562.3
428.031	571.1
428.44	557.6
428.848	564.1
429.235	569.4
429.644	558.4
430.053	556.1
430.461	573.4
430.87	579.6
431.279	568.3
431.666	549.5
432.075	559.5
432.484	556
432.893	555.1
433.302	576.6
433.711	595
434.099	561.1
434.508	551.6
434.918	541.6
435.327	566.6
435.737	554.1
436.125	556.2
436.534	556.5
436.944	559.1
437.353	557.7
437.763	570.4
438.173	546.4
438.561	563.1
438.971	533.2
439.381	547.1
439.791	555.7
440.201	533.7
440.589	551.3
440.999	561.9
441.409	557.3
441.819	544.9
442.23	557.6
442.619	558.4
443.029	557.5
443.439	552.6
443.85	563.6
444.26	563
444.649	561.5
445.06	552
445.471	546.5
445.881	553.6
446.292	566.2
446.682	571.7
447.092	539.2
447.503	592.3
447.914	553
448.325	557.1
448.715	549.6
449.126	546.9
449.537	547.6
449.948	553.3
450.338	551.1
450.75	554.7
451.161	552.1
451.572	556.8
451.984	550.5
452.374	533.6
452.786	549.3
453.197	550.6
453.609	559.5
453.999	539.9
454.411	545
454.823	555.8
455.235	555.5
455.647	550.6
456.037	549.7
456.449	538.8
456.862	547
457.274	551.7
457.665	542.7
458.077	555.6
458.489	560.7
458.902	550.2
459.293	545.6
459.705	545.9
460.118	547
460.53	553.5
460.921	551
461.334	550.7
461.747	551.2
462.16	556.5
462.551	552.6
462.964	547
463.377	537.9
463.79	551
464.182	558.9
464.595	542.2
465.008	550.5
465.421	550.5
465.813	548.1
466.226	551.7
466.64	542.2
467.053	594.8
467.445	557.3
467.859	550.2
468.272	554.1
468.686	558.5
469.078	546.3
469.492	538.1
469.906	545.8
470.298	556.8
470.712	543.7
471.126	573.8
471.54	539.7
471.933	544.4
472.347	546.2
472.761	540.7
473.175	542.3
473.568	542.9
473.982	542.7
474.397	546.6
474.79	546.4
475.204	558.4
475.619	545.5
476.033	548.9
476.426	549.9
476.841	541.6
477.256	567.7
477.649	540
478.064	546.4
478.479	538.3
478.872	538.5
479.287	530.8
479.702	543.4
480.118	547.5
480.511	542.3
480.927	541.8
481.342	544.3
481.736	552.9
482.151	538.2
482.566	554.5
482.96	549.2
483.376	553.7
483.792	536.4
484.186	547.4
484.602	543.8
485.017	542.5
485.412	545.1
485.827	553.9
486.243	549
486.638	566
487.054	555.2
487.47	558.3
487.865	546.1
488.281	538.5
488.697	539.9
489.092	542.3
489.508	535.3
489.925	549.9
490.32	535.1
490.736	554
491.153	548.6
491.548	546.7
491.964	555.4
492.381	537
492.776	544
493.193	546.7
493.61	545.6
494.006	548.1
494.422	550.1
494.84	538.3
495.235	555.4
495.652	545.3
496.069	545.9
496.465	538
496.883	544.3
497.3	567
497.696	537.4
498.113	551.5
498.509	537.4
498.927	542.7
499.344	541.3
499.741	541.4
500.158	545.9
500.576	551.8
500.973	548.5
501.39	537.6
501.787	540.5
502.205	543.8
502.623	543.2
503.02	535.7
503.438	542
503.856	544.6
504.253	546.9
504.671	544.7
505.068	537.3
505.486	541.1
505.905	560.9
506.302	547.6
506.72	554.5
507.118	533.2
507.536	541.8
507.955	539.3
508.352	547.3
508.771	549.1
509.169	545.1
509.587	541.7
510.006	542
510.404	533.7
510.823	536.6
511.221	536.3
511.64	539.9
512.038	554.7
512.457	543.7
512.877	537.7
513.275	538.9
513.694	546.5
514.092	545.4
514.512	548.1
514.91	545
515.33	543.5
515.749	548.3
516.148	546.2
516.568	544.6
516.966	540.8
517.386	542.1
517.785	540.6
518.205	540.3
518.603	538.9
519.024	536.2
519.444	547.6
519.843	552.7
520.263	549.5
520.662	543.8
521.082	539.6
521.481	546.7
521.902	541.6
522.301	545.2
522.722	543
523.121	538.9
523.542	542.4
523.963	540.8
524.362	546.4
524.783	548.2
525.183	538
525.604	544.7
526.003	540
526.425	537.9
526.824	549.4
527.246	552.8
527.646	553.5
528.067	549.4
528.467	545.5
528.888	551.2
529.289	544.9
529.71	544
530.11	544.3
530.532	536.5
530.932	536.1
531.354	529.6
531.755	570.2
532.176	547.3
532.577	542.7
532.999	534.6
533.4	534.2
533.822	548.7
534.223	540.2
534.645	538.4
535.046	540.3
535.468	541.4
535.869	549.7
536.292	535.6
536.693	534.7
537.115	542
537.516	534.4
537.939	538
538.34	553.9
538.742	549.5
539.165	544.6
539.566	542.5
539.989	532.4
540.391	537.5
540.814	542.8
541.216	541.5
541.639	538.8
542.041	546.7
542.464	536.9
542.866	535.8
543.268	533
543.691	543.6
544.093	544.8
544.517	557.2
544.919	529.5
545.343	556.9
545.745	532.7
546.147	542.8
546.571	540
546.974	533.4
547.398	538
547.8	550.3
548.224	540.2
548.627	530.9
549.03	545.9
549.454	538.5
549.857	534.2
550.281	537.3
550.684	533.8
551.087	548
551.512	538.7
551.915	545.4
552.34	535.3
552.743	538.5
553.146	539.9
553.571	540.9
553.975	550.2
554.399	536
554.803	585.6
555.207	543.1
555.632	531.4
556.036	541.2
556.461	532.5
556.865	542.8
557.268	532.1
557.694	533.3
558.098	546
558.502	544.8
558.927	532.1
559.332	538.2
559.736	533.9
560.162	543.4
560.566	538.3
560.992	545.4
561.396	545.3
561.801	540.9
562.227	544.1
562.631	542.3
563.036	543.1
563.462	543.9
563.867	536.4
564.272	529.7
564.698	537.5
565.103	534.7
565.508	558.7
565.935	539.6
566.34	537.1
566.745	543.3
567.172	535.9
567.577	557.6
567.982	553.4
568.409	542.5
568.815	532.2
569.22	542.1
569.626	543.2
570.053	526.9
570.459	540
570.865	546
571.292	547.2
571.698	544.9
572.104	529.8
572.531	535.6
572.937	550.8
573.343	543.1
573.75	533.9
574.177	544.1
574.583	542.4
574.99	542.4
575.396	542.2
575.824	535.2
576.231	546.6
576.637	536.9
577.065	555.2
577.472	534.3
577.879	533.7
578.286	549.5
578.714	532.7
579.121	537.3
579.528	536.3
579.935	546.6
580.364	542.6
580.771	529.4
581.178	536.8
581.585	540.1
582.014	539.5
582.421	535.8
582.829	534.8
583.236	546.7
583.644	533.5
584.073	537
584.481	544.2
584.889	532.6
585.296	534.8
585.726	542.1
586.134	534.1
586.542	536.4
586.95	554.7
587.358	530.2
587.787	529.9
588.196	520.5
588.604	534.9
589.012	536.3
589.421	526.1
589.851	531.4
590.259	537.4
590.668	534.7
591.076	572.4
591.485	530.5
591.894	535.5
592.324	545.9
592.733	548
593.142	530.1
593.551	537.8
593.96	569.7
594.369	533
594.8	528.6
595.209	530.3
595.618	528.7
596.028	530.2
596.437	534.8
596.847	539.8
597.256	534.8
597.687	539.4
598.097	536.2
598.507	530.3
598.917	541.7
599.327	541.5
599.736	540.4
600.146	544.7
600.556	541.5
600.988	550.3
601.398	537.3
601.808	548.2
602.219	522.5
602.629	534.8
603.039	541
603.45	556.6
603.86	536.9
604.271	552.7
604.703	537.5
605.114	541.4
605.525	534.4
605.935	539.7
606.346	557.5
606.757	545.6
607.168	536.9
607.579	532.5
607.99	538.1
608.402	541.6
608.813	550.4
609.224	531.4
609.636	531.2
610.047	529.4
610.48	535.2
610.892	544.6
611.303	543
611.715	530.4
612.127	534
612.539	534.7
612.95	539
613.362	528.1
613.774	527.3
614.186	530.5
614.599	524.5
615.011	543.7
615.423	529.9
615.835	536.9
616.248	528.5
616.66	541.5
617.073	531
617.485	535.7
617.898	544.3
618.311	539
618.723	529.5
619.136	563.9
619.549	551.4
619.962	555.7
620.375	533.6
620.788	538.7
621.201	533.6
621.614	542.6
622.028	532.2
622.441	536.8
622.854	553.3
623.268	524.8
623.681	539.8
624.095	537.6
624.509	545.5
624.922	541.4
625.336	531.9
625.728	527.9
626.142	548.7
626.556	549.8
626.97	542.6
627.384	528.1
627.799	536.1
628.213	547.8
628.627	533.4
629.041	531.9
629.456	532.1
629.87	534
630.285	544.2
630.699	541.5
631.093	527
631.507	535.1
631.922	540.8
632.337	547.1
632.752	525.4
633.167	530.8
633.582	531.3
633.997	533.5
634.412	529
634.806	538.1
635.221	529.1
635.637	542.2
636.052	523.4
636.468	535.8
636.883	551.7
637.299	532.4
637.715	525.4
638.109	533.7
638.525	520.6
638.941	548.3
639.357	535.7
639.773	543.1
640.189	535.2
640.584	534.8
641	536.4
641.416	526.4
641.832	532.2
642.249	532
642.665	531.5
643.06	535.7
643.477	545.1
643.894	526.6
644.31	531.9
644.727	531.6
645.123	534.1
645.54	530.6
645.957	536.8
646.374	541.6
646.77	537.2
647.187	558.6
647.604	533.5
648.021	522.2
648.439	532.8
648.835	535.6
649.252	532.2
649.67	527.4
650.088	529.1
650.484	535.5
650.902	532.9
651.32	539.3
651.738	532.4
652.134	531.9
652.552	545.4
652.971	536.3
653.389	529
653.786	549.4
654.204	537
654.622	529.7
655.019	535.2
655.438	538.7
655.857	535
656.275	536.9
656.673	529.3
657.091	599.5
657.51	532.2
657.908	540.7
658.327	551.3
658.746	525.3
659.144	532.7
659.563	549.9
659.982	539.8
660.38	526.2
660.8	537.9
661.219	546.4
661.617	539.2
662.037	532.1
662.457	542.9
662.855	528
663.275	557.4
663.695	534.9
664.094	532.7
664.514	534
664.934	526.7
665.333	543.2
665.753	528.2
666.152	530.3
666.572	527
666.993	548.3
667.392	531.4
667.812	536
668.212	533.4
668.632	543.7
669.053	531.1
669.453	535.4
669.874	538.2
670.273	536.7
670.694	525.1
671.116	547.6
671.515	538.4
671.937	532.3
672.337	526.7
672.758	533.7
673.158	537
673.58	524.7
673.98	539.2
674.402	548.6
674.824	533.7
675.224	530.4
675.646	527.5
676.047	530.4
676.469	532.7
676.869	542.1
677.292	538.9
677.693	529.2
678.115	527.8
678.516	536.7
678.939	537.2
679.34	532.9
679.762	541.9
680.164	537.6
680.586	527.9
680.988	537.6
681.411	560.9
681.812	535
682.236	530.1
682.637	523.4
683.061	521.4
683.462	536.7
683.864	528
684.288	539.4
684.69	529.9
685.114	537.5
685.516	543
685.94	521.6
686.342	543
686.766	530.6
687.168	532.8
687.571	546.3
687.995	536.2
688.398	521.7
688.822	524.6
689.225	544.8
689.628	549.4
690.052	537.7
690.456	536.4
690.88	533.7
691.284	524.3
691.687	540
692.112	525.8
692.515	529.8
692.919	533.8
693.344	538.8
693.747	531.4
694.173	529.4
694.577	542.4
694.98	534.4
695.406	528.7
695.81	532.9
696.214	538.8
696.64	535.9
697.044	533.3
697.448	541.2
697.874	532.1
698.279	527.8
698.684	522.1
699.11	525.5
699.514	533.7
699.919	532
700.324	521.1
700.75	537.2
701.156	534.2
701.561	544.7
701.987	535.6
702.393	538.6
702.798	546.4
703.203	532.6
703.63	530.7
704.036	530.6
704.442	537.7
704.847	529.6
705.274	529.8
705.68	539.1
706.086	538
706.492	523.6
706.92	527.2
707.326	544.3
707.732	531.8
708.139	526.5
708.545	524
708.973	529.8
709.38	530.2
709.786	523.7
710.193	540.5
710.6	535.9
711.028	525.9
711.435	531.1
711.842	537.2
712.249	531.7
712.656	529.5
713.064	541.3
713.492	526.5
713.9	527.4
714.307	536.5
714.715	528.6
715.123	537.2
715.53	533.7
715.938	542.6
716.367	537.2
716.775	527.5
717.184	526.2
717.592	530
718	536.8
718.408	563.5
718.816	570.6
719.225	537.8
719.633	534.1
720.042	525.7
720.472	541
720.881	550.4
721.29	536.2
721.699	524
722.108	535.8
722.517	527.5
722.926	528.7
723.335	535.4
723.744	528.8
724.154	523.6
724.563	533.9
724.973	534
725.382	526.9
725.792	528.9
726.202	523.5
726.612	542.4
727.022	532.9
727.432	524.9
779.813	529
780.223	563.9
780.634	525.2
781.044	525.8
781.454	523.6
781.865	540.7
782.276	518.3
782.686	536
783.097	528.5
783.508	524.6
783.919	537.7
784.33	537.2
784.741	541.9
785.152	525
785.563	514.6
785.974	527.6
786.386	540.7
786.776	528.2
787.188	527.4
787.599	526.4
788.011	535.9
788.423	534.5
788.835	529.6
789.247	526.9
789.659	525.7
790.071	530.1
790.483	568.4
790.874	525.8
791.286	535.3
791.699	526
792.111	535.2
792.524	534.1
792.937	531.5
793.349	521
793.741	519.5
794.154	527.9
794.567	549.5
794.98	528.7
795.393	519.1
795.785	543.5
796.198	524.7
796.612	532.3
797.026	533
797.439	517.7
797.831	525.3
798.245	522
798.659	524.8
799.073	525.9
799.487	519.4
799.88	527.4
800.294	531.5
800.708	532.3
801.123	536.2
801.516	544.1
801.93	525.9
802.345	523
802.76	528.7
803.153	541.8
803.568	538.7
803.983	540.4
804.377	533
804.792	519.7
805.207	516.2
805.601	533.6
806.016	557.8
806.432	518.6
806.826	557.2
807.242	541.8
807.658	532.8
808.052	531.4
808.468	528
808.884	522.7
809.279	529.3
809.695	541.9
810.111	549.1
810.506	528.9
810.922	547.3
811.339	524.2
811.734	537.9
812.151	523.5
812.546	520.5
812.963	526.2
813.38	534.7
813.776	531.2
814.193	545.3
814.589	525.4
815.006	527.6
815.402	525.5
815.82	525.6
816.237	529.6
816.633	527.8
817.051	522
817.448	530.8
817.866	513.2
818.262	540.7
818.68	521
819.077	532.1
819.495	527.8
819.892	558.2
820.311	524
820.708	527.9
821.127	519.8
821.524	541.7
821.943	529.8
822.34	542.8
822.759	528.5
823.157	527.8
823.576	536.8
823.974	535.4
824.393	545.1
824.791	527.8
825.189	524.3
825.609	520.6
826.007	530.2
826.427	520.1
826.826	526.6
827.246	532.9
827.644	520.7
828.043	534.2
828.463	527
828.862	534
829.261	537.8
829.682	516.7
830.081	533.4
830.502	524.3
830.901	533.3
831.301	524.9
831.722	513.3
832.121	530.4
832.521	524.7
832.943	528.9
833.342	529.1
833.742	520.1
834.164	525.7
834.564	522.3
834.965	526.2
835.386	525
835.787	525.2
836.188	522.8
836.588	523.4
837.01	529.3
837.411	519.6
837.812	533.2
838.213	530.6
838.636	525.2
839.037	590.3
839.438	526.2
839.84	528.5
840.263	533
840.664	530.9
841.066	522.6
841.468	526.5
841.891	526.4
842.293	539.7
842.695	534.1
843.098	536.4
843.5	527
843.902	526.4
844.326	526.8
844.729	525.8
845.131	537
845.534	527.6
845.937	543.4
846.34	538.2
846.764	523.3
847.167	530.6
847.571	522.1
