#lambda/nm	C1
208.295	471.9
208.67	440.1
209.045	405.1
209.419	409.5
209.794	590.3
210.169	568.9
210.544	686.4
210.919	586.4
211.295	568.7
211.67	585.3
212.045	575.6
212.421	578.4
212.796	620.4
213.172	577.7
213.547	578
213.923	575.3
214.299	578.2
214.675	589
215.051	588.2
215.427	587.8
215.803	598.8
216.179	589.2
216.555	572.7
216.932	591
217.308	577.5
217.684	580.5
218.061	596
218.438	588.1
218.814	579.3
219.191	584.6
219.568	575
219.945	579.1
220.322	588.7
220.699	586.3
221.076	587.4
221.453	582
221.83	574.3
222.208	578
222.585	572.1
222.962	578.7
223.34	578.7
223.717	574.8
224.095	578.6
224.473	577.6
224.851	573.4
225.229	575.9
225.607	589.4
225.985	572.6
226.363	580.6
226.741	584.1
227.119	574.9
227.497	592.1
227.876	565.6
228.254	585.7
228.633	586.2
229.011	577.2
229.39	589.1
229.769	592.2
230.148	589.3
230.527	596.4
230.905	585.2
231.284	581.6
231.664	577.4
232.043	590.1
232.422	590.2
232.801	580.3
233.181	586.8
233.56	576
233.94	584.8
234.319	568.2
234.699	576.6
235.079	620.5
235.458	620.1
235.838	589.4
236.218	569.9
236.598	571.9
236.978	576.7
237.358	580
237.738	575.8
238.119	591.1
238.499	568.1
238.88	583.7
239.26	599.9
239.641	572.7
240.021	578.3
240.402	578.7
240.783	578.7
241.163	578.1
241.544	584.8
241.925	578.3
242.306	594.5
242.687	580
243.069	580.3
243.45	591.3
243.831	579.5
244.212	577
244.594	620
244.975	589
245.357	583.3
245.739	571.3
246.12	581.2
246.502	597.2
246.884	583
247.266	581.4
247.648	585
248.03	601.4
248.412	587
248.794	594.5
249.176	574.5
249.559	584.2
249.941	582.3
250.323	572.8
250.706	569.9
251.089	581.8
251.471	581.6
251.854	577.7
252.237	579.7
252.62	589.6
253.002	582.9
253.385	586.8
253.769	596
254.152	581.6
254.535	593.5
254.918	571.9
255.301	580.4
255.685	582.6
256.068	578.1
256.452	602.9
256.835	587.5
257.219	592.1
257.603	591.9
257.986	579.5
258.37	594.5
258.754	575.1
259.138	586.9
259.522	592.2
259.906	577.5
260.29	584.1
260.675	582.2
261.059	580.6
261.443	575.9
261.828	588.9
262.212	590.3
262.597	573.8
262.981	573.5
263.366	591.8
263.751	583.4
264.136	581
264.521	579.9
264.906	578
265.291	589.6
265.676	582.6
266.061	590.4
266.446	605.4
266.831	584.6
267.217	604.4
267.602	584.2
267.987	590
268.373	586.9
268.759	593.8
269.144	590
269.53	582.5
269.916	576.4
270.302	581.6
270.688	584.5
271.074	581.8
271.46	596.4
271.846	619.3
272.232	585.9
272.618	579.3
273.004	578.7
273.391	592.7
273.777	596.5
274.164	583.9
274.55	596.1
274.937	585.2
275.324	578.4
275.71	587.9
276.097	590.3
276.484	577.4
276.871	581.2
277.258	586.5
277.645	571.4
278.032	586.3
278.419	583.4
278.807	580
279.194	579.3
279.581	576.4
279.969	589
280.356	586.4
280.744	582.3
281.131	604.5
281.519	589.3
281.907	578.3
282.295	583
282.682	591.7
283.07	587.2
283.458	593.1
283.846	591.8
284.235	583.8
284.623	592.6
285.011	574.9
285.399	582.8
285.788	584.4
286.176	569.1
286.565	590
286.953	580.2
287.342	582.7
287.731	575.5
288.119	575.7
288.508	574.8
288.897	585.8
289.286	569
289.675	582.5
290.064	588.7
290.453	579.7
290.821	583.2
291.21	598.9
291.599	577.5
291.989	575.5
292.378	589.4
292.768	599.6
293.157	587.3
293.547	593.3
293.936	579.3
294.326	579.2
294.716	585.3
295.106	575.7
295.496	589.3
295.886	586.9
296.276	580.8
296.666	573.2
297.056	577.3
297.446	568.8
297.836	594.2
298.227	581
298.617	581.3
299.008	594.2
299.398	583.1
299.789	576.2
300.179	588.2
300.57	595.8
300.961	581.4
301.352	583.1
301.742	590.5
302.133	585.6
302.524	584.4
302.915	583.9
303.307	578.8
303.698	595.2
304.089	588.5
304.48	583.7
304.872	586.3
305.263	590.2
305.655	583.8
306.046	587.1
306.438	590.5
306.829	577.9
307.221	594.5
307.613	593.1
308.005	594.3
308.397	600.6
308.789	600
309.181	611.2
309.573	602.2
309.965	594.3
310.357	582.3
310.749	588.5
311.142	581
311.534	582.6
311.926	588.3
312.319	585.5
312.711	581.8
313.104	595.8
313.497	582.3
313.889	625.6
314.282	599.7
314.675	607.8
315.068	584.7
315.461	593.2
315.854	614.4
316.247	584.8
316.64	577
317.033	582.1
317.405	594.8
317.798	581.5
318.192	588.3
318.585	578.6
318.979	588.2
319.372	575.9
319.766	580.8
320.16	588.4
320.553	592.9
320.947	601.7
321.341	578.5
321.735	585
322.129	571.2
322.523	606
322.917	568.5
323.311	593.1
323.705	588.3
324.099	585.8
324.494	600.6
324.888	591.7
325.282	583.7
325.677	592.5
326.071	591.2
326.466	596.8
326.861	587.9
327.255	593.6
327.65	603.6
328.045	604.2
328.44	586.6
328.835	582.1
329.23	582.8
329.625	609.5
330.02	575.3
330.415	604
330.81	587.8
331.206	585.4
331.601	582.4
331.996	586.8
332.37	600.7
332.766	572.5
333.161	607.8
333.557	574.5
333.953	582.5
334.348	961.5
334.744	585.4
335.14	580.2
335.536	576.1
335.932	593.1
336.328	584.4
336.724	593
337.12	583.4
337.516	585.8
337.913	585.1
338.309	597.2
338.705	587.3
339.102	596.6
339.498	581.3
339.895	598.9
340.291	576.5
340.688	594.5
341.085	575.9
341.481	577.1
341.878	583.5
342.275	604.4
342.672	574.8
343.069	577.5
343.466	563.6
343.842	591.3
344.239	577.5
344.636	582
345.033	575.2
345.431	576.7
345.828	583.1
346.225	578.4
346.623	590.2
347.02	581
347.418	594.4
347.816	595.3
348.213	571.8
348.611	586.5
349.009	579
349.407	590.9
349.805	571.9
350.203	574.8
350.601	592.4
350.999	577.3
351.397	582.4
351.795	575.7
352.193	589.9
352.57	595.1
352.969	594.2
353.367	567.5
353.766	572.9
354.164	583
354.563	590.5
354.961	583.2
355.36	577.2
355.759	581.4
356.158	574.3
356.557	573.1
356.956	571.2
357.355	565.1
357.754	580.1
358.153	587.4
358.552	605.9
358.951	571.3
359.35	591.4
359.75	571.3
360.149	570.5
360.527	569.2
360.926	569.2
361.326	578.7
361.726	585.3
362.125	572.6
362.525	582.8
362.925	575.8
363.325	580.2
363.724	579.9
364.124	578.6
364.524	576.4
364.924	577
365.324	586.3
365.725	568.3
366.125	581.5
366.525	580.5
366.904	573.4
367.304	564.4
367.705	596.5
368.105	590.4
368.506	579.8
368.906	580.3
369.307	578.5
369.708	584.2
370.108	564.8
370.509	586.7
370.91	572.8
371.311	576.4
371.712	580.1
372.113	572.5
372.514	571.5
372.894	572.4
373.295	572.7
373.696	589.5
374.097	585.6
374.499	600.2
374.9	581.7
375.301	569
375.703	580.3
376.105	572.5
376.506	580.4
376.908	576.6
377.309	579.3
377.711	574.7
378.113	566.4
378.493	579.9
378.895	569.3
379.297	577.7
379.699	564.1
380.102	587.3
380.504	575.6
380.906	569.3
381.308	598.2
381.71	575.4
382.113	583.9
382.515	572.2
382.918	579.7
383.299	576.6
383.701	587
384.104	585.4
384.507	558.7
384.909	575.1
385.312	572.1
385.715	570.6
386.118	571.1
386.521	562.5
386.924	584.4
387.327	572.9
387.709	562.8
388.112	556.7
388.515	569.2
388.918	572.5
389.322	571.1
389.725	572.9
390.129	597.2
390.532	575.7
390.936	570.2
391.339	568.5
391.743	578.2
392.125	570.5
392.529	579
392.933	589.3
393.337	577.6
393.74	570.3
394.144	576.2
394.548	565.9
394.953	575.9
395.357	579.6
395.761	571.8
396.144	578.1
396.548	577.4
396.952	573.4
397.357	578.2
397.761	571.2
398.166	568.4
398.57	576.8
398.975	567
399.379	577.1
399.763	615.3
400.168	570
400.572	571.3
400.977	573.8
401.382	599
401.787	587.3
402.192	594.1
402.597	592.8
403.002	566.6
403.386	586.5
403.791	596.4
404.197	572.9
404.602	571.8
405.007	574.7
405.413	572.8
405.818	565.1
406.224	573.1
406.608	567.9
407.014	568.3
407.42	594
407.825	567.8
408.231	588.1
408.637	578.1
409.043	591.4
409.449	569
409.834	570
410.24	581.4
410.646	582.7
411.052	588.4
411.458	576.8
411.865	583.6
412.271	583.3
412.677	575.2
413.062	580.1
413.469	561.5
413.875	600.8
414.282	582.5
414.689	575.5
415.095	584.4
415.502	574.5
415.888	574.9
416.294	557.9
416.701	609.5
417.108	566.1
417.515	582.5
417.923	571.4
418.33	596.9
418.715	589.2
419.123	569.1
419.53	573.2
419.937	574.4
420.345	593.3
420.752	573
421.16	584.7
421.546	578.4
421.953	587.3
422.361	568.4
422.769	575.3
423.177	567.7
423.585	601.4
423.992	592.8
424.379	588.8
424.787	590.8
425.195	594.7
425.603	581.7
426.011	591.2
426.419	589
426.806	580.7
427.214	581.7
427.623	592.2
428.031	594.5
428.44	583.7
428.848	590.5
429.235	591.5
429.644	579.4
430.053	575.1
430.461	593.6
430.87	601.7
431.279	587.3
431.666	570.7
432.075	579.6
432.484	586.5
432.893	576.2
433.302	592.8
433.711	620.4
434.099	584.8
434.508	571.5
434.918	565.4
435.327	581.2
435.737	577.7
436.125	576.7
436.534	578.5
436.944	581.5
437.353	576.4
437.763	594.7
438.173	570.8
438.561	579.4
438.971	564.2
439.381	572
439.791	576.7
440.201	555.6
440.589	578
440.999	581.6
441.409	575.5
441.819	565.9
442.23	579.6
442.619	579.2
443.029	573.8
443.439	575.1
443.85	582.3
444.26	590.9
444.649	582.9
445.06	579.8
445.471	570.6
445.881	573.6
446.292	587.4
446.682	595.7
447.092	555.8
447.503	621.5
447.914	577
448.325	575.4
448.715	573.4
449.126	567.8
449.537	578.2
449.948	577.1
450.338	566.7
450.75	581.6
451.161	574
451.572	581.5
451.984	570.9
452.374	554.9
452.786	573.2
453.197	576.4
453.609	578.3
453.999	562.1
454.411	566
454.823	576.1
455.235	573.7
455.647	565.4
456.037	579
456.449	563
456.862	574.8
457.274	573.8
457.665	560.7
458.077	574.6
458.489	583.6
458.902	573.2
459.293	573.4
459.705	577.6
460.118	568.1
460.53	573.7
460.921	572.3
461.334	579.7
461.747	570.5
462.16	581.7
462.551	587.3
462.964	580.6
463.377	561
463.79	563.4
464.182	579.2
464.595	568.3
465.008	574
465.421	573.2
465.813	570.5
466.226	579.2
466.64	568.4
467.053	612
467.445	580
467.859	575.1
468.272	568.1
468.686	584.6
469.078	570.7
469.492	556.5
469.906	573
470.298	573.5
470.712	566.4
471.126	605.8
471.54	558.8
471.933	568.7
472.347	561.4
472.761	564.7
473.175	557.8
473.568	565.3
473.982	555
474.397	568
474.79	563.1
475.204	577.9
475.619	568.8
476.033	573.9
476.426	571.5
476.841	561.2
477.256	588.8
477.649	564.7
478.064	561.4
478.479	559.6
478.872	559.5
479.287	553.7
479.702	566.1
480.118	564.2
480.511	566.6
480.927	556
481.342	563.4
481.736	574.5
482.151	566.3
482.566	574.1
482.96	566.9
483.376	575.1
483.792	558.1
484.186	569.2
484.602	564.3
485.017	562.6
485.412	568.8
485.827	573.3
486.243	569.2
486.638	588.9
487.054	565.9
487.47	581.8
487.865	561.4
488.281	557.9
488.697	557.9
489.092	561.2
489.508	560
489.925	574.4
490.32	560.5
490.736	567.4
491.153	567.2
491.548	575.9
491.964	578.5
492.381	549.7
492.776	568.3
493.193	561.9
493.61	578.5
494.006	568.3
494.422	571.8
494.84	561.4
495.235	572
495.652	566.6
496.069	567.5
496.465	556
496.883	567.4
497.3	590.8
497.696	557.8
498.113	567.4
498.509	557.6
498.927	559
499.344	560.7
499.741	564.5
500.158	574.4
500.576	582.2
500.973	570
501.39	561.6
501.787	560.4
502.205	574.6
502.623	561
503.02	558.6
503.438	559
503.856	565.4
504.253	565.1
504.671	566.8
505.068	559.9
505.486	565
505.905	577.4
506.302	568.3
506.72	573.8
507.118	553.5
507.536	561.9
507.955	556.6
508.352	565.9
508.771	570.2
509.169	571.9
509.587	559
510.006	565.4
510.404	557.8
510.823	556.1
511.221	560.9
511.64	565.7
512.038	574.9
512.457	562.2
512.877	564.2
513.275	565.6
513.694	566.2
514.092	564.4
514.512	560.6
514.91	564.4
515.33	565.3
515.749	560.7
516.148	567.2
516.568	573.1
516.966	560.6
517.386	563.2
517.785	564.3
518.205	559.7
518.603	562
519.024	557.3
519.444	562.6
519.843	567.3
520.263	564.8
520.662	565.7
521.082	561.4
521.481	566.1
521.902	557.6
522.301	567.6
522.722	565.3
523.121	560.4
523.542	560.2
523.963	563.5
524.362	566.4
524.783	567.1
525.183	561.9
525.604	566.9
526.003	555.4
526.425	560.7
526.824	568.6
527.246	569.3
527.646	569.9
528.067	561.1
528.467	563.9
528.888	571
529.289	559.9
529.71	565
530.11	564.5
530.532	565.4
530.932	554.4
531.354	558.7
531.755	591.3
532.176	575.9
532.577	560.5
532.999	562
533.4	557.7
533.822	572.9
534.223	559.1
534.645	562.2
535.046	563
535.468	558.6
535.869	581.1
536.292	559.6
536.693	557.4
537.115	568.2
537.516	551.3
537.939	559.2
538.34	577.8
538.742	575.9
539.165	564.4
539.566	563.1
539.989	554.5
540.391	560.9
540.814	562.3
541.216	561.3
541.639	562.8
542.041	568.8
542.464	559.8
542.866	558.9
543.268	556.2
543.691	567.2
544.093	564.4
544.517	585.8
544.919	553.6
545.343	588.6
545.745	546.4
546.147	564
546.571	561.4
546.974	556.6
547.398	565
547.8	576.3
548.224	557
548.627	554.4
549.03	567.1
549.454	555.3
549.857	552.3
550.281	550.4
550.684	559.4
551.087	572.8
551.512	567.1
551.915	568.8
552.34	563.9
552.743	556.7
553.146	566
553.571	558.8
553.975	583.4
554.399	562.4
554.803	606.5
555.207	555.1
555.632	554
556.036	561.6
556.461	557.5
556.865	559
557.268	551.3
557.694	557.7
558.098	567.5
558.502	566.5
558.927	559.4
559.332	563.1
559.736	558.3
560.162	567.4
560.566	558.9
560.992	566.9
561.396	563.7
561.801	559
562.227	561.7
562.631	559.6
563.036	554.9
563.462	569.2
563.867	559.9
564.272	553
564.698	561.9
565.103	545.7
565.508	577.7
565.935	562.3
566.34	559
566.745	570
567.172	562.2
567.577	582.6
567.982	570.4
568.409	560.2
568.815	548.4
569.22	565.7
569.626	564.2
570.053	548.7
570.459	565.8
570.865	566.8
571.292	565.4
571.698	565.1
572.104	550
572.531	559.4
572.937	567.4
573.343	556.2
573.75	554.3
574.177	559.7
574.583	564.9
574.99	568.5
575.396	568.6
575.824	553.5
576.231	556.4
576.637	552.1
577.065	585.3
577.472	552.6
577.879	553.5
578.286	575.2
578.714	555.5
579.121	558.1
579.528	561.6
579.935	567.8
580.364	556.3
580.771	549.1
581.178	553.3
581.585	562.2
582.014	566.5
582.421	553.5
582.829	556.4
583.236	565.6
583.644	556.6
584.073	557.2
584.481	557.2
584.889	552.9
585.296	560
585.726	560.1
586.134	545.4
586.542	557.2
586.95	574.1
587.358	550.7
587.787	559.7
588.196	546.6
588.604	558.2
589.012	556.8
589.421	551.7
589.851	553.3
590.259	560.2
590.668	555.2
591.076	592
591.485	553.4
591.894	563.1
592.324	569.1
592.733	571.9
593.142	551.1
593.551	555.4
593.96	568.4
594.369	549.4
594.8	550
595.209	558.8
595.618	544.3
596.028	552.2
596.437	553.8
596.847	555.5
597.256	558.2
597.687	565
598.097	559.6
598.507	549.1
598.917	554.9
599.327	565.8
599.736	560.9
600.146	568.2
600.556	555.4
600.988	569.3
601.398	556.3
601.808	564
602.219	546
602.629	553.7
603.039	552.1
603.45	575.7
603.86	556
604.271	575.3
604.703	561.4
605.114	557.3
605.525	557
605.935	563.5
606.346	576.2
606.757	564.7
607.168	553.9
607.579	547.6
607.99	567.2
608.402	560.8
608.813	561.6
609.224	556.1
609.636	547.8
610.047	554.3
610.48	560.2
610.892	565
611.303	568.8
611.715	558.2
612.127	548.6
612.539	558.8
612.95	555.9
613.362	545.9
613.774	547
614.186	553.3
614.599	555
615.011	563.6
615.423	543
615.835	548.5
616.248	546.3
616.66	563.3
617.073	552.5
617.485	556.3
617.898	562.3
618.311	553.8
618.723	555.7
619.136	588
619.549	570.5
619.962	576.5
620.375	555.2
620.788	562
621.201	554.1
621.614	561.9
622.028	551.2
622.441	558.8
622.854	568.8
623.268	549.9
623.681	563.5
624.095	559.5
624.509	565.1
624.922	560.4
625.336	545.5
625.728	555.8
626.142	567.7
626.556	569.8
626.97	561
627.384	553.9
627.799	558.4
628.213	570.8
628.627	555.3
629.041	552.3
629.456	548.1
629.87	554.8
630.285	563.8
630.699	570.4
631.093	556.5
631.507	559.8
631.922	557.6
632.337	570.6
632.752	545.8
633.167	558.6
633.582	552.6
633.997	553.8
634.412	554.6
634.806	554.1
635.221	550
635.637	564.1
636.052	546
636.468	555.1
636.883	574.2
637.299	555.1
637.715	543.7
638.109	555.8
638.525	545.6
638.941	567.6
639.357	560.6
639.773	567.3
640.189	551.5
640.584	555
641	562.6
641.416	543
641.832	553.5
642.249	551.6
642.665	552.5
643.06	564.3
643.477	562.3
643.894	544.8
644.31	551.9
644.727	560.2
645.123	559
645.54	546
645.957	558
646.374	563.7
646.77	557.1
647.187	592.3
647.604	558.2
648.021	541.7
648.439	545.9
648.835	557.8
649.252	561.5
649.67	555
650.088	560.3
650.484	562.1
650.902	566.2
651.32	571.2
651.738	555.1
652.134	553.6
652.552	569.6
652.971	563.1
653.389	554.5
653.786	566.5
654.204	550.5
654.622	547.9
655.019	556.9
655.438	563.6
655.857	557.4
656.275	562.5
656.673	550
657.091	631.4
657.51	548
657.908	561.5
658.327	568.3
658.746	549.7
659.144	553
659.563	572.8
659.982	554.5
660.38	545.4
660.8	555.6
661.219	557.2
661.617	555.3
662.037	554.5
662.457	561.4
662.855	544
663.275	585.7
663.695	551.3
664.094	550.6
664.514	554.9
664.934	549.6
665.333	563.7
665.753	552.8
666.152	539.4
666.572	550.6
666.993	565.4
667.392	550.3
667.812	551.3
668.212	554.5
668.632	561.5
669.053	555.8
669.453	556.4
669.874	558.4
670.273	555
670.694	548.1
671.116	561.1
671.515	563.3
671.937	551.6
672.337	551.9
672.758	552.5
673.158	559.2
673.58	548.4
673.98	558.5
674.402	561.3
674.824	550.4
675.224	553.3
675.646	544.4
676.047	542.8
676.469	551.6
676.869	554.9
677.292	555
677.693	547
678.115	550.2
678.516	556.5
678.939	562
679.34	554.7
679.762	567.3
680.164	561.2
680.586	549.3
680.988	558.9
681.411	573.4
681.812	551.8
682.236	549.7
682.637	544.4
683.061	545.6
683.462	558.8
683.864	551.4
684.288	561.5
684.69	552.6
685.114	560.4
685.516	563.3
685.94	546.3
686.342	559.4
686.766	549.6
687.168	546.1
687.571	575.5
687.995	550.6
688.398	545.9
688.822	556.2
689.225	570.7
689.628	573.5
690.052	554.1
690.456	563
690.88	557.3
691.284	542.3
691.687	558.1
692.112	546
692.515	547.9
692.919	555.6
693.344	558.8
693.747	547.3
694.173	551.3
694.577	556
694.98	551.5
695.406	548.8
695.81	553.6
696.214	556.1
696.64	550.5
697.044	555.7
697.448	561.6
697.874	550
698.279	550.6
698.684	541
699.11	550.2
699.514	550.6
699.919	548.5
700.324	548.6
700.75	551.3
701.156	552.7
701.561	566
701.987	558.9
702.393	563.7
702.798	562.2
703.203	554.6
703.63	549.8
704.036	547
704.442	556.7
704.847	541.4
705.274	554.2
705.68	551.1
706.086	562.7
706.492	541.2
706.92	550.6
707.326	560.8
707.732	548
708.139	547.8
708.545	547.3
708.973	544.8
709.38	551.9
709.786	537.5
710.193	565.8
710.6	547.1
711.028	544.3
711.435	554.6
711.842	553.8
712.249	544.7
712.656	547.4
713.064	564
713.492	542.7
713.9	556.7
714.307	551.8
714.715	550.3
715.123	555.1
715.53	551.4
715.938	559
716.367	556.2
716.775	546.5
717.184	545.3
717.592	543.5
718	560.1
718.408	586
718.816	591.2
719.225	556.3
719.633	553.4
720.042	546.1
720.472	548.2
720.881	567.1
721.29	555.5
721.699	547.9
722.108	557.3
722.517	552
722.926	546.4
723.335	562.4
723.744	550.2
724.154	553.9
724.563	555.9
724.973	550.3
725.382	555.6
725.792	547.2
726.202	540
726.612	561.1
727.022	554.1
727.432	549.7
779.813	550.8
780.223	594.5
780.634	545.1
781.044	545.3
781.454	549
781.865	563.7
782.276	546.8
782.686	561.1
783.097	547.7
783.508	549
783.919	556.7
784.33	557.2
784.741	563.8
785.152	540.9
785.563	538.7
785.974	547.5
786.386	559.2
786.776	546
787.188	544.8
787.599	545.1
788.011	551.4
788.423	550.9
788.835	549.4
789.247	543
789.659	550.4
790.071	543.9
790.483	596.8
790.874	549.1
791.286	557.3
791.699	552
792.111	547.4
792.524	553.7
792.937	550.4
793.349	540.8
793.741	540.9
794.154	545.9
794.567	565.3
794.98	545.9
795.393	541.8
795.785	564.6
796.198	546.9
796.612	552.4
797.026	547.7
797.439	537.6
797.831	541.4
798.245	539
798.659	542.5
799.073	547.6
799.487	544.7
799.88	547.7
800.294	547
800.708	559.2
801.123	550.7
801.516	571.1
801.93	543.3
802.345	538.4
802.76	549.1
803.153	564.3
803.568	564.4
803.983	560.6
804.377	551.3
804.792	543.3
805.207	543.7
805.601	549.1
806.016	585.4
806.432	545.7
806.826	577.7
807.242	561
807.658	556.6
808.052	550
808.468	548.5
808.884	548.3
809.279	549.9
809.695	557.7
810.111	566.3
810.506	550.3
810.922	564.8
811.339	547.5
811.734	554.1
812.151	543.3
812.546	540.6
812.963	545.6
813.38	548.4
813.776	555.8
814.193	574.1
814.589	543.1
815.006	545.2
815.402	541
815.82	542.6
816.237	547.4
816.633	555.3
817.051	543.6
817.448	551
817.866	541.8
818.262	562.9
818.68	540.1
819.077	544.3
819.495	546.8
819.892	590.2
820.311	543.2
820.708	541.1
821.127	547.2
821.524	559.7
821.943	552.1
822.34	564.9
822.759	552.3
823.157	551.9
823.576	561.1
823.974	555.5
824.393	558
824.791	546.5
825.189	540.7
825.609	544.8
826.007	549.8
826.427	535.9
826.826	547.6
827.246	551.7
827.644	532.8
828.043	558.2
828.463	541.6
828.862	557.5
829.261	557.3
829.682	539.8
830.081	553.5
830.502	543.5
830.901	552.4
831.301	545.8
831.722	542.5
832.121	544.6
832.521	543.5
832.943	546.6
833.342	547.4
833.742	544.9
834.164	551.5
834.564	543.8
834.965	551.2
835.386	551.4
835.787	548.2
836.188	544.2
836.588	548.4
837.01	551.3
837.411	542.5
837.812	554.4
838.213	558.7
838.636	540.6
839.037	614.3
839.438	550.2
839.84	553.9
840.263	556
840.664	550.7
841.066	542.9
841.468	542.4
841.891	536.6
842.293	556.9
842.695	553.8
843.098	557.6
843.5	544.4
843.902	551
844.326	552.4
844.729	547.8
845.131	563.6
845.534	548.7
845.937	557.5
846.34	562.8
846.764	549
847.167	553.4
847.571	541.1
847.974	547.4
