#lambda/nm	C1
208.295	470.4
208.67	436.3
209.045	400.5
209.419	404.5
209.794	579.5
210.169	560.5
210.544	668.6
210.919	576.2
211.295	565.1
211.67	572.8
212.045	565.4
212.421	565.5
212.796	602.5
213.172	566.8
213.547	566.1
213.923	572
214.299	568.6
214.675	576.1
215.051	579.2
215.427	574.8
215.803	589.6
216.179	572.6
216.555	560.7
216.932	580.8
217.308	566.8
217.684	568.5
218.061	578.3
218.438	574.3
218.814	571.3
219.191	582.2
219.568	567.5
219.945	573.6
220.322	580.1
220.699	577.2
221.076	579.3
221.453	578.1
221.83	569.1
222.208	569.4
222.585	570.1
222.962	572.4
223.34	576.3
223.717	573
224.095	568.5
224.473	573.2
224.851	566.8
225.229	562.9
225.607	584.9
225.985	565
226.363	577.4
226.741	572.9
227.119	570.4
227.497	581.2
227.876	558
228.254	576.3
228.633	578.1
229.011	566.9
229.39	570.7
229.769	570.8
230.148	578.3
230.527	591
230.905	572.3
231.284	575
231.664	565.4
232.043	583.6
232.422	579
232.801	564.9
233.181	573.1
233.56	571.8
233.94	568.9
234.319	560.9
234.699	566.9
235.079	608.8
235.458	609.1
235.838	587.1
236.218	560.6
236.598	565.4
236.978	564.8
237.358	565.4
237.738	566.6
238.119	576.6
238.499	562
238.88	570.8
239.26	589.5
239.641	565.7
240.021	568.2
240.402	574
240.783	571.8
241.163	572.4
241.544	577.7
241.925	568.4
242.306	587.5
242.687	566.8
243.069	571.3
243.45	576.3
243.831	568.1
244.212	566.2
244.594	603.4
244.975	578.9
245.357	576.6
245.739	569.3
246.12	574.3
246.502	582.1
246.884	570
247.266	567.8
247.648	570.5
248.03	593.1
248.412	571.3
248.794	578.3
249.176	565.5
249.559	580.7
249.941	566.2
250.323	555.5
250.706	567.1
251.089	568.8
251.471	568
251.854	571.2
252.237	570.7
252.62	580.2
253.002	566.6
253.385	571.3
253.769	581
254.152	574.4
254.535	580.4
254.918	573.6
255.301	569.6
255.685	567.4
256.068	565.1
256.452	593.5
256.835	577.3
257.219	578.5
257.603	586.4
257.986	569.2
258.37	575.6
258.754	565.3
259.138	579.8
259.522	586.5
259.906	575.2
260.29	576.5
260.675	570.8
261.059	570.6
261.443	563.7
261.828	571.4
262.212	581.3
262.597	558.8
262.981	570.2
263.366	575.4
263.751	575.2
264.136	567
264.521	570.4
264.906	567
265.291	584.5
265.676	567.4
266.061	574
266.446	590.2
266.831	569.7
267.217	595.5
267.602	572.9
267.987	576.9
268.373	568
268.759	579.6
269.144	581.4
269.53	571.4
269.916	566.5
270.302	572.1
270.688	573.8
271.074	575.7
271.46	583
271.846	599.6
272.232	576.2
272.618	571.5
273.004	569.7
273.391	584.6
273.777	580.9
274.164	573.8
274.55	587.8
274.937	575.1
275.324	569
275.71	576
276.097	578.7
276.484	565.6
276.871	576.1
277.258	576
277.645	560.8
278.032	569
278.419	571.8
278.807	574.6
279.194	567.8
279.581	570.2
279.969	574.3
280.356	577.1
280.744	576.7
281.131	594.5
281.519	584.4
281.907	567.8
282.295	567.5
282.682	584.6
283.07	573.4
283.458	576.1
283.846	585.3
284.235	580.5
284.623	585.3
285.011	569.3
285.399	573.9
285.788	570.9
286.176	566.4
286.565	583.5
286.953	570.6
287.342	567.3
287.731	557.7
288.119	564.5
288.508	566.4
288.897	571.5
289.286	562.1
289.675	575.5
290.064	581.6
290.453	570.6
290.821	569
291.21	591.1
291.599	571.6
291.989	574.8
292.378	579.1
292.768	591.6
293.157	574.7
293.547	585.9
293.936	573.5
294.326	566.4
294.716	574.3
295.106	567.6
295.496	573.3
295.886	576.8
296.276	566
296.666	568.5
297.056	570.6
297.446	566
297.836	593.4
298.227	574.4
298.617	578.9
299.008	588.8
299.398	573.4
299.789	568
300.179	573.5
300.57	586.6
300.961	568.4
301.352	570.2
301.742	578.7
302.133	571
302.524	573.8
302.915	580.6
303.307	571.8
303.698	582.1
304.089	579.5
304.48	575.7
304.872	582.7
305.263	567.4
305.655	563.5
306.046	576.5
306.438	577.3
306.829	572
307.221	589.9
307.613	576.7
308.005	578.9
308.397	585.3
308.789	599.5
309.181	596.7
309.573	586.1
309.965	584.9
310.357	568.2
310.749	575.3
311.142	567.8
311.534	568.5
311.926	575.4
312.319	572.4
312.711	569.2
313.104	585.1
313.497	573.6
313.889	608.8
314.282	590.2
314.675	598.4
315.068	571.6
315.461	580.7
315.854	596.1
316.247	578
316.64	574.2
317.033	575
317.405	587
317.798	575.6
318.192	579.9
318.585	572.7
318.979	577.4
319.372	568.7
319.766	572.5
320.16	585.4
320.553	583.4
320.947	590.9
321.341	575.7
321.735	572.5
322.129	560.7
322.523	589.7
322.917	566.8
323.311	579.2
323.705	575.4
324.099	578
324.494	584.1
324.888	584.6
325.282	571.6
325.677	580.7
326.071	583.8
326.466	583
326.861	575
327.255	587
327.65	593.9
328.045	589.1
328.44	574.6
328.835	569.2
329.23	567.5
329.625	597.9
330.02	573.8
330.415	595.5
330.81	581
331.206	571.8
331.601	566
331.996	585
332.37	577.8
332.766	566.5
333.161	596.7
333.557	567.5
333.953	575.8
334.348	927.3
334.744	572.2
335.14	577.5
335.536	571.4
335.932	585.5
336.328	577.7
336.724	583.8
337.12	568.9
337.516	573
337.913	570.7
338.309	589.2
338.705	576.9
339.102	584.7
339.498	568.8
339.895	590.2
340.291	570.9
340.688	576.9
341.085	563
341.481	565.8
341.878	566.1
342.275	592.3
342.672	566.7
343.069	568.7
343.466	557.4
343.842	580.3
344.239	569.5
344.636	569.3
345.033	566
345.431	563.5
345.828	565.8
346.225	565.8
346.623	574.7
347.02	569.4
347.418	571.8
347.816	585.3
348.213	565.4
348.611	576
349.009	564.6
349.407	582.3
349.805	566.7
350.203	558
350.601	581.4
350.999	571.2
351.397	566
351.795	570.6
352.193	584
352.57	580.7
352.969	586.4
353.367	561.1
353.766	566.5
354.164	570.6
354.563	585.2
354.961	573.4
355.36	566.4
355.759	570.3
356.158	559.8
356.557	567.2
356.956	562.3
357.355	565.1
357.754	571.2
358.153	577.9
358.552	588.9
358.951	565.9
359.35	583.7
359.75	563.4
360.149	561.9
360.527	553
360.926	558.8
361.326	568.2
361.726	572
362.125	561.3
362.525	574.2
362.925	570.4
363.325	571.5
363.724	569.3
364.124	564.3
364.524	556.8
364.924	567
365.324	578.6
365.725	559
366.125	569.2
366.525	570.2
366.904	561.5
367.304	554.7
367.705	583.8
368.105	587.4
368.506	567.6
368.906	567.7
369.307	567.4
369.708	569.9
370.108	558
370.509	572.1
370.91	562.3
371.311	569.9
371.712	567.9
372.113	562.8
372.514	558
372.894	562.9
373.295	557.2
373.696	573.3
374.097	571.2
374.499	592.8
374.9	564.9
375.301	555.9
375.703	568.9
376.105	553
376.506	566.9
376.908	567.7
377.309	563.5
377.711	566.6
378.113	563.9
378.493	559.9
378.895	568.1
379.297	573
379.699	558
380.102	568.8
380.504	568.3
380.906	562.8
381.308	589.2
381.71	563.7
382.113	575.8
382.515	565.5
382.918	566.3
383.299	564.2
383.701	579
384.104	567.2
384.507	546.5
384.909	569.2
385.312	549.7
385.715	553.8
386.118	561.9
386.521	559.1
386.924	569.4
387.327	557.1
387.709	552.1
388.112	557.1
388.515	564.1
388.918	561
389.322	571
389.725	557.6
390.129	581.3
390.532	569
390.936	567.1
391.339	557.6
391.743	566.7
392.125	559.5
392.529	577.9
392.933	574.4
393.337	560.5
393.74	566.1
394.144	564.5
394.548	561.7
394.953	564.2
395.357	573.2
395.761	562
396.144	570.2
396.548	561.3
396.952	557.2
397.357	565.4
397.761	565.7
398.166	558
398.57	566.1
398.975	555.7
399.379	573
399.763	607.4
400.168	563.1
400.572	564.6
400.977	564.7
401.382	583.3
401.787	575.7
402.192	583.6
402.597	578.7
403.002	549.5
403.386	578.7
403.791	577.5
404.197	556.4
404.602	568.8
405.007	567.2
405.413	566.5
405.818	557
406.224	559.5
406.608	567.7
407.014	556.9
407.42	585
407.825	556.9
408.231	574.6
408.637	573.6
409.043	581.4
409.449	561.5
409.834	557.5
410.24	564.7
410.646	570.6
411.052	576.1
411.458	573.6
411.865	574.4
412.271	573.5
412.677	569.2
413.062	568.2
413.469	554.3
413.875	586.9
414.282	572.9
414.689	569.1
415.095	569.9
415.502	565.8
415.888	566.7
416.294	555.7
416.701	607.8
417.108	561.1
417.515	567.3
417.923	560.5
418.33	587.7
418.715	572.2
419.123	565.8
419.53	566.9
419.937	566.8
420.345	578.3
420.752	563
421.16	581.2
421.546	564
421.953	579.7
422.361	558.5
422.769	570.9
423.177	559.9
423.585	590
423.992	586.3
424.379	575.3
424.787	569.8
425.195	590.2
425.603	569.3
426.011	578.6
426.419	579.4
426.806	572.3
427.214	571
427.623	577.3
428.031	586
428.44	570.1
428.848	581.2
429.235	584
429.644	571.6
430.053	570.2
430.461	579.4
430.87	593
431.279	577.5
431.666	560.6
432.075	570.8
432.484	571.5
432.893	567.3
433.302	583.4
433.711	604.8
434.099	571
434.508	559.7
434.918	552.8
435.327	571.4
435.737	574
436.125	568.4
436.534	568.8
436.944	569.4
437.353	572.4
437.763	588.6
438.173	555.2
438.561	573.8
438.971	551.6
439.381	563.3
439.791	568.5
440.201	545.3
440.589	566.7
440.999	573.4
441.409	560.2
441.819	549.8
442.23	571.8
442.619	570
443.029	565.1
443.439	566.3
443.85	572.2
444.26	576.5
444.649	567.9
445.06	566.1
445.471	559.1
445.881	564
446.292	580.1
446.682	586.9
447.092	556.6
447.503	612.1
447.914	561.3
448.325	560.8
448.715	562.8
449.126	560.8
449.537	565.3
449.948	561.4
450.338	565
450.75	572.5
451.161	562.1
451.572	567.1
451.984	559.7
452.374	546.2
452.786	559.9
453.197	568.1
453.609	567.4
453.999	554.6
454.411	553.6
454.823	577.3
455.235	567.6
455.647	559.8
456.037	563.6
456.449	553.3
456.862	566
457.274	560.9
457.665	558.1
458.077	561.4
458.489	569.3
458.902	559.7
459.293	564.3
459.705	555.3
460.118	558.5
460.53	565.5
460.921	559.3
461.334	564.2
461.747	563.7
462.16	573.7
462.551	573.8
462.964	565.3
463.377	553.4
463.79	559.9
464.182	570.5
464.595	558.2
465.008	562.9
465.421	569.6
465.813	557.3
466.226	564.1
466.64	556.9
467.053	603.3
467.445	564.3
467.859	564.7
468.272	560.9
468.686	568.2
469.078	561.6
469.492	551.2
469.906	556.3
470.298	563.1
470.712	551
471.126	592.4
471.54	547.6
471.933	552.2
472.347	551.8
472.761	547.3
473.175	549
473.568	555
473.982	550.8
474.397	560.1
474.79	554.7
475.204	567
475.619	560.3
476.033	562.1
476.426	560.1
476.841	550.9
477.256	581
477.649	551.7
478.064	558.3
478.479	548.9
478.872	548
479.287	545.7
479.702	556
480.118	555.2
480.511	557.3
480.927	553.3
481.342	547.5
481.736	558
482.151	550
482.566	567.1
482.96	562.8
483.376	570.1
483.792	553.4
484.186	563.6
484.602	555.8
485.017	558
485.412	558.5
485.827	562.6
486.243	557.5
486.638	576
487.054	561.1
487.47	571.4
487.865	552.1
488.281	553
488.697	552.2
489.092	559.5
489.508	550.2
489.925	569.3
490.32	549.9
490.736	564.1
491.153	563.7
491.548	565.5
491.964	567.6
492.381	547.4
492.776	560.2
493.193	554.5
493.61	563.3
494.006	558.9
494.422	562.1
494.84	551.9
495.235	565.6
495.652	556.9
496.069	555.8
496.465	543.6
496.883	551.7
497.3	570.5
497.696	546.6
498.113	562.4
498.509	547.8
498.927	545.8
499.344	553.8
499.741	551.4
500.158	561.5
500.576	565.3
500.973	554.1
501.39	551.7
501.787	549.6
502.205	558.9
502.623	546.7
503.02	546.5
503.438	549.7
503.856	550.6
504.253	554
504.671	553.8
505.068	548.7
505.486	551
505.905	572.2
506.302	556.9
506.72	558.5
507.118	548.5
507.536	559
507.955	551.4
508.352	550.6
508.771	562.2
509.169	560.1
509.587	555.1
510.006	554.8
510.404	549.6
510.823	556.1
511.221	553.3
511.64	553
512.038	565.1
512.457	557.7
512.877	550.7
513.275	553
513.694	551.4
514.092	552.6
514.512	560.2
514.91	554.5
515.33	554.3
515.749	550.8
516.148	553.4
516.568	553.7
516.966	558.4
517.386	551.3
517.785	552.6
518.205	549.4
518.603	542.9
519.024	542.6
519.444	558.8
519.843	560
520.263	556.5
520.662	556.6
521.082	555.2
521.481	555
521.902	555.8
522.301	557.8
522.722	554.7
523.121	550
523.542	549.2
523.963	549.3
524.362	558.7
524.783	557.2
525.183	550.6
525.604	562.2
526.003	544.8
526.425	547.7
526.824	562.1
527.246	561.8
527.646	563.3
528.067	554.9
528.467	557.4
528.888	561.1
529.289	552.2
529.71	557.2
530.11	546.2
530.532	549.8
530.932	548.4
531.354	548.7
531.755	580.3
532.176	562.6
532.577	552.2
532.999	548
533.4	548
533.822	562
534.223	553.1
534.645	551.1
535.046	550.1
535.468	553.7
535.869	566.1
536.292	544
536.693	552
537.115	548.4
537.516	549.8
537.939	551.5
538.34	572.7
538.742	560.1
539.165	554.5
539.566	551.6
539.989	538.5
540.391	551.9
540.814	551.9
541.216	554.9
541.639	550.8
542.041	561.2
542.464	550.6
542.866	549.5
543.268	550.3
543.691	553.2
544.093	568.1
544.517	572.4
544.919	544.2
545.343	571
545.745	547.9
546.147	553.8
546.571	552.6
546.974	547.4
547.398	551.7
547.8	566.7
548.224	549.2
548.627	538.5
549.03	553.8
549.454	542.8
549.857	541.9
550.281	548.2
550.684	545.7
551.087	560.1
551.512	552.9
551.915	554.1
552.34	556.7
552.743	542.1
553.146	558.4
553.571	551.9
553.975	564.4
554.399	539.3
554.803	596.8
555.207	544.9
555.632	545.2
556.036	553.7
556.461	540.7
556.865	548.2
557.268	535.6
557.694	546.9
558.098	553.1
558.502	558
558.927	546.7
559.332	548.2
559.736	554.3
560.162	553.7
560.566	550.4
560.992	556.6
561.396	554.9
561.801	552.4
562.227	551.2
562.631	549.5
563.036	552.1
563.462	557.7
563.867	551.2
564.272	546
564.698	552.7
565.103	543.3
565.508	571.3
565.935	550.9
566.34	549.4
566.745	556.7
567.172	545.3
567.577	567.4
567.982	563.8
568.409	555
568.815	543.5
569.22	546.2
569.626	554.7
570.053	540.5
570.459	555.8
570.865	553.7
571.292	557.7
571.698	552.8
572.104	539.7
572.531	547.4
572.937	560.9
573.343	546.2
573.75	545.8
574.177	548.9
574.583	552.4
574.99	550.1
575.396	555
575.824	545.6
576.231	555.3
576.637	546.2
577.065	577.8
577.472	550.2
577.879	553.9
578.286	562.7
578.714	544.4
579.121	550.1
579.528	551
579.935	558.6
580.364	546.2
580.771	536.2
581.178	543.5
581.585	550.1
582.014	558.5
582.421	542.9
582.829	545.3
583.236	560.5
583.644	546.2
584.073	546.5
584.481	551.2
584.889	545.8
585.296	551.1
585.726	554.2
586.134	541.2
586.542	545.2
586.95	570
587.358	541.6
587.787	552.1
588.196	535.6
588.604	549
589.012	555.3
589.421	544.7
589.851	545.4
590.259	550.2
590.668	546.2
591.076	581.3
591.485	542.9
591.894	551.7
592.324	562.8
592.733	558.9
593.142	534.3
593.551	538.9
593.96	552
594.369	537.1
594.8	538.9
595.209	549.2
595.618	533.1
596.028	535.8
596.437	534.4
596.847	549.2
597.256	547.7
597.687	558
598.097	548.1
598.507	532.2
598.917	545.6
599.327	555.2
599.736	549.4
600.146	557.7
600.556	548
600.988	560
601.398	549.9
601.808	561.6
602.219	542.3
602.629	546.7
603.039	550
603.45	575.6
603.86	550.1
604.271	565.4
604.703	550.3
605.114	551.4
605.525	548.9
605.935	555.1
606.346	563.9
606.757	551.9
607.168	544.1
607.579	541.6
607.99	564.6
608.402	547.1
608.813	554.5
609.224	548.2
609.636	537.9
610.047	545.6
610.48	550.5
610.892	550.2
611.303	554.2
611.715	551.2
612.127	539.3
612.539	543.9
612.95	547.8
613.362	543.9
613.774	540.4
614.186	544.3
614.599	545.1
615.011	549.2
615.423	534.3
615.835	543.2
616.248	537.1
616.66	555.5
617.073	543
617.485	547
617.898	556
618.311	547.7
618.723	544.3
619.136	572.3
619.549	561.6
619.962	564.2
620.375	542.5
620.788	548
621.201	544.8
621.614	554.5
622.028	545.3
622.441	552.7
622.854	555
623.268	545.7
623.681	547.3
624.095	549.3
624.509	557.3
624.922	556.3
625.336	537.2
625.728	545.3
626.142	550.2
626.556	561
626.97	552.4
627.384	540.3
627.799	546.8
628.213	552.5
628.627	543.2
629.041	540.4
629.456	538.2
629.87	546.4
630.285	551.5
630.699	556.7
631.093	546
631.507	548.7
631.922	550.3
632.337	563.5
632.752	539.3
633.167	546.7
633.582	548
633.997	540.6
634.412	539.1
634.806	550.3
635.221	536.9
635.637	551.4
636.052	543.7
636.468	546.8
636.883	560.3
637.299	544
637.715	534.8
638.109	540.2
638.525	539.7
638.941	556.4
639.357	548
639.773	553.7
640.189	537.4
640.584	547.7
641	546.9
641.416	535.3
641.832	551.5
642.249	541.2
642.665	543.6
643.06	554.3
643.477	552.1
643.894	536.1
644.31	543.6
644.727	544.2
645.123	545.6
645.54	536.5
645.957	546.8
646.374	551.5
646.77	551.7
647.187	574.7
647.604	544
648.021	535.9
648.439	536.9
648.835	548.7
649.252	541.5
649.67	544.8
650.088	546.5
650.484	548.6
650.902	550.1
651.32	551.1
651.738	543.6
652.134	545.8
652.552	563.9
652.971	551
653.389	542.7
653.786	556
654.204	551.2
654.622	544.3
655.019	543.9
655.438	549
655.857	544.9
656.275	550
656.673	542
657.091	613.5
657.51	542.4
657.908	551.5
658.327	558.9
658.746	537.2
659.144	547.5
659.563	558.7
659.982	549.5
660.38	539.3
660.8	546.7
661.219	550.3
661.617	546.9
662.037	543.6
662.457	556.9
662.855	532.1
663.275	574.8
663.695	551.6
664.094	547.6
664.514	545.8
664.934	538.7
665.333	552.2
665.753	544.2
666.152	537.8
666.572	542.2
666.993	557.2
667.392	545.1
667.812	543.3
668.212	537.8
668.632	551.3
669.053	541.7
669.453	552.4
669.874	547.3
670.273	547.1
670.694	539.4
671.116	554.2
671.515	551.4
671.937	548.9
672.337	544.3
672.758	544.6
673.158	552.2
673.58	541
673.98	547.8
674.402	555.4
674.824	545.5
675.224	540.8
675.646	542.7
676.047	539.2
676.469	539.7
676.869	548.6
677.292	551.1
677.693	537.3
678.115	540.8
678.516	553.8
678.939	548.6
679.34	546.2
679.762	550.2
680.164	546.8
680.586	536.3
680.988	545.8
681.411	566.6
681.812	541
682.236	540.6
682.637	541.2
683.061	534.9
683.462	544.8
683.864	545.9
684.288	545.9
684.69	534.6
685.114	555.5
685.516	557.1
685.94	532.9
686.342	548.1
686.766	538
687.168	544.2
687.571	568.9
687.995	547.6
688.398	539.3
688.822	542.9
689.225	560.3
689.628	562.1
690.052	541.3
690.456	549.1
690.88	545
691.284	538.4
691.687	546.1
692.112	538.1
692.515	541.8
692.919	544.9
693.344	545.6
693.747	540.7
694.173	543.1
694.577	552.5
694.98	544.6
695.406	537.9
695.81	550.9
696.214	554.9
696.64	547.1
697.044	546.5
697.448	555.4
697.874	541.6
698.279	543
698.684	538.7
699.11	536.6
699.514	545.2
699.919	540.2
700.324	535.9
700.75	544.1
701.156	539.1
701.561	554.6
701.987	550.4
702.393	553.1
702.798	553
703.203	548.5
703.63	537.6
704.036	540.8
704.442	542.4
704.847	537.7
705.274	546.5
705.68	552.4
706.086	548.3
706.492	536.1
706.92	542.3
707.326	554.2
707.732	542.1
708.139	534.5
708.545	538.1
708.973	531.9
709.38	539.3
709.786	529.7
710.193	551.9
710.6	542.2
711.028	534.5
711.435	539.7
711.842	541
712.249	541.1
712.656	543.1
713.064	552.1
713.492	539.1
713.9	542.6
714.307	546.4
714.715	544.1
715.123	543.7
715.53	544.5
715.938	550.2
716.367	540.6
716.775	544.2
717.184	539.3
717.592	542
718	552.5
718.408	574.3
718.816	583.5
719.225	545.5
719.633	540.9
720.042	538.1
720.472	535
720.881	562.5
721.29	539.6
721.699	530.7
722.108	542.5
722.517	542.3
722.926	535.5
723.335	548.7
723.744	543.9
724.154	540
724.563	543.4
724.973	548.8
725.382	541.7
725.792	540.2
726.202	531.9
726.612	548.1
727.022	543.1
727.432	535.8
779.813	545.5
780.223	582.7
780.634	535.1
781.044	535.6
781.454	544.1
781.865	553.5
782.276	532.3
782.686	552.2
783.097	541.2
783.508	540.9
783.919	544.7
784.33	550.5
784.741	552.5
785.152	540.9
785.563	529.8
785.974	533.8
786.386	548.5
786.776	544.5
787.188	542.9
787.599	531.5
788.011	548.1
788.423	551
788.835	537.1
789.247	530.1
789.659	536.5
790.071	540.3
790.483	572.5
790.874	537
791.286	547.7
791.699	537
792.111	542.3
792.524	545.1
792.937	538.9
793.349	530.7
793.741	541.2
794.154	537.1
794.567	551
794.98	535.8
795.393	533.2
795.785	559.6
796.198	537.5
796.612	542.1
797.026	534.2
797.439	527.1
797.831	535.9
798.245	527.3
798.659	532.3
799.073	537.7
799.487	534.1
799.88	539
800.294	535.8
800.708	543.7
801.123	543.8
801.516	561.8
801.93	534.3
802.345	534
802.76	542
803.153	550.2
803.568	551
803.983	548
804.377	539.3
804.792	529
805.207	525.9
805.601	543.9
806.016	569.7
806.432	534
806.826	566.4
807.242	544.3
807.658	546
808.052	531.7
808.468	535.8
808.884	541
809.279	543.1
809.695	550.6
810.111	562
810.506	544.3
810.922	556.1
811.339	537.6
811.734	549.2
812.151	537.9
812.546	536.9
812.963	533.4
813.38	548.1
813.776	540.3
814.193	557.7
814.589	532.5
815.006	536.3
815.402	534
815.82	541.2
816.237	537.8
816.633	539.6
817.051	531.1
817.448	539.9
817.866	532.9
818.262	558.6
818.68	535.9
819.077	537.2
819.495	539.2
819.892	574
820.311	533.1
820.708	538.1
821.127	534.7
821.524	552.8
821.943	541.5
822.34	554.2
822.759	540
823.157	544.6
823.576	547
823.974	551
824.393	555.9
824.791	531.7
825.189	531
825.609	541.3
826.007	540.1
826.427	531.6
826.826	539.7
827.246	539.6
827.644	531.5
828.043	544
828.463	536.6
828.862	541.7
829.261	546
829.682	530.1
830.081	546.8
830.502	533.5
830.901	540.6
831.301	531.8
831.722	529.2
832.121	536.4
832.521	539.4
832.943	538.3
833.342	539
833.742	537.3
834.164	542.2
834.564	527
834.965	539.1
835.386	533.2
835.787	534.9
836.188	535
836.588	538.2
837.01	540.8
837.411	529.8
837.812	547.4
838.213	538.8
838.636	538.6
839.037	602.1
839.438	543
839.84	545.2
840.263	540.2
840.664	539.6
841.066	539.8
841.468	536.4
841.891	535.7
842.293	546.5
842.695	544
843.098	548.1
843.5	529.7
843.902	538
844.326	542.3
844.729	536.7
845.131	550.8
845.534	537.9
845.937	552.8
846.34	555.5
846.764	532.4
847.167	542.1
847.571	530.6
847.974	541.6
848.377	532.4
848.781	583
849.184	553.7
