#lambda/nm	C1
208.295	473.8
208.67	436.8
209.045	397.3
209.419	408.3
209.794	570.8
210.169	548.9
210.544	662.5
210.919	570.7
211.295	553.9
211.67	564.1
212.045	561.2
212.421	558.2
212.796	594.1
213.172	565.5
213.547	558.3
213.923	560.8
214.299	561.6
214.675	571.5
215.051	564.7
215.427	570.7
215.803	580.4
216.179	576.5
216.555	554.1
216.932	572.7
217.308	561.6
217.684	560.5
218.061	563.2
218.438	566.5
218.814	560.3
219.191	571.5
219.568	558.3
219.945	564
220.322	569.5
220.699	563.4
221.076	576.8
221.453	565.7
221.83	554.4
222.208	560.6
222.585	560.4
222.962	566.9
223.34	564.1
223.717	558.3
224.095	561.9
224.473	558.4
224.851	557
225.229	552.3
225.607	577.7
225.985	546.1
226.363	566.3
226.741	566.8
227.119	563.6
227.497	571.5
227.876	550.6
228.254	572
228.633	563.9
229.011	563.9
229.39	568.9
229.769	562.2
230.148	568.4
230.527	583.5
230.905	564.9
231.284	568.2
231.664	559
232.043	578.1
232.422	568.4
232.801	557.8
233.181	570.2
233.56	557.5
233.94	566.7
234.319	552.1
234.699	563.5
235.079	599.2
235.458	597.4
235.838	578.1
236.218	560.6
236.598	556.5
236.978	554
237.358	558.1
237.738	559.7
238.119	567.5
238.499	555.7
238.88	562.2
239.26	575.1
239.641	552.1
240.021	558.4
240.402	566.2
240.783	557.9
241.163	562.8
241.544	565.4
241.925	561.9
242.306	581.9
242.687	562.6
243.069	561.9
243.45	577.3
243.831	557.2
244.212	564.5
244.594	594.2
244.975	575.9
245.357	566.7
245.739	561.8
246.12	565.5
246.502	581.7
246.884	560.3
247.266	562.8
247.648	569.7
248.03	580.5
248.412	562.5
248.794	568.7
249.176	556.9
249.559	573.6
249.941	558.5
250.323	551
250.706	557.6
251.089	568.1
251.471	568.4
251.854	564.2
252.237	568.4
252.62	575
253.002	560
253.385	564.8
253.769	576.5
254.152	565
254.535	570.8
254.918	557.9
255.301	567.8
255.685	563.5
256.068	560.4
256.452	587.4
256.835	568.6
257.219	570
257.603	574.1
257.986	554.5
258.37	562.2
258.754	555.2
259.138	572.1
259.522	572.7
259.906	553
260.29	564.7
260.675	558.4
261.059	563.3
261.443	559.4
261.828	569.7
262.212	568
262.597	554.4
262.981	557.2
263.366	567.1
263.751	563.6
264.136	561.5
264.521	558.5
264.906	555.4
265.291	570
265.676	560.5
266.061	565.4
266.446	582.4
266.831	558.6
267.217	588.8
267.602	571.1
267.987	572.2
268.373	563.9
268.759	567.3
269.144	571.1
269.53	567.8
269.916	557.8
270.302	561.3
270.688	569.6
271.074	565.3
271.46	570.6
271.846	594
272.232	563.4
272.618	557.1
273.004	562.2
273.391	569.3
273.777	575.2
274.164	565.3
274.55	574.4
274.937	559.3
275.324	560
275.71	568.9
276.097	571.6
276.484	557.6
276.871	565.8
277.258	564.9
277.645	554.1
278.032	556.9
278.419	561.1
278.807	564.9
279.194	558.5
279.581	556.8
279.969	567.8
280.356	563.4
280.744	562
281.131	589.7
281.519	574.7
281.907	563.2
282.295	558.9
282.682	572
283.07	566.5
283.458	572.2
283.846	574
284.235	573.3
284.623	568.8
285.011	558.7
285.399	563.8
285.788	560.4
286.176	553.4
286.565	577.2
286.953	557.4
287.342	560.7
287.731	560.2
288.119	560.4
288.508	552.7
288.897	562.1
289.286	553.5
289.675	567
290.064	571.7
290.453	559.3
290.821	566.4
291.21	583.5
291.599	564.4
291.989	564.5
292.378	577.1
292.768	586.2
293.157	570.9
293.547	574.3
293.936	568.7
294.326	560.8
294.716	569.4
295.106	565
295.496	575.6
295.886	574.7
296.276	560.7
296.666	562
297.056	560.9
297.446	558.1
297.836	582
298.227	567.1
298.617	570
299.008	575.7
299.398	561.2
299.789	565
300.179	571
300.57	579.8
300.961	560
301.352	553.1
301.742	571
302.133	564.8
302.524	570.6
302.915	569.2
303.307	559
303.698	572.2
304.089	567.5
304.48	562.6
304.872	566.5
305.263	563.2
305.655	564.7
306.046	571.5
306.438	574
306.829	562.9
307.221	577.3
307.613	568.9
308.005	574.1
308.397	582.5
308.789	582.8
309.181	588.5
309.573	576
309.965	578.7
310.357	559.4
310.749	566.3
311.142	560.6
311.534	562.4
311.926	570.2
312.319	567.1
312.711	562.2
313.104	579.5
313.497	558.4
313.889	599
314.282	573.4
314.675	586.1
315.068	568.8
315.461	569.3
315.854	596.6
316.247	566.8
316.64	563.2
317.033	565.6
317.405	571.7
317.798	564.9
318.192	565.7
318.585	559.1
318.979	570
319.372	559.9
319.766	567
320.16	577.7
320.553	580.3
320.947	588.6
321.341	566.5
321.735	561.9
322.129	549.5
322.523	584
322.917	561.3
323.311	574.8
323.705	568.8
324.099	569.6
324.494	577.7
324.888	577
325.282	562.4
325.677	568.6
326.071	576
326.466	571.8
326.861	569
327.255	579.7
327.65	576.1
328.045	582.6
328.44	567.4
328.835	565
329.23	561.6
329.625	591.8
330.02	560.4
330.415	585.9
330.81	572.5
331.206	566.8
331.601	560.6
331.996	572.2
332.37	578
332.766	554.2
333.161	585.5
333.557	562.3
333.953	568
334.348	882.5
334.744	567.2
335.14	562.6
335.536	566.3
335.932	573.5
336.328	566
336.724	572.8
337.12	564.7
337.516	566.6
337.913	563
338.309	574.4
338.705	563.3
339.102	578.1
339.498	564.2
339.895	574.5
340.291	557.9
340.688	576.4
341.085	560.3
341.481	566.5
341.878	564
342.275	585.5
342.672	561.2
343.069	563.9
343.466	554.4
343.842	570.6
344.239	567.5
344.636	561.4
345.033	558.3
345.431	557.5
345.828	563.5
346.225	555.1
346.623	573.1
347.02	561.9
347.418	573.5
347.816	581.5
348.213	553.6
348.611	565.3
349.009	557.7
349.407	572.7
349.805	555.8
350.203	550.3
350.601	573.8
350.999	559.9
351.397	553.9
351.795	560.6
352.193	570.2
352.57	570.5
352.969	577.1
353.367	551.2
353.766	555.3
354.164	558.6
354.563	572.8
354.961	562.6
355.36	557.9
355.759	564.3
356.158	554.3
356.557	555.5
356.956	558.8
357.355	548.8
357.754	562.6
358.153	568.8
358.552	584.5
358.951	558.8
359.35	574.9
359.75	559.9
360.149	552.9
360.527	545.4
360.926	553.1
361.326	561.9
361.726	560
362.125	555.7
362.525	564.5
362.925	560.5
363.325	559.3
363.724	558.8
364.124	556
364.524	551.7
364.924	555.3
365.324	570.1
365.725	544
366.125	564
366.525	562.1
366.904	554.1
367.304	545.4
367.705	578.2
368.105	572.2
368.506	553
368.906	563.4
369.307	559.7
369.708	566.8
370.108	542.1
370.509	562.7
370.91	554.3
371.311	565
371.712	558.1
372.113	555.3
372.514	547.6
372.894	556.9
373.295	552.5
373.696	563.9
374.097	562.1
374.499	581
374.9	558.1
375.301	549.2
375.703	561.6
376.105	554
376.506	562.2
376.908	561.3
377.309	559.8
377.711	561.7
378.113	553.6
378.493	556.4
378.895	554
379.297	565.5
379.699	543.7
380.102	560.6
380.504	557.4
380.906	555
381.308	575.1
381.71	556
382.113	564.9
382.515	553
382.918	554.3
383.299	554.7
383.701	561.6
384.104	561.6
384.507	542.2
384.909	556.2
385.312	550.8
385.715	549.6
386.118	555
386.521	548.8
386.924	568.9
387.327	553.9
387.709	546.4
388.112	542.6
388.515	555.9
388.918	559.8
389.322	560.5
389.725	551.2
390.129	574.1
390.532	562.5
390.936	553.3
391.339	555
391.743	557.6
392.125	551.8
392.529	566
392.933	567.8
393.337	556
393.74	553.6
394.144	556
394.548	550
394.953	551.1
395.357	564.7
395.761	550.4
396.144	556.7
396.548	552.8
396.952	559.1
397.357	559.2
397.761	552.3
398.166	554.1
398.57	554.3
398.975	548.1
399.379	557.7
399.763	599.7
400.168	555.2
400.572	552.7
400.977	551.7
401.382	573.7
401.787	565.2
402.192	573
402.597	570.9
403.002	545.9
403.386	566.6
403.791	567.2
404.197	547.5
404.602	554.6
405.007	554.3
405.413	547.2
405.818	550.4
406.224	553.7
406.608	555.7
407.014	549.2
407.42	567.5
407.825	549.8
408.231	564.2
408.637	561.1
409.043	568.9
409.449	554.2
409.834	550.2
410.24	557.3
410.646	572.2
411.052	564.5
411.458	554.6
411.865	565.8
412.271	563.2
412.677	557.3
413.062	560.7
413.469	547
413.875	575.1
414.282	564.1
414.689	563
415.095	562.4
415.502	552.5
415.888	556.7
416.294	543.8
416.701	593.1
417.108	549.4
417.515	564.8
417.923	555.5
418.33	570.4
418.715	567.3
419.123	557.2
419.53	561.7
419.937	558.1
420.345	574.6
420.752	557.8
421.16	571.1
421.546	559.5
421.953	563.3
422.361	551
422.769	562.2
423.177	550.6
423.585	581.6
423.992	577.2
424.379	568.3
424.787	571.7
425.195	580.2
425.603	556.9
426.011	566.1
426.419	576.6
426.806	563.1
427.214	564.1
427.623	570.5
428.031	572.8
428.44	564.2
428.848	569
429.235	571.5
429.644	562.3
430.053	563.1
430.461	573.7
430.87	583.4
431.279	570
431.666	556.6
432.075	567.6
432.484	565.3
432.893	556.9
433.302	581.5
433.711	595
434.099	563.2
434.508	559.6
434.918	551.3
435.327	566.6
435.737	560.5
436.125	555.3
436.534	554.9
436.944	564.2
437.353	560
437.763	574.2
438.173	554.1
438.561	571.9
438.971	545.2
439.381	557
439.791	558.1
440.201	541.3
440.589	560.7
440.999	565.6
441.409	562.1
441.819	547.1
442.23	562.6
442.619	559.3
443.029	556.6
443.439	560.1
443.85	563.7
444.26	573.5
444.649	562.6
445.06	555.7
445.471	546.4
445.881	559.7
446.292	568.4
446.682	578.4
447.092	536.8
447.503	597.2
447.914	557.9
448.325	554.5
448.715	553.2
449.126	550.9
449.537	555
449.948	556
450.338	552.1
450.75	562
451.161	557.4
451.572	561.8
451.984	553.4
452.374	539.1
452.786	551.5
453.197	552.7
453.609	551.8
453.999	541.4
454.411	544.8
454.823	565.9
455.235	559.3
455.647	543.5
456.037	559.8
456.449	540.4
456.862	549.7
457.274	554.8
457.665	547.3
458.077	560.6
458.489	571.1
458.902	551.9
459.293	554.7
459.705	554.9
460.118	547.2
460.53	554.5
460.921	551.9
461.334	554.1
461.747	551.7
462.16	563.2
462.551	563.7
462.964	562.4
463.377	541.1
463.79	552
464.182	560
464.595	539.8
465.008	557.4
465.421	553.7
465.813	546.1
466.226	556.7
466.64	547.6
467.053	592
467.445	559.7
467.859	552.1
468.272	556.9
468.686	563.1
469.078	552.1
469.492	541.8
469.906	551.8
470.298	559.9
470.712	542.4
471.126	581
471.54	534.9
471.933	541.9
472.347	551.5
472.761	545.7
473.175	543.1
473.568	546.9
473.982	538.3
474.397	551.7
474.79	544.8
475.204	558
475.619	547.8
476.033	556.7
476.426	549.6
476.841	547.7
477.256	575.3
477.649	547.1
478.064	543.1
478.479	541.2
478.872	538
479.287	532.9
479.702	550
480.118	547.7
480.511	545.5
480.927	532.6
481.342	547.2
481.736	553
482.151	544.6
482.566	560.6
482.96	551.4
483.376	561.7
483.792	541.4
484.186	557.4
484.602	552.3
485.017	548.9
485.412	548.9
485.827	556.9
486.243	549.8
486.638	571.6
487.054	556.7
487.47	568.8
487.865	547.4
488.281	544.6
488.697	550.5
489.092	551.7
489.508	543.8
489.925	562.7
490.32	543.2
490.736	548.4
491.153	556.1
491.548	547.4
491.964	560.2
492.381	537.8
492.776	550.6
493.193	546.6
493.61	554.7
494.006	549.8
494.422	554.6
494.84	544.1
495.235	550
495.652	548.5
496.069	546
496.465	536.2
496.883	549.8
497.3	567.3
497.696	542.8
498.113	549.8
498.509	540.5
498.927	540.6
499.344	539.9
499.741	538.3
500.158	553.2
500.576	554.9
500.973	547.2
501.39	539.6
501.787	540.3
502.205	545.3
502.623	539.4
503.02	538
503.438	546.2
503.856	551.6
504.253	554.4
504.671	549.9
505.068	544.3
505.486	541.4
505.905	564
506.302	546.9
506.72	555.2
507.118	539.4
507.536	548.4
507.955	542.1
508.352	551.8
508.771	553.4
509.169	548.6
509.587	548
510.006	546.9
510.404	542.8
510.823	539.6
511.221	540.9
511.64	541.9
512.038	556
512.457	543
512.877	546.8
513.275	550.1
513.694	540.8
514.092	540.9
514.512	552.1
514.91	545.3
515.33	550.1
515.749	552.5
516.148	552.4
516.568	552.6
516.966	548.6
517.386	543.3
517.785	546.4
518.205	543.4
518.603	546.4
519.024	538.7
519.444	550.3
519.843	550.8
520.263	554.1
520.662	553.4
521.082	546.5
521.481	550.5
521.902	547.6
522.301	552.7
522.722	547.6
523.121	539.3
523.542	544.1
523.963	551.1
524.362	547.3
524.783	548.9
525.183	547.3
525.604	553.5
526.003	542.2
526.425	540.3
526.824	551.4
527.246	553.8
527.646	558.7
528.067	553.3
528.467	548
528.888	557
529.289	549.3
529.71	550.2
530.11	542
530.532	543.9
530.932	539.1
531.354	537.7
531.755	574.3
532.176	555.2
532.577	540.7
532.999	548
533.4	542.3
533.822	557.4
534.223	545.6
534.645	547.1
535.046	544.2
535.468	538.8
535.869	556.5
536.292	540.4
536.693	538.3
537.115	551.3
537.516	534.4
537.939	539.1
538.34	561.8
538.742	558.6
539.165	550
539.566	548
539.989	534.5
540.391	538.4
540.814	544.3
541.216	549
541.639	544.1
542.041	550.8
542.464	542.1
542.866	545.9
543.268	536.5
543.691	547.3
544.093	556.5
544.517	561.6
544.919	535.2
545.343	568.6
545.745	541.5
546.147	545
546.571	544.8
546.974	538
547.398	545.9
547.8	550.8
548.224	541.5
548.627	540.4
549.03	548.7
549.454	534.6
549.857	535.8
550.281	538.9
550.684	542.4
551.087	551.2
551.512	548.9
551.915	548.9
552.34	545
552.743	539.7
553.146	542.9
553.571	545.4
553.975	563
554.399	537.2
554.803	589.2
555.207	537.7
555.632	536.5
556.036	544.1
556.461	535.8
556.865	543.9
557.268	532.7
557.694	540.8
558.098	544.6
558.502	547
558.927	537
559.332	542.5
559.736	538.8
560.162	546.6
560.566	547.1
560.992	546.7
561.396	538.4
561.801	534.2
562.227	546.7
562.631	538.6
563.036	542.2
563.462	547.5
563.867	542.8
564.272	533.2
564.698	548.6
565.103	532.2
565.508	557.1
565.935	542.8
566.34	541.3
566.745	549.8
567.172	540.8
567.577	560.1
567.982	552.9
568.409	543.2
568.815	537.6
569.22	547.9
569.626	547.6
570.053	528.8
570.459	548.2
570.865	548.1
571.292	549.1
571.698	543.1
572.104	530.1
572.531	534.9
572.937	551.8
573.343	537.8
573.75	541.1
574.177	538.5
574.583	551.3
574.99	540.6
575.396	551.7
575.824	535.9
576.231	541.9
576.637	537.2
577.065	567
577.472	539.9
577.879	537.7
578.286	552.7
578.714	539.1
579.121	542.3
579.528	542.2
579.935	555
580.364	539.9
580.771	527.4
581.178	534.8
581.585	547.7
582.014	547.4
582.421	538.5
582.829	535.8
583.236	553
583.644	539.7
584.073	542.6
584.481	541.2
584.889	538.9
585.296	543.2
585.726	544.8
586.134	541
586.542	540.8
586.95	560.2
587.358	534.7
587.787	540.6
588.196	527.8
588.604	540.2
589.012	540
589.421	534.7
589.851	531.9
590.259	541.6
590.668	539
591.076	569.7
591.485	534.4
591.894	538.5
592.324	550.9
592.733	553.8
593.142	531.6
593.551	538
593.96	551.3
594.369	528.4
594.8	537.9
595.209	535.5
595.618	531.1
596.028	535.4
596.437	533.5
596.847	541.4
597.256	540.7
597.687	542.9
598.097	539.9
598.507	530.8
598.917	538.4
599.327	547.7
599.736	542.8
600.146	552.7
600.556	544.5
600.988	549.9
601.398	539
601.808	547
602.219	532
602.629	536
603.039	545.8
603.45	566.9
603.86	543
604.271	550.3
604.703	543
605.114	538
605.525	546.1
605.935	545.9
606.346	565.5
606.757	547.6
607.168	540.8
607.579	534.5
607.99	547.3
608.402	540.9
608.813	541.2
609.224	541.7
609.636	529.1
610.047	533.2
610.48	542
610.892	551.6
611.303	549.7
611.715	546
612.127	534.4
612.539	538.2
612.95	538.8
613.362	524.2
613.774	534.6
614.186	536.4
614.599	535
615.011	542.6
615.423	528.2
615.835	536.2
616.248	529.2
616.66	541.9
617.073	534.2
617.485	536.3
617.898	547.4
618.311	538.4
618.723	541.5
619.136	565.8
619.549	552.1
619.962	559.5
620.375	539.1
620.788	543.9
621.201	533.5
621.614	543.5
622.028	543.1
622.441	538.4
622.854	552.3
623.268	531.7
623.681	540.1
624.095	540.8
624.509	549.6
624.922	551.6
625.336	524.7
625.728	537.1
626.142	551.9
626.556	555.9
626.97	548.3
627.384	538.9
627.799	541.7
628.213	552.1
628.627	542.7
629.041	538.8
629.456	541.2
629.87	538.8
630.285	547.6
630.699	547.8
631.093	536.1
631.507	541.6
631.922	540.5
632.337	551
632.752	531
633.167	541.9
633.582	537
633.997	530.7
634.412	532.2
634.806	544.8
635.221	531.8
635.637	543.1
636.052	532.8
636.468	539.2
636.883	554.3
637.299	544.4
637.715	527.7
638.109	535.6
638.525	523.9
638.941	549
639.357	543.7
639.773	548.1
640.189	531.1
640.584	537.6
641	535
641.416	524.4
641.832	533.8
642.249	538.7
642.665	534.6
643.06	539.1
643.477	545.8
643.894	529.2
644.31	530.8
644.727	537.2
645.123	534.4
645.54	527.5
645.957	539.6
646.374	539.8
646.77	538
647.187	564
647.604	539.1
648.021	527.4
648.439	530.3
648.835	538.7
649.252	537.9
649.67	531.9
650.088	533.5
650.484	538.3
650.902	544
651.32	543.7
651.738	535.8
652.134	537.6
652.552	552
652.971	545.9
653.389	537.1
653.786	553.1
654.204	534.6
654.622	531.1
655.019	534.2
655.438	542.4
655.857	536.1
656.275	536
656.673	532.6
657.091	599.7
657.51	532.2
657.908	547.7
658.327	550.7
658.746	527.7
659.144	540
659.563	555
659.982	540.1
660.38	529
660.8	536.4
661.219	542.5
661.617	546.1
662.037	538.7
662.457	549.7
662.855	527.1
663.275	561.7
663.695	535
664.094	537.5
664.514	538.8
664.934	528.4
665.333	540.1
665.753	535.1
666.152	530.2
666.572	533.6
666.993	548.6
667.392	534.8
667.812	540.2
668.212	536.4
668.632	546
669.053	530.9
669.453	544.2
669.874	538.2
670.273	539
670.694	528.1
671.116	546.1
671.515	545.9
671.937	534.6
672.337	538.5
672.758	540.4
673.158	540.4
673.58	528.1
673.98	538.8
674.402	543.9
674.824	539.4
675.224	534.7
675.646	529.7
676.047	532.5
676.469	536.7
676.869	542.8
677.292	538.5
677.693	530.3
678.115	531.1
678.516	542.2
678.939	542.3
679.34	538.4
679.762	554.6
680.164	538.1
680.586	536.4
680.988	538.5
681.411	552.3
681.812	533.4
682.236	531.3
682.637	530.8
683.061	526
683.462	536.9
683.864	532.9
684.288	543.6
684.69	527.3
685.114	542.9
685.516	543.3
685.94	530.1
686.342	539.2
686.766	532.2
687.168	535.7
687.571	553.8
687.995	538.1
688.398	528.8
688.822	531.1
689.225	551
689.628	546.7
690.052	535.6
690.456	541.4
690.88	539.4
691.284	526.9
691.687	540.4
692.112	525.3
692.515	528.5
692.919	536.7
693.344	538.9
693.747	536.5
694.173	529.7
694.577	543.2
694.98	534.9
695.406	534.2
695.81	540.7
696.214	538.3
696.64	541
697.044	536.5
697.448	545.2
697.874	536
698.279	536.9
698.684	530.7
699.11	525.7
699.514	534.1
699.919	533.5
700.324	529.5
700.75	534
701.156	536.9
701.561	548
701.987	541.3
702.393	544.3
702.798	546.6
703.203	543.3
703.63	527.8
704.036	529.1
704.442	534.5
704.847	526.5
705.274	530.7
705.68	536.8
706.086	538.1
706.492	527
706.92	534.5
707.326	543.2
707.732	532.6
708.139	528.2
708.545	528.2
708.973	534.6
709.38	531.5
709.786	518.9
710.193	546.7
710.6	534.9
711.028	524.6
711.435	536.2
711.842	534.9
712.249	528.2
712.656	539.6
713.064	541.2
713.492	533.1
713.9	535.2
714.307	542
714.715	532
715.123	537.3
715.53	535.6
715.938	539.9
716.367	533.7
716.775	536.2
717.184	531.9
717.592	532.6
718	540.4
718.408	567.8
718.816	580.8
719.225	536.8
719.633	536.2
720.042	528.5
720.472	536.8
720.881	553.2
721.29	538.1
721.699	529.2
722.108	537
722.517	537.3
722.926	532.7
723.335	548.6
723.744	532.4
724.154	534.6
724.563	538.9
724.973	536.7
725.382	538.3
725.792	535
726.202	529.7
726.612	545.5
727.022	527.9
727.432	527.2
779.813	530.5
780.223	572.7
780.634	529.7
781.044	525.1
781.454	530.8
781.865	546.1
782.276	524.3
782.686	540.6
783.097	534.9
783.508	532.9
783.919	535.9
784.33	545
784.741	544.1
785.152	530.9
785.563	519.8
785.974	528.9
786.386	543.7
786.776	529
787.188	537.7
787.599	528.1
788.011	542.7
788.423	533.3
788.835	531
789.247	525.5
789.659	524.9
790.071	533.8
790.483	568.4
790.874	528.3
791.286	537.7
791.699	527.2
792.111	531.5
792.524	534.3
792.937	528.9
793.349	526.5
793.741	529.3
794.154	530.1
794.567	552.7
794.98	528.5
795.393	525.7
795.785	543.5
796.198	531.5
796.612	530.8
797.026	528.9
797.439	517.2
797.831	531.8
798.245	525
798.659	531.3
799.073	527.7
799.487	527.1
799.88	526.7
800.294	532.1
800.708	536.9
801.123	530.6
801.516	546.9
801.93	521.2
802.345	521.4
802.76	528
803.153	543.2
803.568	544.5
803.983	535.6
804.377	541.3
804.792	524.4
805.207	521.9
805.601	531.8
806.016	558.8
806.432	528
806.826	558.5
807.242	543.9
807.658	532.4
808.052	536.6
808.468	531.3
808.884	531.3
809.279	531.4
809.695	546.3
810.111	549.7
810.506	537.5
810.922	546.6
811.339	526.1
811.734	539.6
812.151	526.5
812.546	531.5
812.963	532
813.38	534.7
813.776	531.5
814.193	548.6
814.589	527.5
815.006	524.6
815.402	523.2
815.82	531.2
816.237	538
816.633	537.2
817.051	527.5
817.448	535
817.866	529.3
818.262	555.3
818.68	527
819.077	530.2
819.495	528.4
819.892	564.7
820.311	527.2
820.708	526.6
821.127	529.3
821.524	543.4
821.943	531.8
822.34	547.4
822.759	534.5
823.157	531.1
823.576	542.3
823.974	537
824.393	544
824.791	532.1
825.189	525.3
825.609	533.4
826.007	533.4
826.427	515.2
826.826	532
827.246	536.7
827.644	521.7
828.043	542.1
828.463	528.2
828.862	538.4
829.261	535.9
829.682	523
830.081	534
830.502	527
830.901	531
831.301	523.2
831.722	527.4
832.121	533.9
832.521	529.1
832.943	526.1
833.342	532.4
833.742	523.3
834.164	526.6
834.564	518.2
834.965	525.1
835.386	526.3
835.787	530.9
836.188	530.4
836.588	531.8
837.01	529.5
837.411	519.1
837.812	537.6
838.213	534.8
838.636	531
839.037	587.2
839.438	529.6
839.84	535.1
840.263	540.1
840.664	536.8
841.066	531.3
841.468	542.7
841.891	523
842.293	538.7
842.695	538.5
843.098	537.2
843.5	529.8
843.902	538.8
844.326	535.7
844.729	529
845.131	540.9
845.534	531.6
845.937	543.8
846.34	545.8
846.764	525.3
847.167	535.7
847.571	527.7
847.974	529.6
848.377	531.7
848.781	570.8
849.184	540.8
