#lambda/nm	C1
208.295	467.3
208.67	440.3
209.045	402.5
209.419	405.5
209.794	584.9
210.169	562.2
210.544	681.1
210.919	582.1
211.295	565
211.67	580.4
212.045	575.5
212.421	568.6
212.796	610.6
213.172	570.6
213.547	576
213.923	570.8
214.299	572.5
214.675	583.3
215.051	583.8
215.427	578.2
215.803	594.7
216.179	576.8
216.555	566.2
216.932	583.5
217.308	579.3
217.684	577.1
218.061	579.6
218.438	576
218.814	570.8
219.191	583.2
219.568	569.9
219.945	575.1
220.322	582
220.699	583.2
221.076	586.6
221.453	582.5
221.83	571.4
222.208	575.1
222.585	575.7
222.962	581.5
223.34	581.1
223.717	568.1
224.095	576.2
224.473	575.9
224.851	572.3
225.229	564.4
225.607	588.6
225.985	562.4
226.363	571.2
226.741	578.8
227.119	577.5
227.497	590.6
227.876	566.1
228.254	579.4
228.633	580.5
229.011	576.4
229.39	581.3
229.769	573
230.148	580.9
230.527	597.9
230.905	576.7
231.284	580.8
231.664	572.4
232.043	592.4
232.422	586.1
232.801	573.3
233.181	580.7
233.56	576.6
233.94	576.5
234.319	569.2
234.699	579.2
235.079	621.9
235.458	612.3
235.838	593.5
236.218	572.5
236.598	567.5
236.978	567.7
237.358	575.7
237.738	573.6
238.119	585.8
238.499	566.5
238.88	576.5
239.26	595.4
239.641	568.2
240.021	576.4
240.402	579.7
240.783	577.4
241.163	576.7
241.544	581.5
241.925	575.8
242.306	590.6
242.687	577.3
243.069	580.9
243.45	582.7
243.831	570.9
244.212	569.7
244.594	611.9
244.975	584
245.357	581.1
245.739	576.6
246.12	575.6
246.502	590
246.884	577.9
247.266	573.3
247.648	582.2
248.03	599.2
248.412	582.7
248.794	584.2
249.176	574.5
249.559	583.8
249.941	573.9
250.323	566.7
250.706	572.3
251.089	577.6
251.471	580.9
251.854	578.1
252.237	575.9
252.62	584.5
253.002	579
253.385	582.2
253.769	598.9
254.152	579
254.535	583.7
254.918	574.2
255.301	578.6
255.685	572.2
256.068	570
256.452	601.2
256.835	581.8
257.219	585.8
257.603	595.2
257.986	567.6
258.37	584.9
258.754	564.5
259.138	584.9
259.522	589.4
259.906	577.6
260.29	580.7
260.675	578.5
261.059	582.1
261.443	569.4
261.828	581.2
262.212	587.4
262.597	569.7
262.981	577.5
263.366	587.3
263.751	583.7
264.136	578.9
264.521	575.5
264.906	571.3
265.291	587
265.676	578.2
266.061	581.1
266.446	600.8
266.831	576.5
267.217	600.3
267.602	583.3
267.987	583.7
268.373	575.1
268.759	582.9
269.144	582.2
269.53	575.6
269.916	576.5
270.302	576.1
270.688	581.3
271.074	583.1
271.46	591.8
271.846	611.7
272.232	578.1
272.618	573.8
273.004	576.8
273.391	590.1
273.777	589.6
274.164	583.7
274.55	597.3
274.937	586
275.324	577.3
275.71	581.5
276.097	584.6
276.484	568.5
276.871	584.8
277.258	585.6
277.645	568.3
278.032	578.7
278.419	578.5
278.807	583.8
279.194	571.1
279.581	573.1
279.969	581
280.356	582.1
280.744	583.3
281.131	600.2
281.519	591.7
281.907	574.1
282.295	575
282.682	588.5
283.07	578.1
283.458	587.7
283.846	585.7
284.235	593.1
284.623	586.6
285.011	576.9
285.399	577.3
285.788	578.5
286.176	568.1
286.565	589.3
286.953	570.4
287.342	576
287.731	574.7
288.119	572
288.508	576.9
288.897	582.5
289.286	564.6
289.675	576.4
290.064	591
290.453	576.1
290.821	585.7
291.21	595.9
291.599	572
291.989	582.5
292.378	590.1
292.768	601.3
293.157	583
293.547	585.5
293.936	579.3
294.326	570.5
294.716	585.2
295.106	579.3
295.496	587.8
295.886	589.2
296.276	580.5
296.666	572.4
297.056	575.4
297.446	567.6
297.836	598.7
298.227	579.2
298.617	580.6
299.008	591.3
299.398	576.5
299.789	572.1
300.179	589.7
300.57	589.7
300.961	572
301.352	574.2
301.742	585.4
302.133	583
302.524	577.8
302.915	583.3
303.307	572
303.698	584.8
304.089	579.9
304.48	580.9
304.872	587
305.263	575
305.655	569.3
306.046	580.5
306.438	583.1
306.829	577.7
307.221	588.2
307.613	585.1
308.005	589.4
308.397	586.4
308.789	603.2
309.181	604.9
309.573	595.4
309.965	590.3
310.357	579.3
310.749	579.8
311.142	568.2
311.534	573.4
311.926	588.2
312.319	580.5
312.711	571.2
313.104	590.6
313.497	580
313.889	618.9
314.282	594
314.675	602.2
315.068	582
315.461	585.6
315.854	606.3
316.247	586.4
316.64	580.3
317.033	574.4
317.405	587.5
317.798	586.7
318.192	582
318.585	572.2
318.979	585.3
319.372	572.8
319.766	577.7
320.16	584.3
320.553	593.1
320.947	598.3
321.341	573.6
321.735	577.7
322.129	564.2
322.523	603.6
322.917	574.1
323.311	588
323.705	580
324.099	580.1
324.494	592.3
324.888	590.1
325.282	578.2
325.677	589.8
326.071	583.2
326.466	592.3
326.861	590.3
327.255	597.1
327.65	589.9
328.045	596.4
328.44	586.8
328.835	580.1
329.23	572.9
329.625	605.8
330.02	577.7
330.415	598.9
330.81	584.2
331.206	584.2
331.601	576.4
331.996	592.7
332.37	586.8
332.766	570
333.161	607.3
333.557	577.8
333.953	579
334.348	902.8
334.744	582.6
335.14	580.7
335.536	578.8
335.932	590.4
336.328	574.3
336.724	596.6
337.12	580.2
337.516	582.8
337.913	581.7
338.309	593.9
338.705	573.7
339.102	589.5
339.498	576.4
339.895	592.8
340.291	579
340.688	588.2
341.085	573.8
341.481	577.5
341.878	580.5
342.275	599.9
342.672	578.4
343.069	571.7
343.466	573.2
343.842	592.4
344.239	575.1
344.636	582.2
345.033	573
345.431	567.7
345.828	577.6
346.225	571.1
346.623	587.3
347.02	581.5
347.418	583.9
347.816	591.3
348.213	570.4
348.611	579.5
349.009	570.3
349.407	585.2
349.805	570.9
350.203	572.4
350.601	592.8
350.999	576.4
351.397	568.2
351.795	578.6
352.193	583.7
352.57	583.8
352.969	591.6
353.367	572.9
353.766	574.6
354.164	578.2
354.563	589.1
354.961	580.3
355.36	572.7
355.759	574.7
356.158	571.4
356.557	571.2
356.956	567.1
357.355	569.9
357.754	579.6
358.153	581.1
358.552	601.6
358.951	575.3
359.35	580.9
359.75	571.2
360.149	565
360.527	555.3
360.926	567.4
361.326	573.2
361.726	568.9
362.125	565.6
362.525	581.4
362.925	569.3
363.325	573.9
363.724	577
364.124	562.2
364.524	566.8
364.924	569.3
365.324	590.3
365.725	560.1
366.125	575.7
366.525	574
366.904	566.6
367.304	556.3
367.705	592.5
368.105	591.8
368.506	572.6
368.906	568.6
369.307	570.5
369.708	578.1
370.108	566.4
370.509	583.7
370.91	569.4
371.311	576
371.712	573
372.113	573.6
372.514	565.6
372.894	570.2
373.295	569.2
373.696	581.1
374.097	584.6
374.499	606.2
374.9	577.6
375.301	565.7
375.703	577.8
376.105	566.7
376.506	579.8
376.908	578.5
377.309	574.4
377.711	570
378.113	568.6
378.493	572
378.895	566.6
379.297	579.5
379.699	562
380.102	579.7
380.504	573.7
380.906	570.7
381.308	598.1
381.71	566.7
382.113	581.9
382.515	568.9
382.918	570.4
383.299	565.9
383.701	581.1
384.104	572
384.507	548.9
384.909	572
385.312	560.4
385.715	561.9
386.118	569.4
386.521	560.7
386.924	584
387.327	568.7
387.709	560.6
388.112	554.1
388.515	567.2
388.918	573.2
389.322	577.7
389.725	571.2
390.129	589.9
390.532	574.1
390.936	571.8
391.339	563.7
391.743	574.5
392.125	564
392.529	581.1
392.933	582.9
393.337	572.6
393.74	572.3
394.144	568.7
394.548	567.9
394.953	568.9
395.357	576.4
395.761	569.2
396.144	566
396.548	571.1
396.952	568.4
397.357	574.8
397.761	575.1
398.166	566.4
398.57	566.5
398.975	569.1
399.379	567.7
399.763	620.7
400.168	576.6
400.572	570.4
400.977	573.2
401.382	589.7
401.787	578.8
402.192	585.1
402.597	585.3
403.002	564.9
403.386	581.4
403.791	587.8
404.197	569.2
404.602	572.9
405.007	569.6
405.413	564.8
405.818	555.7
406.224	558.9
406.608	568.8
407.014	563.3
407.42	584.6
407.825	561.4
408.231	579.7
408.637	575.4
409.043	581.5
409.449	563.3
409.834	561.9
410.24	573.9
410.646	582.7
411.052	577.7
411.458	573.5
411.865	580.3
412.271	577.5
412.677	569.9
413.062	577.5
413.469	562.4
413.875	595.6
414.282	587.8
414.689	575.5
415.095	575.8
415.502	563.3
415.888	568
416.294	556.6
416.701	609.8
417.108	561.1
417.515	575.4
417.923	564.7
418.33	592.4
418.715	584.2
419.123	567.7
419.53	566.8
419.937	571
420.345	588.1
420.752	568.2
421.16	585.8
421.546	566.6
421.953	580.5
422.361	563.6
422.769	571.1
423.177	566.1
423.585	591.5
423.992	586.4
424.379	583.8
424.787	576.9
425.195	598.3
425.603	574.4
426.011	585.5
426.419	584.3
426.806	577
427.214	576.8
427.623	589.8
428.031	589.8
428.44	575
428.848	586.7
429.235	589
429.644	577.6
430.053	575.3
430.461	590.7
430.87	600.6
431.279	584.5
431.666	562.7
432.075	576.1
432.484	581.5
432.893	572.1
433.302	585.5
433.711	609.5
434.099	578.1
434.508	569
434.918	562.2
435.327	578.7
435.737	584.3
436.125	570.6
436.534	569.2
436.944	576.8
437.353	573.7
437.763	593.9
438.173	566.7
438.561	590
438.971	559.5
439.381	572.2
439.791	572.7
440.201	555.1
440.589	573.1
440.999	582.8
441.409	578.4
441.819	559
442.23	572.7
442.619	577.1
443.029	573.8
443.439	569.8
443.85	581.7
444.26	585.9
444.649	583.5
445.06	570.7
445.471	569.3
445.881	573.6
446.292	584.3
446.682	590.4
447.092	559.9
447.503	617.6
447.914	568.2
448.325	573.2
448.715	565.9
449.126	571.2
449.537	567.8
449.948	566.2
450.338	571.7
450.75	578.1
451.161	573.6
451.572	576.9
451.984	567.9
452.374	558.8
452.786	567.5
453.197	574.1
453.609	578.8
453.999	558.9
454.411	563.8
454.823	578.4
455.235	574.4
455.647	559.6
456.037	572.1
456.449	555.4
456.862	568.8
457.274	570.8
457.665	563.1
458.077	575.5
458.489	580.4
458.902	564.6
459.293	569.9
459.705	571.3
460.118	561.8
460.53	574.1
460.921	568.2
461.334	573.5
461.747	570.1
462.16	577
462.551	577.4
462.964	574.3
463.377	556.9
463.79	567
464.182	575.4
464.595	562.4
465.008	568
465.421	568.6
465.813	564.4
466.226	570
466.64	564.9
467.053	607
467.445	579.8
467.859	561.8
468.272	567.3
468.686	584.2
469.078	568.6
469.492	553.7
469.906	568.7
470.298	568.2
470.712	559.6
471.126	597.7
471.54	552.8
471.933	560.6
472.347	564.6
472.761	562.9
473.175	561.6
473.568	562.7
473.982	554.9
474.397	563.6
474.79	561.5
475.204	573
475.619	564.4
476.033	574.7
476.426	562.3
476.841	560.5
477.256	587.6
477.649	560
478.064	559
478.479	559.1
478.872	561.6
479.287	552.8
479.702	559.6
480.118	562.9
480.511	564
480.927	556.4
481.342	562
481.736	560.5
482.151	567.1
482.566	578.2
482.96	564.1
483.376	567.5
483.792	561
484.186	561.4
484.602	559.1
485.017	566.3
485.412	563.7
485.827	569.1
486.243	568.6
486.638	583.7
487.054	576.1
487.47	576.1
487.865	563.9
488.281	559.8
488.697	552.2
489.092	558.4
489.508	557.4
489.925	576.3
490.32	552.9
490.736	565.1
491.153	571.3
491.548	564.2
491.964	574.4
492.381	547.7
492.776	564.7
493.193	560.1
493.61	572.7
494.006	563.8
494.422	568.7
494.84	554.4
495.235	570.1
495.652	562.3
496.069	562.4
496.465	553
496.883	561.2
497.3	587
497.696	557.1
498.113	568.5
498.509	546.5
498.927	554.6
499.344	553.4
499.741	552.9
500.158	568.9
500.576	569.1
500.973	559.6
501.39	551.4
501.787	553.4
502.205	561
502.623	556.4
503.02	548.3
503.438	558.2
503.856	561.6
504.253	560
504.671	561.8
505.068	552.4
505.486	555
505.905	580.8
506.302	564.4
506.72	569.9
507.118	555.1
507.536	563.1
507.955	556.6
508.352	562.5
508.771	567.2
509.169	566.6
509.587	554
510.006	563.3
510.404	550
510.823	550.8
511.221	552.8
511.64	558.3
512.038	572.9
512.457	564.4
512.877	562.3
513.275	551.2
513.694	559.2
514.092	558.2
514.512	562.8
514.91	557.1
515.33	559.7
515.749	560.8
516.148	565.8
516.568	565.1
516.966	555.5
517.386	557.3
517.785	564.2
518.205	562.2
518.603	557.2
519.024	552.5
519.444	563.4
519.843	569.9
520.263	565.4
520.662	562.1
521.082	555.3
521.481	569.6
521.902	557
522.301	559.6
522.722	561.9
523.121	558.1
523.542	557
523.963	561.6
524.362	557.4
524.783	561.7
525.183	558.1
525.604	559.6
526.003	557.5
526.425	554.5
526.824	563.2
527.246	561.8
527.646	573
528.067	558.2
528.467	564
528.888	564.2
529.289	558.9
529.71	558.8
530.11	558.2
530.532	555.9
530.932	557.2
531.354	546.9
531.755	589.4
532.176	567.1
532.577	560.8
532.999	559.4
533.4	558.1
533.822	568.4
534.223	557.6
534.645	559.3
535.046	555.4
535.468	565.3
535.869	574.6
536.292	551.2
536.693	553.4
537.115	566.6
537.516	553.3
537.939	549.1
538.34	575.8
538.742	572.3
539.165	559.3
539.566	559.8
539.989	554.3
540.391	556.2
540.814	560.3
541.216	559.1
541.639	554.1
542.041	569.1
542.464	557.6
542.866	552.7
543.268	550.7
543.691	560.3
544.093	565.7
544.517	575.9
544.919	549.2
545.343	581.9
545.745	553.8
546.147	566.9
546.571	559.2
546.974	556.2
547.398	561.5
547.8	572.3
548.224	558.5
548.627	550.4
549.03	563.4
549.454	547.3
549.857	547.5
550.281	548.9
550.684	555.2
551.087	565
551.512	559.1
551.915	563.7
552.34	558
552.743	552
553.146	564.6
553.571	557.1
553.975	576.2
554.399	550.3
554.803	605.5
555.207	551.9
555.632	549.1
556.036	562.9
556.461	550.1
556.865	553.3
557.268	551.1
557.694	551.7
558.098	556.4
558.502	562.7
558.927	553.1
559.332	555.2
559.736	555.2
560.162	566.1
560.566	557
560.992	561.7
561.396	556.5
561.801	555.8
562.227	560.3
562.631	557.5
563.036	552.2
563.462	567.3
563.867	557.6
564.272	546.9
564.698	563.1
565.103	542.8
565.508	570
565.935	556.2
566.34	556.3
566.745	563.1
567.172	552
567.577	574.9
567.982	564
568.409	561
568.815	551.9
569.22	562.7
569.626	558.7
570.053	543.7
570.459	553.9
570.865	563.2
571.292	558
571.698	563.9
572.104	545.8
572.531	549.8
572.937	569.1
573.343	553
573.75	549.7
574.177	559.7
574.583	566
574.99	554.5
575.396	559.8
575.824	556.2
576.231	560.1
576.637	556
577.065	574.9
577.472	553.8
577.879	552.8
578.286	571.1
578.714	551.9
579.121	553.9
579.528	552.5
579.935	573.2
580.364	551.1
580.771	536.7
581.178	547
581.585	561.6
582.014	559.9
582.421	559.4
582.829	549.8
583.236	563.5
583.644	554.4
584.073	556.6
584.481	557.6
584.889	552.6
585.296	563
585.726	549.1
586.134	547.7
586.542	555.6
586.95	572
587.358	541.4
587.787	557.4
588.196	537.4
588.604	555
589.012	552.5
589.421	546.3
589.851	548.8
590.259	561.5
590.668	549.3
591.076	590.5
591.485	549.7
591.894	546.1
592.324	565.7
592.733	567.1
593.142	546.7
593.551	546.9
593.96	581.6
594.369	543.7
594.8	547.9
595.209	546.4
595.618	541.4
596.028	550.6
596.437	539.2
596.847	549.6
597.256	552.5
597.687	560.1
598.097	553.5
598.507	547.2
598.917	557.2
599.327	560.3
599.736	554.1
600.146	559.1
600.556	555.2
600.988	561.7
601.398	552.8
601.808	563.1
602.219	542.7
602.629	555.7
603.039	560.1
603.45	585.1
603.86	556.8
604.271	561
604.703	550.5
605.114	550.6
605.525	553.4
605.935	554.9
606.346	570.8
606.757	560.1
607.168	549.2
607.579	547
607.99	565.4
608.402	559.5
608.813	559.5
609.224	554.3
609.636	547.3
610.047	544.8
610.48	556.5
610.892	560.4
611.303	560.5
611.715	550.5
612.127	546.1
612.539	551.2
612.95	553.8
613.362	544.6
613.774	546.7
614.186	544.9
614.599	550.1
615.011	559.7
615.423	553.4
615.835	549.5
616.248	545.9
616.66	557.2
617.073	545
617.485	555
617.898	563.2
618.311	555.9
618.723	547
619.136	580.7
619.549	562.7
619.962	571.4
620.375	548.2
620.788	555.4
621.201	551.2
621.614	559.4
622.028	548.9
622.441	559.1
622.854	570.2
623.268	549.5
623.681	551.1
624.095	552.1
624.509	556.7
624.922	558.8
625.336	544.3
625.728	555.7
626.142	563.9
626.556	574
626.97	559.4
627.384	546.6
627.799	547.1
628.213	566.3
628.627	556
629.041	546.2
629.456	555.8
629.87	550.8
630.285	562.9
630.699	566.6
631.093	548.5
631.507	560.3
631.922	554.9
632.337	568.5
632.752	547.4
633.167	546.6
633.582	557.3
633.997	546.9
634.412	542.7
634.806	551.4
635.221	544.6
635.637	560.9
636.052	540.1
636.468	557
636.883	566.8
637.299	552.5
637.715	542.8
638.109	551.7
638.525	539.3
638.941	563.4
639.357	553.3
639.773	561.6
640.189	554.3
640.584	553.4
641	554.4
641.416	541.9
641.832	548.3
642.249	550.8
642.665	554.8
643.06	561.7
643.477	565.5
643.894	541.5
644.31	545.2
644.727	552.6
645.123	553.6
645.54	544.9
645.957	553.6
646.374	556.3
646.77	549.1
647.187	579.8
647.604	550.7
648.021	542.4
648.439	544.9
648.835	554
649.252	557.9
649.67	548.8
650.088	551.8
650.484	553.4
650.902	554.7
651.32	558.2
651.738	544.3
652.134	554.4
652.552	565.9
652.971	560.4
653.389	553.8
653.786	559.7
654.204	549.2
654.622	553.4
655.019	554.5
655.438	560
655.857	558.8
656.275	554.1
656.673	542.1
657.091	621.7
657.51	551.8
657.908	563
658.327	569.1
658.746	540.9
659.144	550.8
659.563	565.4
659.982	553.7
660.38	548
660.8	551.1
661.219	562.7
661.617	555.2
662.037	549.2
662.457	560
662.855	539
663.275	580.3
663.695	550.1
664.094	552.4
664.514	554.5
664.934	541.6
665.333	555.9
665.753	545.6
666.152	542.4
666.572	546.4
666.993	564.7
667.392	551.1
667.812	547.1
668.212	547.4
668.632	561.6
669.053	551
669.453	561
669.874	558.5
670.273	556.2
670.694	543.8
671.116	562
671.515	559.8
671.937	552.8
672.337	548.8
672.758	551.2
673.158	561.2
673.58	539.9
673.98	550.4
674.402	566.3
674.824	546.3
675.224	543.2
675.646	546.1
676.047	554.1
676.469	552.6
676.869	557
677.292	552.7
677.693	542.6
678.115	550.1
678.516	557.2
678.939	556.7
679.34	552.5
679.762	561.7
680.164	547.8
680.586	540.9
680.988	552.7
681.411	572.6
681.812	549.3
682.236	543.4
682.637	550.5
683.061	541.6
683.462	548.3
683.864	547.4
684.288	555.2
684.69	539.9
685.114	556.7
685.516	562.6
685.94	541.4
686.342	559.4
686.766	541
687.168	549.5
687.571	563.2
687.995	550.3
688.398	546.1
688.822	546.3
689.225	561.5
689.628	563.9
690.052	549.7
690.456	552.3
690.88	555.6
691.284	539.4
691.687	558.1
692.112	538.8
692.515	540.6
692.919	552.8
693.344	548.4
693.747	544.4
694.173	542.8
694.577	560.2
694.98	549.2
695.406	548.3
695.81	544.8
696.214	553.4
696.64	547.7
697.044	548.6
697.448	556.7
697.874	556.4
698.279	546.3
698.684	539.8
699.11	543
699.514	546
699.919	541.4
700.324	545.9
700.75	544.6
701.156	545.4
701.561	554.7
701.987	552.7
702.393	555.3
702.798	554.9
703.203	547.6
703.63	544.6
704.036	545.9
704.442	549.5
704.847	540.1
705.274	545.6
705.68	548.9
706.086	561.6
706.492	538.4
706.92	548.3
707.326	558.4
707.732	548.8
708.139	545
708.545	543.7
708.973	547.5
709.38	552.1
709.786	535.2
710.193	563.8
710.6	557
711.028	542.5
711.435	548.7
711.842	556.8
712.249	543
712.656	547.1
713.064	556.9
713.492	540.9
713.9	547.8
714.307	553.4
714.715	551.8
715.123	556.3
715.53	553.4
715.938	559.1
716.367	545.5
716.775	544.8
717.184	545.7
717.592	542.3
718	561.1
718.408	579.3
718.816	589.3
719.225	552.9
719.633	552.5
720.042	540.6
720.472	544.9
720.881	570.3
721.29	556.2
721.699	545.9
722.108	554.4
722.517	552.6
722.926	546.3
723.335	559.8
723.744	550.4
724.154	554.9
724.563	551.7
724.973	549
725.382	545.8
725.792	544.4
726.202	544.5
726.612	558.1
727.022	551.1
727.432	544.9
779.813	543.6
780.223	588.8
780.634	546.5
781.044	542.5
781.454	549.7
781.865	557.8
782.276	539.1
782.686	559
783.097	546.2
783.508	547.1
783.919	551.8
784.33	553.4
784.741	561.6
785.152	542.4
785.563	532
785.974	544.5
786.386	554.2
786.776	546.8
787.188	547.7
787.599	541.4
788.011	550.9
788.423	554.9
788.835	544.2
789.247	540
789.659	543.4
790.071	543.6
790.483	583.2
790.874	547
791.286	551.2
791.699	544.6
792.111	550.5
792.524	552.4
792.937	552.8
793.349	536.6
793.741	539.6
794.154	543.9
794.567	565
794.98	542.5
795.393	530.3
795.785	559.3
796.198	543.8
796.612	548.7
797.026	547.9
797.439	528.4
797.831	544.6
798.245	541.6
798.659	540.8
799.073	542.5
799.487	543.7
799.88	548.2
800.294	544.4
800.708	548.4
801.123	544
801.516	561.3
801.93	539.8
802.345	534.9
802.76	543.4
803.153	554.3
803.568	558.3
803.983	554.8
804.377	552.1
804.792	533.8
805.207	533.9
805.601	548.6
806.016	572.6
806.432	543
806.826	576
807.242	562.5
807.658	553.2
808.052	546.3
808.468	541.5
808.884	539.5
809.279	544.9
809.695	548.8
810.111	561.8
810.506	553.9
810.922	563.1
811.339	539.6
811.734	556.6
812.151	542.6
812.546	544.3
812.963	542.5
813.38	549.6
813.776	544.8
814.193	566.8
814.589	537.4
815.006	537.4
815.402	543.8
815.82	541.5
816.237	541.4
816.633	547.3
817.051	538
817.448	547.5
817.866	541.4
818.262	558.8
818.68	541.1
819.077	546.9
819.495	552.1
819.892	578
820.311	537.3
820.708	537.1
821.127	543.6
821.524	559
821.943	550.7
822.34	559.6
822.759	553.2
823.157	540.8
823.576	557.1
823.974	556.5
824.393	556.1
824.791	541.3
825.189	546.4
825.609	543.7
826.007	545.1
826.427	537.9
826.826	543.5
827.246	554.8
827.644	536.6
828.043	552.3
828.463	542.2
828.862	552.1
829.261	552.7
829.682	532.1
830.081	555.1
830.502	542.8
830.901	552.6
831.301	537.7
831.722	533.9
832.121	545.1
832.521	541
832.943	542.3
833.342	544.5
833.742	537
834.164	545.4
834.564	533
834.965	549.8
835.386	543.1
835.787	541.2
836.188	543.9
836.588	543.6
837.01	543.5
837.411	537.3
837.812	553.3
838.213	548.1
838.636	539.3
839.037	601.3
839.438	543
839.84	547.5
840.263	546.7
840.664	546.3
841.066	542.4
841.468	548.2
841.891	539.3
842.293	558
842.695	549.5
843.098	546.7
843.5	538
843.902	547.4
844.326	550.9
844.729	546.7
845.131	551.2
845.534	542.1
845.937	551.7
846.34	554.1
846.764	535.8
847.167	544.8
