#lambda/nm	C1
208.295	469.1
208.67	441.8
209.045	400.3
209.419	405.1
209.794	583.2
210.169	559.5
210.544	675.3
210.919	577.4
211.295	564.7
211.67	573.3
212.045	567.9
212.421	572.9
212.796	608.1
213.172	570.7
213.547	571.3
213.923	567.6
214.299	568.5
214.675	577.7
215.051	577.4
215.427	578.5
215.803	595.6
216.179	571.5
216.555	562.8
216.932	580.4
217.308	578.4
217.684	573.9
218.061	580.5
218.438	577.1
218.814	575.3
219.191	582.4
219.568	567.4
219.945	570.6
220.322	580.4
220.699	577.9
221.076	581.3
221.453	575.5
221.83	569.5
222.208	571.4
222.585	571.2
222.962	568.9
223.34	578.4
223.717	573.2
224.095	572.7
224.473	578.5
224.851	569.2
225.229	565.9
225.607	587.5
225.985	560.7
226.363	578.5
226.741	574.7
227.119	571.6
227.497	590.4
227.876	561.1
228.254	581
228.633	576.6
229.011	566.4
229.39	580.1
229.769	578.4
230.148	584.8
230.527	588.8
230.905	572.1
231.284	576.5
231.664	562.4
232.043	578.8
232.422	581.9
232.801	563.3
233.181	578.5
233.56	568.4
233.94	571.5
234.319	559.3
234.699	572.2
235.079	611.8
235.458	609
235.838	585.8
236.218	565.7
236.598	562.6
236.978	567.9
237.358	569.9
237.738	572.1
238.119	577.1
238.499	561.5
238.88	570.7
239.26	587.4
239.641	562.7
240.021	572.5
240.402	568.8
240.783	570.3
241.163	570
241.544	576.6
241.925	572
242.306	585.8
242.687	566
243.069	569.2
243.45	579.1
243.831	567.4
244.212	572.9
244.594	605.5
244.975	579.7
245.357	574.1
245.739	567.7
246.12	578.8
246.502	586.2
246.884	573.4
247.266	570.9
247.648	576.9
248.03	593.2
248.412	571.8
248.794	580.4
249.176	568.6
249.559	579.8
249.941	567.8
250.323	565.1
250.706	567.6
251.089	574.3
251.471	585.6
251.854	577.1
252.237	580
252.62	588.9
253.002	576.4
253.385	580.2
253.769	586.8
254.152	573.6
254.535	575.1
254.918	568.9
255.301	572.8
255.685	575.2
256.068	565.7
256.452	597
256.835	582.8
257.219	583.4
257.603	588.6
257.986	571.2
258.37	584.6
258.754	567.1
259.138	581.2
259.522	586.8
259.906	571.4
260.29	578.6
260.675	569.9
261.059	577.8
261.443	570.2
261.828	577.8
262.212	579.1
262.597	563
262.981	568.8
263.366	584.3
263.751	574.9
264.136	567.7
264.521	569.4
264.906	567.6
265.291	585.9
265.676	576.3
266.061	580
266.446	589.7
266.831	575.3
267.217	594.2
267.602	580.6
267.987	571.3
268.373	571.1
268.759	583.3
269.144	581
269.53	574.6
269.916	570.6
270.302	571.7
270.688	574.7
271.074	576.2
271.46	583.7
271.846	606.3
272.232	574
272.618	561.6
273.004	572
273.391	580.5
273.777	581.7
274.164	574.5
274.55	586.7
274.937	573.6
275.324	571.4
275.71	577.7
276.097	579.2
276.484	566.9
276.871	575
277.258	575.7
277.645	562.8
278.032	567.5
278.419	571.1
278.807	576.2
279.194	565.6
279.581	563.8
279.969	571.8
280.356	575.8
280.744	574.7
281.131	592
281.519	582.5
281.907	568.4
282.295	571.8
282.682	586.2
283.07	577.8
283.458	579.1
283.846	588.8
284.235	582.6
284.623	575.9
285.011	565.7
285.399	574.6
285.788	572
286.176	565.8
286.565	579.7
286.953	566.4
287.342	575.3
287.731	568.4
288.119	568.2
288.508	573.1
288.897	576.6
289.286	561.7
289.675	576
290.064	582.1
290.453	571.3
290.821	568.7
291.21	590.5
291.599	563.6
291.989	578.9
292.378	582.2
292.768	591.4
293.157	576.6
293.547	580.3
293.936	569.3
294.326	571.9
294.716	573.4
295.106	575.3
295.496	579.1
295.886	587.2
296.276	573.7
296.666	568.7
297.056	574.8
297.446	564.5
297.836	593.1
298.227	570.4
298.617	572.1
299.008	588.3
299.398	574.1
299.789	568.9
300.179	578.3
300.57	589.2
300.961	572.6
301.352	570.9
301.742	581.2
302.133	573.5
302.524	581
302.915	578.5
303.307	565.2
303.698	589.4
304.089	581.1
304.48	569.6
304.872	577.7
305.263	571.5
305.655	566
306.046	577.1
306.438	569
306.829	580
307.221	587.2
307.613	577.2
308.005	587.1
308.397	579.7
308.789	594.7
309.181	596.3
309.573	589.1
309.965	588.1
310.357	576.5
310.749	578.3
311.142	568
311.534	575.3
311.926	585.5
312.319	576.9
312.711	575.1
313.104	588.9
313.497	574
313.889	613.6
314.282	593.2
314.675	603.9
315.068	579.6
315.461	584.1
315.854	603.8
316.247	584.5
316.64	575.1
317.033	575.9
317.405	576.9
317.798	573
318.192	578.4
318.585	570
318.979	580.8
319.372	567.5
319.766	575.9
320.16	583.7
320.553	593.2
320.947	594.1
321.341	568.1
321.735	573.5
322.129	565.2
322.523	601.2
322.917	571.2
323.311	587.1
323.705	578
324.099	582.5
324.494	589
324.888	583.5
325.282	571.2
325.677	579.5
326.071	581.4
326.466	584.6
326.861	584.8
327.255	589.7
327.65	587.2
328.045	585.6
328.44	577.9
328.835	572.9
329.23	567.9
329.625	599
330.02	569.3
330.415	595
330.81	571.5
331.206	575.4
331.601	569.3
331.996	580.3
332.37	584.5
332.766	566.8
333.161	595.5
333.557	568.8
333.953	580.3
334.348	903
334.744	574.6
335.14	577.5
335.536	566.1
335.932	588.9
336.328	571.5
336.724	583.7
337.12	573.2
337.516	579.2
337.913	582.3
338.309	584.7
338.705	575.3
339.102	586.9
339.498	569
339.895	591
340.291	569.7
340.688	581.5
341.085	567.1
341.481	573.9
341.878	569.7
342.275	594.4
342.672	573.5
343.069	572.2
343.466	569.8
343.842	583.9
344.239	569
344.636	574.3
345.033	566.4
345.431	573.5
345.828	581.6
346.225	569.9
346.623	582.4
347.02	568.7
347.418	579.9
347.816	586.8
348.213	568.6
348.611	579.9
349.009	561.9
349.407	584.5
349.805	570.4
350.203	564.9
350.601	583.7
350.999	573.1
351.397	565.9
351.795	572.9
352.193	577.7
352.57	581.2
352.969	587.6
353.367	569.9
353.766	569.8
354.164	573.5
354.563	584.8
354.961	574.1
355.36	564.6
355.759	571.9
356.158	563.7
356.557	566.5
356.956	565.6
357.355	560.9
357.754	569.9
358.153	574.4
358.552	596.9
358.951	570
359.35	585
359.75	567.1
360.149	562.1
360.527	557.1
360.926	561.8
361.326	574
361.726	565.1
362.125	564.8
362.525	574.9
362.925	571.4
363.325	574.3
363.724	570.6
364.124	563.9
364.524	563
364.924	567.3
365.324	579.1
365.725	552.8
366.125	580.9
366.525	569.7
366.904	564.7
367.304	548.6
367.705	584.2
368.105	578.7
368.506	568.5
368.906	567.5
369.307	563.8
369.708	571.3
370.108	557
370.509	575.7
370.91	554.7
371.311	570.5
371.712	574.1
372.113	566
372.514	559.5
372.894	565.3
373.295	557.7
373.696	577
374.097	570
374.499	595.2
374.9	574.6
375.301	559.9
375.703	564.9
376.105	557.7
376.506	572.8
376.908	571.5
377.309	570.7
377.711	567.3
378.113	568.3
378.493	564.3
378.895	559.3
379.297	572.1
379.699	553.8
380.102	575.4
380.504	568.7
380.906	565.8
381.308	590.3
381.71	566.1
382.113	570.1
382.515	565.1
382.918	570.2
383.299	570.6
383.701	571.1
384.104	568.7
384.507	551.4
384.909	572.4
385.312	558.4
385.715	554.4
386.118	562.4
386.521	554.6
386.924	579.7
387.327	557.6
387.709	557.8
388.112	548.7
388.515	562.8
388.918	562.8
389.322	573.4
389.725	562.8
390.129	583.6
390.532	570
390.936	562.2
391.339	559.3
391.743	572
392.125	563
392.529	575.4
392.933	574.3
393.337	568.6
393.74	569.2
394.144	562
394.548	556.2
394.953	559.1
395.357	575.3
395.761	559.6
396.144	568.1
396.548	564.9
396.952	562.3
397.357	572.5
397.761	566.2
398.166	563.2
398.57	565.7
398.975	559
399.379	576.2
399.763	616.5
400.168	564.7
400.572	567.6
400.977	568.2
401.382	588.9
401.787	574.9
402.192	586.8
402.597	580.5
403.002	556.5
403.386	582.1
403.791	587.9
404.197	559.7
404.602	570.3
405.007	570.2
405.413	563.7
405.818	560.2
406.224	558.8
406.608	567.6
407.014	562.8
407.42	585.8
407.825	567
408.231	580.5
408.637	576.3
409.043	580.7
409.449	565.9
409.834	562.9
410.24	566.7
410.646	580.8
411.052	580
411.458	567.6
411.865	575.6
412.271	571.4
412.677	568.1
413.062	571.1
413.469	558.4
413.875	593.8
414.282	580.4
414.689	574
415.095	566.5
415.502	562.2
415.888	569
416.294	557.5
416.701	602.5
417.108	567.4
417.515	575.6
417.923	569
418.33	580.3
418.715	572.7
419.123	563.3
419.53	568.6
419.937	572.8
420.345	582.7
420.752	561.9
421.16	580.1
421.546	565.1
421.953	575.4
422.361	556.1
422.769	566.8
423.177	560.2
423.585	589.7
423.992	583.7
424.379	580.4
424.787	573.2
425.195	584.6
425.603	561.8
426.011	574.5
426.419	580.1
426.806	569.2
427.214	573.7
427.623	577.6
428.031	584.6
428.44	570.2
428.848	579.6
429.235	584.3
429.644	569.4
430.053	568.7
430.461	582
430.87	597
431.279	575.3
431.666	564.4
432.075	573.6
432.484	574.2
432.893	572.2
433.302	585.9
433.711	608.4
434.099	563.9
434.508	565.6
434.918	563.6
435.327	579.2
435.737	572.8
436.125	567.3
436.534	563.8
436.944	568.7
437.353	568.7
437.763	584.7
438.173	562.5
438.561	574.7
438.971	553
439.381	565.6
439.791	574.3
440.201	550.5
440.589	569.3
440.999	568.8
441.409	571
441.819	560.1
442.23	567.4
442.619	574.9
443.029	570.7
443.439	570
443.85	581
444.26	581.8
444.649	574.3
445.06	576.2
445.471	559.7
445.881	565.3
446.292	575.3
446.682	594.6
447.092	553.1
447.503	616.2
447.914	568
448.325	565.4
448.715	569.4
449.126	556
449.537	569.3
449.948	566.1
450.338	569.3
450.75	572
451.161	570.1
451.572	571.5
451.984	559.9
452.374	549.1
452.786	561.2
453.197	564.6
453.609	575.4
453.999	560
454.411	555.7
454.823	575.5
455.235	572.1
455.647	562.3
456.037	571.2
456.449	555.1
456.862	566.6
457.274	562.8
457.665	554.4
458.077	568.9
458.489	573.7
458.902	562.1
459.293	566.8
459.705	558.6
460.118	559.4
460.53	566.6
460.921	569.5
461.334	569.6
461.747	563.2
462.16	571.5
462.551	575.9
462.964	568.7
463.377	552.6
463.79	562.2
464.182	574.8
464.595	561.1
465.008	565.6
465.421	563.6
465.813	560.5
466.226	568
466.64	564.6
467.053	600.6
467.445	573.3
467.859	563.8
468.272	565.3
468.686	572.8
469.078	555.6
469.492	549.4
469.906	561.9
470.298	571
470.712	547.8
471.126	587.4
471.54	550.6
471.933	551.3
472.347	562.8
472.761	560.2
473.175	547.6
473.568	557.8
473.982	548.1
474.397	555
474.79	557.7
475.204	566.3
475.619	559.8
476.033	563.8
476.426	564.8
476.841	559.1
477.256	580.6
477.649	551.8
478.064	558
478.479	554
478.872	551.4
479.287	545.8
479.702	551.5
480.118	555.8
480.511	553.7
480.927	553.4
481.342	559.8
481.736	559.1
482.151	557.3
482.566	566.9
482.96	556.4
483.376	565.9
483.792	553.4
484.186	557.4
484.602	554.2
485.017	561.3
485.412	557
485.827	564
486.243	560.5
486.638	580.2
487.054	565.2
487.47	574.2
487.865	558.9
488.281	556.8
488.697	556.8
489.092	556.7
489.508	551.7
489.925	568.5
490.32	548.9
490.736	566.1
491.153	563.8
491.548	563.1
491.964	568.6
492.381	547.4
492.776	563.7
493.193	557.4
493.61	564.2
494.006	556.9
494.422	564.4
494.84	552.5
495.235	566.5
495.652	563.7
496.069	555
496.465	550.3
496.883	553.7
497.3	580
497.696	554.5
498.113	564.1
498.509	548.3
498.927	552.7
499.344	553.9
499.741	549.5
500.158	569.3
500.576	570.3
500.973	561.6
501.39	554.1
501.787	550.4
502.205	563.2
502.623	550.7
503.02	547.8
503.438	554.8
503.856	552
504.253	560.5
504.671	559.2
505.068	549.8
505.486	554.1
505.905	571.7
506.302	558.5
506.72	566.9
507.118	551.3
507.536	554.7
507.955	555.6
508.352	551.6
508.771	558.6
509.169	562.3
509.587	548.8
510.006	555.6
510.404	542
510.823	546.5
511.221	553.5
511.64	554.4
512.038	569
512.457	552.4
512.877	557.8
513.275	559.7
513.694	552.6
514.092	559.2
514.512	561.5
514.91	554
515.33	553.1
515.749	560.3
516.148	560.4
516.568	560.5
516.966	559.1
517.386	554.2
517.785	545.3
518.205	549
518.603	553
519.024	544.6
519.444	553.6
519.843	560.9
520.263	553.7
520.662	555.1
521.082	546.6
521.481	557.2
521.902	553.1
522.301	558.2
522.722	554
523.121	549.8
523.542	549.3
523.963	555.4
524.362	557.3
524.783	554.6
525.183	550.1
525.604	560.4
526.003	549.6
526.425	553.4
526.824	564.5
527.246	562.6
527.646	566
528.067	554.9
528.467	553.5
528.888	558
529.289	556.4
529.71	548.8
530.11	550
530.532	551.1
530.932	546.7
531.354	547.3
531.755	590.5
532.176	559.8
532.577	549.6
532.999	555.8
533.4	554.5
533.822	561.3
534.223	552.7
534.645	553.6
535.046	553.7
535.468	556.1
535.869	565.6
536.292	552.3
536.693	549.5
537.115	552.1
537.516	548.6
537.939	552.1
538.34	568.6
538.742	571
539.165	560.2
539.566	562.1
539.989	548
540.391	549.4
540.814	553.2
541.216	554.7
541.639	555.5
542.041	561.1
542.464	554
542.866	554.9
543.268	552
543.691	555.7
544.093	559.9
544.517	571.1
544.919	544.1
545.343	575.9
545.745	547.5
546.147	556.8
546.571	555
546.974	549.3
547.398	552.1
547.8	568.5
548.224	553.5
548.627	546.7
549.03	555
549.454	548.2
549.857	537.3
550.281	546.2
550.684	547.8
551.087	568.3
551.512	559
551.915	560.9
552.34	551.3
552.743	551.2
553.146	554.8
553.571	550.4
553.975	572.8
554.399	547.1
554.803	598.1
555.207	557.9
555.632	547.8
556.036	551.4
556.461	543.5
556.865	553.5
557.268	547.3
557.694	547.9
558.098	556.6
558.502	557.6
558.927	547.3
559.332	555.9
559.736	551.4
560.162	556.7
560.566	548.7
560.992	554.1
561.396	550.8
561.801	547.1
562.227	550.6
562.631	549.2
563.036	550.6
563.462	562.1
563.867	550.7
564.272	540.6
564.698	554.3
565.103	538.2
565.508	566.6
565.935	551.7
566.34	549.9
566.745	559.1
567.172	549.2
567.577	567.3
567.982	562.1
568.409	557.2
568.815	546.4
569.22	553.2
569.626	563.3
570.053	544
570.459	553.3
570.865	559.3
571.292	556.7
571.698	555
572.104	539.1
572.531	545.7
572.937	561
573.343	553.2
573.75	552.1
574.177	553.5
574.583	556.9
574.99	547.8
575.396	558.4
575.824	553.4
576.231	555.4
576.637	549.4
577.065	576.4
577.472	542.2
577.879	547.7
578.286	568.9
578.714	542.5
579.121	545.6
579.528	554.9
579.935	557.3
580.364	549.3
580.771	544.9
581.178	554.4
581.585	550.6
582.014	560
582.421	549.6
582.829	550.3
583.236	553.6
583.644	544.9
584.073	551
584.481	553.1
584.889	548
585.296	552
585.726	551.2
586.134	543.5
586.542	550.1
586.95	568.4
587.358	541.8
587.787	560.6
588.196	540.1
588.604	552.4
589.012	550.9
589.421	546.9
589.851	542.5
590.259	557.6
590.668	547.9
591.076	584.4
591.485	544.4
591.894	546.1
592.324	564.2
592.733	568.3
593.142	544.6
593.551	544.9
593.96	559.1
594.369	541.6
594.8	542.7
595.209	555.2
595.618	541.4
596.028	541.3
596.437	543
596.847	548.6
597.256	553.4
597.687	552.4
598.097	547
598.507	543.5
598.917	552.4
599.327	563.8
599.736	557.3
600.146	559.5
600.556	551.8
600.988	560.7
601.398	551.8
601.808	558.2
602.219	535.3
602.629	547.9
603.039	549.2
603.45	577.3
603.86	548.4
604.271	569.1
604.703	551.4
605.114	549
605.525	551.7
605.935	557.6
606.346	570.3
606.757	553.1
607.168	547.5
607.579	546.6
607.99	562.8
608.402	551.3
608.813	549.3
609.224	551.1
609.636	542.9
610.047	545.3
610.48	549
610.892	552.8
611.303	557.2
611.715	541.8
612.127	542.1
612.539	545.9
612.95	546.6
613.362	537.2
613.774	537.3
614.186	543.8
614.599	542.6
615.011	554.1
615.423	536.3
615.835	540.9
616.248	540.7
616.66	553.6
617.073	535.6
617.485	544.4
617.898	555.9
618.311	547.3
618.723	549.6
619.136	574.6
619.549	556.9
619.962	572.1
620.375	545.6
620.788	546.9
621.201	539.2
621.614	552.7
622.028	545.2
622.441	546.7
622.854	562.7
623.268	539.6
623.681	549.1
624.095	553.9
624.509	557.7
624.922	553.6
625.336	540.7
625.728	549.5
626.142	559.7
626.556	562.4
626.97	553.9
627.384	544.3
627.799	551.4
628.213	557.8
628.627	545
629.041	551.6
629.456	542
629.87	544.6
630.285	554.7
630.699	555.4
631.093	548.5
631.507	553.3
631.922	552.2
632.337	562.5
632.752	541.1
633.167	548.4
633.582	550.1
633.997	549
634.412	539.5
634.806	553.4
635.221	540.6
635.637	565.2
636.052	544.2
636.468	547.8
636.883	566.2
637.299	545
637.715	538.7
638.109	549.5
638.525	539.6
638.941	561.5
639.357	549.6
639.773	561.1
640.189	546.2
640.584	548.3
641	548.1
641.416	535.2
641.832	542.8
642.249	545
642.665	547.7
643.06	551.4
643.477	557.9
643.894	536.6
644.31	550.9
644.727	546.1
645.123	543.3
645.54	543.5
645.957	547.2
646.374	553.4
646.77	549.2
647.187	570.2
647.604	548.6
648.021	538.1
648.439	541
648.835	551.8
649.252	543.8
649.67	540.9
650.088	546.5
650.484	544.9
650.902	552.9
651.32	553.6
651.738	544.6
652.134	550.8
652.552	568.3
652.971	554.6
653.389	545.8
653.786	565.4
654.204	544.8
654.622	534.8
655.019	549.5
655.438	549.8
655.857	545
656.275	548
656.673	541.7
657.091	613.6
657.51	538.5
657.908	549.6
658.327	558.5
658.746	535.1
659.144	547.9
659.563	562.4
659.982	548
660.38	539.4
660.8	544.3
661.219	554.9
661.617	553
662.037	543.9
662.457	555.6
662.855	534
663.275	573.5
663.695	545
664.094	545.3
664.514	548.1
664.934	538.2
665.333	559.7
665.753	540.4
666.152	544.3
666.572	543.2
666.993	555.4
667.392	545.5
667.812	544.7
668.212	537.1
668.632	560.4
669.053	541.7
669.453	550.9
669.874	546.7
670.273	549.4
670.694	538.3
671.116	559.3
671.515	554.1
671.937	545.9
672.337	541.2
672.758	543.1
673.158	553.6
673.58	542.8
673.98	546.2
674.402	556.1
674.824	539.2
675.224	544.2
675.646	544.1
676.047	546.7
676.469	540.5
676.869	553
677.292	550.7
677.693	541.3
678.115	537.7
678.516	551.2
678.939	549.5
679.34	543.9
679.762	561.8
680.164	554.3
680.586	538.1
680.988	549.2
681.411	567.2
681.812	545.2
682.236	536.7
682.637	540.3
683.061	530.9
683.462	550
683.864	541.4
684.288	553.7
684.69	539.4
685.114	557.5
685.516	556.9
685.94	540.5
686.342	553.5
686.766	545.9
687.168	548.6
687.571	560.3
687.995	543.8
688.398	539.5
688.822	540.7
689.225	561.7
689.628	561.7
690.052	543
690.456	553
690.88	548.5
691.284	536.5
691.687	556.4
692.112	536.8
692.515	537.3
692.919	547.8
693.344	544.6
693.747	541.8
694.173	544.4
694.577	555.1
694.98	546.4
695.406	548.6
695.81	553.1
696.214	550.2
696.64	546.7
697.044	549.6
697.448	550.8
697.874	546.7
698.279	542
698.684	536
699.11	535.3
699.514	546.2
699.919	538.8
700.324	537.2
700.75	541.3
701.156	547.2
701.561	556.2
701.987	547.7
702.393	560.8
702.798	559.9
703.203	551.1
703.63	540.7
704.036	548.4
704.442	544.6
704.847	535.5
705.274	542.1
705.68	550
706.086	555.1
706.492	532
706.92	538.8
707.326	555.9
707.732	547.6
708.139	538.4
708.545	536.4
708.973	538.6
709.38	543.6
709.786	532
710.193	556.4
710.6	545.4
711.028	537.9
711.435	540.4
711.842	542.2
712.249	539
712.656	540.5
713.064	553.3
713.492	536.5
713.9	546.6
714.307	544.9
714.715	544.4
715.123	552.2
715.53	542
715.938	552.3
716.367	546.2
716.775	550.3
717.184	536.9
717.592	539.5
718	550.3
718.408	579
718.816	583.2
719.225	550
719.633	542.8
720.042	537.1
720.472	542
720.881	566.5
721.29	541.2
721.699	536.4
722.108	545.6
722.517	543.2
722.926	544.6
723.335	549.4
723.744	538.9
724.154	542.6
724.563	544.8
724.973	543.9
725.382	545.1
725.792	541.5
726.202	540.7
726.612	553.7
727.022	542.5
727.432	543.1
779.813	542.6
780.223	588.1
780.634	539.2
781.044	540
781.454	542.1
781.865	554.6
782.276	531.2
782.686	552.6
783.097	540.1
783.508	536.2
783.919	540.5
784.33	554.5
784.741	555.2
785.152	540
785.563	534.6
785.974	538.5
786.386	553
786.776	545.2
787.188	541.2
787.599	535.4
788.011	548.2
788.423	552.1
788.835	539.3
789.247	544.6
789.659	542
790.071	543.1
790.483	578.6
790.874	542.4
791.286	552.1
791.699	540.1
792.111	547.7
792.524	550.1
792.937	541.3
793.349	537.4
793.741	536.2
794.154	538.2
794.567	560.4
794.98	549.1
795.393	536.3
795.785	550.9
796.198	536.3
796.612	543.7
797.026	538
797.439	526.4
797.831	541.6
798.245	538.9
798.659	535.7
799.073	542.1
799.487	536.8
799.88	546.2
800.294	539.7
800.708	544.1
801.123	544.6
801.516	553
801.93	533.1
802.345	522.7
802.76	541.8
803.153	554.8
803.568	550
803.983	548.3
804.377	544.7
804.792	530.4
805.207	526.3
805.601	540.1
806.016	568
806.432	532.9
806.826	573.1
807.242	553.9
807.658	543.3
808.052	535
808.468	541.1
808.884	537.7
809.279	540
809.695	547.3
810.111	556
810.506	535.6
810.922	558.1
811.339	535.6
811.734	549.8
812.151	538.7
812.546	537.9
812.963	538.3
813.38	547.3
813.776	544.3
814.193	564.3
814.589	534.3
815.006	538.8
815.402	538.2
815.82	536
816.237	540.5
816.633	541.3
817.051	531.2
817.448	541
817.866	528.9
818.262	560.4
818.68	539.1
819.077	538.3
819.495	538.3
819.892	580.4
820.311	535.4
820.708	533.6
821.127	537.8
821.524	553.6
821.943	545.4
822.34	559.1
822.759	541.5
823.157	540.2
823.576	554.5
823.974	546.6
824.393	556.7
824.791	541.3
825.189	533.3
825.609	536.8
826.007	545.1
826.427	527.1
826.826	539.4
827.246	547.7
827.644	524.8
828.043	552.2
828.463	535.7
828.862	558.1
829.261	550.2
829.682	533.9
830.081	544.1
830.502	537.7
830.901	541.7
831.301	534
831.722	526.1
832.121	540.7
832.521	536.5
832.943	544
833.342	541.6
833.742	534.8
834.164	535.6
834.564	531.5
834.965	538.1
835.386	533.1
835.787	542.8
836.188	535.6
836.588	541.8
837.01	540.4
837.411	535.1
837.812	545.4
838.213	545.9
838.636	536.4
839.037	606.2
839.438	543.7
839.84	542.6
840.263	543.7
840.664	541.6
841.066	541
841.468	541.4
841.891	537
842.293	550.7
842.695	545.5
843.098	548.2
843.5	539.8
843.902	543.6
844.326	543.8
844.729	537.4
845.131	552.5
845.534	536.8
845.937	552.2
846.34	560.7
846.764	532.7
847.167	543.7
847.571	535.5
