#lambda/nm	C1
208.295	472.2
208.67	443.3
209.045	401.3
209.419	408.2
209.794	575.4
210.169	549.8
210.544	672.8
210.919	568
211.295	558.3
211.67	570.1
212.045	560.3
212.421	566.7
212.796	598.7
213.172	566
213.547	562.3
213.923	564.6
214.299	563.8
214.675	571.5
215.051	571.6
215.427	572.7
215.803	582.3
216.179	568.5
216.555	557.8
216.932	572.1
217.308	563.9
217.684	567.2
218.061	570.3
218.438	569.8
218.814	563.1
219.191	576.2
219.568	564.8
219.945	565.7
220.322	572.4
220.699	572.2
221.076	569.9
221.453	571.8
221.83	559
222.208	561.9
222.585	567.4
222.962	565.5
223.34	577.4
223.717	570.1
224.095	564.6
224.473	565.4
224.851	562.8
225.229	554.8
225.607	584.6
225.985	553
226.363	569.3
226.741	569.3
227.119	572.3
227.497	576
227.876	554.9
228.254	569.2
228.633	572.3
229.011	568.5
229.39	572.9
229.769	570.4
230.148	576.7
230.527	585.6
230.905	572.4
231.284	569.5
231.664	562.3
232.043	581.4
232.422	568.4
232.801	564.8
233.181	572.2
233.56	563.6
233.94	566.4
234.319	553.2
234.699	564.6
235.079	602.3
235.458	597.7
235.838	576.4
236.218	559.6
236.598	554.2
236.978	555.6
237.358	556.4
237.738	560.2
238.119	568.1
238.499	554.3
238.88	563
239.26	582.6
239.641	554.3
240.021	559
240.402	565
240.783	559.4
241.163	561.4
241.544	571.2
241.925	565.8
242.306	579.4
242.687	558.1
243.069	562.9
243.45	571.1
243.831	563.7
244.212	565.1
244.594	601
244.975	572.5
245.357	571.8
245.739	555.9
246.12	573.9
246.502	578.5
246.884	567.7
247.266	567.6
247.648	569
248.03	589.5
248.412	567.5
248.794	573.9
249.176	562.6
249.559	575.3
249.941	561.6
250.323	557.7
250.706	562
251.089	565.1
251.471	568.2
251.854	568
252.237	568
252.62	584.8
253.002	565.8
253.385	568.4
253.769	584
254.152	566.3
254.535	571.1
254.918	560.2
255.301	566.6
255.685	564.9
256.068	561.4
256.452	588.1
256.835	573
257.219	574.2
257.603	580.4
257.986	555.4
258.37	572.9
258.754	558.4
259.138	575.8
259.522	576.4
259.906	561.2
260.29	569.2
260.675	565.8
261.059	568.7
261.443	557.4
261.828	564.9
262.212	572.4
262.597	555.8
262.981	566.8
263.366	570.2
263.751	568.4
264.136	561.8
264.521	562.8
264.906	562.5
265.291	579.4
265.676	569.3
266.061	579.3
266.446	580.8
266.831	569.1
267.217	590.3
267.602	569.8
267.987	571.9
268.373	566
268.759	570.6
269.144	573.8
269.53	572
269.916	561.8
270.302	564.5
270.688	569.9
271.074	572.1
271.46	574.3
271.846	595.8
272.232	567.8
272.618	564.2
273.004	566.9
273.391	579.8
273.777	579.4
274.164	572.3
274.55	581.8
274.937	570.5
275.324	560.5
275.71	577.6
276.097	573.4
276.484	559.8
276.871	574.2
277.258	573.7
277.645	556.2
278.032	570.1
278.419	566.4
278.807	573.4
279.194	565
279.581	563.4
279.969	570.9
280.356	568.1
280.744	573.2
281.131	592.2
281.519	573.7
281.907	567.8
282.295	563.3
282.682	579.9
283.07	570.5
283.458	573
283.846	577.8
284.235	581.9
284.623	576.7
285.011	560.3
285.399	565.6
285.788	567.6
286.176	563.3
286.565	577.9
286.953	558.9
287.342	564.1
287.731	559.9
288.119	562.8
288.508	568.4
288.897	568.9
289.286	555.8
289.675	561.5
290.064	572.8
290.453	568.5
290.821	565.8
291.21	586.6
291.599	558.1
291.989	568.2
292.378	573.6
292.768	579.8
293.157	571.8
293.547	573.4
293.936	571.8
294.326	565
294.716	570.2
295.106	560.7
295.496	579.5
295.886	576.4
296.276	570.6
296.666	561.6
297.056	563.6
297.446	561.1
297.836	577.8
298.227	565.2
298.617	569.4
299.008	575.7
299.398	562.9
299.789	561
300.179	569.2
300.57	579.1
300.961	564.8
301.352	560.8
301.742	578.1
302.133	573.1
302.524	567.1
302.915	570.9
303.307	557.3
303.698	578.1
304.089	572.1
304.48	569.6
304.872	570.6
305.263	563.6
305.655	560.9
306.046	567.4
306.438	568.1
306.829	565.4
307.221	576.5
307.613	574.5
308.005	580.2
308.397	583
308.789	590.5
309.181	591.5
309.573	587.7
309.965	576.5
310.357	564.4
310.749	571.8
311.142	559.7
311.534	562.4
311.926	574.9
312.319	575.1
312.711	561.2
313.104	576.6
313.497	567
313.889	603.9
314.282	584.4
314.675	586.4
315.068	568
315.461	573.4
315.854	598
316.247	579.3
316.64	570.4
317.033	569.3
317.405	576.4
317.798	571.6
318.192	572.9
318.585	565.8
318.979	572.9
319.372	558
319.766	566.6
320.16	576.3
320.553	581
320.947	586
321.341	566.5
321.735	569.9
322.129	559.2
322.523	588.2
322.917	566.3
323.311	575
323.705	570.7
324.099	574.8
324.494	583.9
324.888	581.3
325.282	567.8
325.677	571
326.071	577
326.466	586.8
326.861	575.4
327.255	581.5
327.65	578.2
328.045	582
328.44	564.4
328.835	571.9
329.23	564.8
329.625	587.8
330.02	561
330.415	588
330.81	570.4
331.206	565.7
331.601	561.5
331.996	572.1
332.37	573.9
332.766	559.1
333.161	592.3
333.557	567.5
333.953	569.7
334.348	898.7
334.744	566.2
335.14	565.1
335.536	567.1
335.932	579.2
336.328	567.8
336.724	573.1
337.12	565.5
337.516	570
337.913	567
338.309	580
338.705	563.4
339.102	578.3
339.498	567
339.895	579.4
340.291	572.2
340.688	571.8
341.085	560.5
341.481	564.8
341.878	569.2
342.275	590.6
342.672	561.1
343.069	561.7
343.466	557.2
343.842	578.9
344.239	559.7
344.636	569.5
345.033	557.4
345.431	564.6
345.828	569.5
346.225	562.2
346.623	575.8
347.02	567.2
347.418	573.9
347.816	582
348.213	559.7
348.611	573.9
349.009	558
349.407	576
349.805	557.1
350.203	554.4
350.601	576.2
350.999	566
351.397	563.1
351.795	559.2
352.193	579.6
352.57	573.8
352.969	572.9
353.367	561.2
353.766	556.4
354.164	564
354.563	572.2
354.961	564.9
355.36	563.5
355.759	566.2
356.158	554.1
356.557	559.7
356.956	554.1
357.355	550
357.754	563.1
358.153	569.2
358.552	592.2
358.951	563.5
359.35	574.4
359.75	562.4
360.149	557.2
360.527	557.9
360.926	553
361.326	573.9
361.726	567.7
362.125	553.9
362.525	569.4
362.925	560.2
363.325	568.3
363.724	567.4
364.124	564.8
364.524	558.4
364.924	561.6
365.324	575
365.725	547.8
366.125	568.2
366.525	560.9
366.904	554.8
367.304	548.5
367.705	579.8
368.105	574.9
368.506	561.6
368.906	566.4
369.307	563.3
369.708	571.3
370.108	553.1
370.509	571.6
370.91	558.3
371.311	562.6
371.712	567.1
372.113	560.5
372.514	549.9
372.894	562.1
373.295	556.8
373.696	571.7
374.097	574.4
374.499	586.8
374.9	560.1
375.301	561
375.703	560.9
376.105	559.1
376.506	567.4
376.908	569.4
377.309	556.6
377.711	567.3
378.113	558.1
378.493	563.1
378.895	557.1
379.297	567.6
379.699	552
380.102	565.4
380.504	561.5
380.906	552
381.308	586.9
381.71	555.7
382.113	567
382.515	562.6
382.918	567.4
383.299	561.5
383.701	568.3
384.104	566.3
384.507	542.7
384.909	556.3
385.312	548
385.715	552.8
386.118	554.7
386.521	553.3
386.924	563.1
387.327	551.8
387.709	549.5
388.112	546.5
388.515	558.5
388.918	561.6
389.322	564.7
389.725	555.2
390.129	578.4
390.532	566.1
390.936	558.8
391.339	557.5
391.743	561.9
392.125	549.2
392.529	566
392.933	575.5
393.337	559.9
393.74	557.7
394.144	557.7
394.548	555.8
394.953	554.6
395.357	563.5
395.761	552.9
396.144	566
396.548	561
396.952	559.6
397.357	563.6
397.761	552.5
398.166	557.4
398.57	560.3
398.975	553.7
399.379	570.1
399.763	599.7
400.168	555.3
400.572	557.4
400.977	551.1
401.382	577.1
401.787	565.7
402.192	573.4
402.597	570.6
403.002	544.4
403.386	564.4
403.791	573.7
404.197	553.4
404.602	560.8
405.007	563.1
405.413	558
405.818	554.6
406.224	548
406.608	560.8
407.014	554.6
407.42	579.4
407.825	557.1
408.231	562.8
408.637	563.9
409.043	578.1
409.449	560.2
409.834	559.1
410.24	555.7
410.646	568.6
411.052	562.7
411.458	564.2
411.865	562.3
412.271	567.3
412.677	565.8
413.062	562.5
413.469	552.7
413.875	585.3
414.282	574.2
414.689	555.3
415.095	566.7
415.502	557.7
415.888	561
416.294	546.1
416.701	592.5
417.108	556
417.515	565.4
417.923	555.6
418.33	575.3
418.715	570.6
419.123	553.1
419.53	559.3
419.937	564.2
420.345	576
420.752	559.5
421.16	574.2
421.546	556.1
421.953	572.5
422.361	552
422.769	564.7
423.177	551.4
423.585	585.2
423.992	580.6
424.379	565.4
424.787	564.1
425.195	580.7
425.603	565
426.011	569
426.419	577.6
426.806	562.8
427.214	559.2
427.623	567.8
428.031	578.3
428.44	564.7
428.848	572.9
429.235	576.5
429.644	561.8
430.053	561.1
430.461	569.7
430.87	584.8
431.279	567.4
431.666	553.6
432.075	565.9
432.484	567.7
432.893	557.1
433.302	582.3
433.711	595.7
434.099	563.7
434.508	561
434.918	551.1
435.327	573.1
435.737	561.4
436.125	561.1
436.534	566.1
436.944	561.2
437.353	564.7
437.763	581.6
438.173	556.9
438.561	575.4
438.971	546.7
439.381	558.3
439.791	561.8
440.201	540.6
440.589	560.9
440.999	566.2
441.409	565.1
441.819	553.1
442.23	566.3
442.619	569.9
443.029	564.7
443.439	565.7
443.85	569.2
444.26	574.6
444.649	563.8
445.06	557.6
445.471	553
445.881	558.2
446.292	568.8
446.682	582.5
447.092	546.3
447.503	602.9
447.914	561.9
448.325	557.3
448.715	556.3
449.126	551
449.537	557.2
449.948	560
450.338	557.6
450.75	563.7
451.161	561.3
451.572	561
451.984	555.8
452.374	548.2
452.786	550.9
453.197	558
453.609	565.5
453.999	542.7
454.411	553.3
454.823	562.5
455.235	564.4
455.647	559.2
456.037	561.5
456.449	543.5
456.862	558.6
457.274	556.7
457.665	549
458.077	560.1
458.489	569.7
458.902	557.7
459.293	565.3
459.705	555.4
460.118	553.9
460.53	563.9
460.921	557.7
461.334	563.3
461.747	558
462.16	576
462.551	567.3
462.964	558
463.377	543.9
463.79	558.4
464.182	566.7
464.595	547.4
465.008	560
465.421	557.5
465.813	550
466.226	565.3
466.64	555.5
467.053	597.2
467.445	563
467.859	558.1
468.272	555.5
468.686	568.1
469.078	548.8
469.492	545.9
469.906	556.6
470.298	558.2
470.712	548.4
471.126	584.1
471.54	547.9
471.933	544.3
472.347	550.1
472.761	552.6
473.175	549.7
473.568	552.6
473.982	542.6
474.397	550.6
474.79	551.8
475.204	559.6
475.619	555.1
476.033	557.2
476.426	556.8
476.841	549.6
477.256	577.3
477.649	546.6
478.064	552.9
478.479	548.2
478.872	554.6
479.287	537.5
479.702	543.1
480.118	551.9
480.511	550.7
480.927	545.8
481.342	549.2
481.736	556.3
482.151	553
482.566	558.5
482.96	554.6
483.376	561.4
483.792	544.3
484.186	551.7
484.602	549.5
485.017	553
485.412	552.3
485.827	558.8
486.243	551.4
486.638	571.9
487.054	554.5
487.47	569.6
487.865	551.4
488.281	549.2
488.697	548.7
489.092	550.8
489.508	540.9
489.925	560.3
490.32	546
490.736	552.9
491.153	555.4
491.548	555
491.964	558.7
492.381	539.4
492.776	557
493.193	551.7
493.61	558.1
494.006	547.8
494.422	555.2
494.84	541.3
495.235	556.4
495.652	548.7
496.069	553.1
496.465	541
496.883	552.1
497.3	573.8
497.696	547
498.113	555.9
498.509	548.6
498.927	540.9
499.344	544.4
499.741	545.5
500.158	556.6
500.576	559.2
500.973	552.7
501.39	541.7
501.787	546.8
502.205	549.5
502.623	548
503.02	539.8
503.438	546
503.856	545.8
504.253	550.5
504.671	546.3
505.068	548.2
505.486	545.4
505.905	567.8
506.302	555.1
506.72	557.7
507.118	547.8
507.536	554.1
507.955	543.1
508.352	552.8
508.771	553
509.169	557.7
509.587	541.6
510.006	551
510.404	539.9
510.823	547
511.221	549.1
511.64	547.1
512.038	563.1
512.457	550.2
512.877	549.9
513.275	539.6
513.694	546.3
514.092	544.9
514.512	557.1
514.91	552.2
515.33	550
515.749	546.7
516.148	555.7
516.568	552.6
516.966	550.1
517.386	544
517.785	548
518.205	544.5
518.603	545.8
519.024	545.1
519.444	547.9
519.843	555.4
520.263	557.1
520.662	551.7
521.082	544.8
521.481	551.6
521.902	544.1
522.301	554.4
522.722	550.9
523.121	544.5
523.542	542.9
523.963	539.9
524.362	547.4
524.783	552.7
525.183	545.4
525.604	548.9
526.003	539.2
526.425	539.9
526.824	549
527.246	554.1
527.646	554.7
528.067	545.9
528.467	549.7
528.888	553.2
529.289	544.2
529.71	546.3
530.11	545.7
530.532	545.1
530.932	544.5
531.354	537.2
531.755	579.4
532.176	556.3
532.577	546.4
532.999	549.6
533.4	548.3
533.822	555.6
534.223	551.1
534.645	547
535.046	547.8
535.468	551
535.869	562.7
536.292	542.1
536.693	546.7
537.115	550.6
537.516	541
537.939	549
538.34	562.5
538.742	553.3
539.165	551.1
539.566	553.3
539.989	547.6
540.391	539.3
540.814	546.3
541.216	551.4
541.639	545.8
542.041	555.4
542.464	544.1
542.866	539.8
543.268	541.5
543.691	552.2
544.093	550.3
544.517	564.8
544.919	541.5
545.343	568.2
545.745	544.4
546.147	549.7
546.571	544.9
546.974	541.1
547.398	544.1
547.8	559.5
548.224	546
548.627	539.9
549.03	554.9
549.454	539.8
549.857	534.9
550.281	544.6
550.684	541.9
551.087	555.3
551.512	558
551.915	561.2
552.34	542.6
552.743	542.4
553.146	547.5
553.571	547.1
553.975	562.4
554.399	540.1
554.803	590.3
555.207	546.5
555.632	542.2
556.036	545
556.461	540.2
556.865	545.6
557.268	536.6
557.694	540.3
558.098	551.4
558.502	549.4
558.927	541.8
559.332	545.1
559.736	543.2
560.162	547.7
560.566	546.5
560.992	548.9
561.396	547.5
561.801	542.1
562.227	551.9
562.631	550.3
563.036	546.3
563.462	553.8
563.867	547.3
564.272	540.3
564.698	546.9
565.103	536
565.508	558.2
565.935	547
566.34	540.9
566.745	556.8
567.172	548.1
567.577	563.9
567.982	556.1
568.409	553.2
568.815	542.5
569.22	544.5
569.626	551.7
570.053	534.1
570.459	546.6
570.865	550.9
571.292	552.2
571.698	552.7
572.104	536.5
572.531	540.3
572.937	556.2
573.343	544.9
573.75	545.5
574.177	545.8
574.583	549.9
574.99	540.6
575.396	550.1
575.824	542.1
576.231	550.3
576.637	540.8
577.065	567
577.472	544.5
577.879	546.4
578.286	560.1
578.714	540.3
579.121	542.5
579.528	549.9
579.935	550.9
580.364	542.2
580.771	535
581.178	540.4
581.585	546.1
582.014	551.5
582.421	540.4
582.829	546.8
583.236	550.1
583.644	535.7
584.073	544
584.481	541.6
584.889	537.3
585.296	552.1
585.726	539.5
586.134	533.3
586.542	538
586.95	557.5
587.358	532.3
587.787	548.7
588.196	530.5
588.604	540.7
589.012	540.7
589.421	534.3
589.851	538
590.259	544.6
590.668	538.9
591.076	580.9
591.485	538.3
591.894	539.9
592.324	552.6
592.733	548
593.142	530.3
593.551	540.4
593.96	543.6
594.369	533.2
594.8	541.7
595.209	542.4
595.618	532.5
596.028	535.9
596.437	533
596.847	538.6
597.256	542.7
597.687	547.6
598.097	545.1
598.507	534.2
598.917	546.2
599.327	551.3
599.736	547.4
600.146	553.3
600.556	545.6
600.988	549.3
601.398	544.2
601.808	552.8
602.219	532.9
602.629	546.8
603.039	546.2
603.45	577.2
603.86	546.9
604.271	556.9
604.703	541.9
605.114	542
605.525	543.9
605.935	548.2
606.346	560.3
606.757	546.1
607.168	544.2
607.579	541.1
607.99	553.7
608.402	547.7
608.813	551.2
609.224	539.3
609.636	537.6
610.047	536.2
610.48	548
610.892	552.1
611.303	553.4
611.715	540.8
612.127	532
612.539	537.2
612.95	543.1
613.362	532.9
613.774	532.1
614.186	536.1
614.599	532.5
615.011	551.8
615.423	533.6
615.835	538.7
616.248	531.8
616.66	547
617.073	533.7
617.485	539.4
617.898	551.7
618.311	541.2
618.723	541.6
619.136	566.2
619.549	554.4
619.962	562.4
620.375	535.3
620.788	544.9
621.201	531.7
621.614	543.4
622.028	539
622.441	538.9
622.854	549
623.268	530.9
623.681	543.4
624.095	545.6
624.509	548.8
624.922	550.6
625.336	529.2
625.728	541.2
626.142	550.1
626.556	558.9
626.97	547.9
627.384	534.7
627.799	544.4
628.213	549.8
628.627	542.9
629.041	543.1
629.456	542
629.87	541.4
630.285	544.8
630.699	549.4
631.093	537.7
631.507	545.6
631.922	544.2
632.337	554.9
632.752	532.1
633.167	546.3
633.582	538.1
633.997	540.7
634.412	539.6
634.806	541.1
635.221	531.3
635.637	552.1
636.052	534.2
636.468	545.2
636.883	560.6
637.299	537.2
637.715	530.1
638.109	542.8
638.525	526.7
638.941	553.2
639.357	543.7
639.773	547.5
640.189	537.3
640.584	540.4
641	542.5
641.416	532.2
641.832	540.8
642.249	543.1
642.665	543.4
643.06	548
643.477	552.3
643.894	531.5
644.31	538.7
644.727	540.9
645.123	543.3
645.54	534.4
645.957	544.1
646.374	549.4
646.77	537.2
647.187	566.6
647.604	543.9
648.021	526.9
648.439	536.1
648.835	546.6
649.252	542.1
649.67	537.5
650.088	541.9
650.484	542.4
650.902	548.8
651.32	546.1
651.738	544.4
652.134	541
652.552	558.7
652.971	553.1
653.389	543
653.786	553.5
654.204	546.7
654.622	537.2
655.019	544.9
655.438	547.9
655.857	543.7
656.275	545
656.673	535.1
657.091	604.3
657.51	541.9
657.908	553.1
658.327	556.4
658.746	534.2
659.144	540.7
659.563	556.5
659.982	541.6
660.38	536.6
660.8	541.8
661.219	547.8
661.617	544.3
662.037	543.5
662.457	547
662.855	525.8
663.275	565
663.695	541.4
664.094	538.1
664.514	543.8
664.934	534.5
665.333	544.4
665.753	533
666.152	531.2
666.572	537
666.993	553.3
667.392	535.8
667.812	534.7
668.212	536.2
668.632	552
669.053	531.8
669.453	540.3
669.874	543.5
670.273	543.9
670.694	535.5
671.116	552.2
671.515	547.7
671.937	541.5
672.337	539.5
672.758	542.1
673.158	545.1
673.58	532.3
673.98	540.5
674.402	553.3
674.824	545.2
675.224	536.6
675.646	530.1
676.047	539.8
676.469	543.1
676.869	543.6
677.292	539.3
677.693	539.1
678.115	538.5
678.516	546.7
678.939	542
679.34	534.2
679.762	547.4
680.164	543.7
680.586	533.2
680.988	547.3
681.411	562.2
681.812	535.1
682.236	532.4
682.637	537.4
683.061	525.9
683.462	539.5
683.864	534.6
684.288	545.9
684.69	529
685.114	549.5
685.516	542.2
685.94	536
686.342	542.2
686.766	529.8
687.168	535.4
687.571	551.8
687.995	538.9
688.398	532.9
688.822	536.3
689.225	552.3
689.628	553.6
690.052	536.9
690.456	547.5
690.88	538.3
691.284	531
691.687	547.3
692.112	532.1
692.515	533.3
692.919	540.3
693.344	539.9
693.747	537.4
694.173	533.4
694.577	549.8
694.98	535.3
695.406	537.6
695.81	538.3
696.214	544
696.64	542.7
697.044	539.7
697.448	546
697.874	539
698.279	539.8
698.684	535.8
699.11	535.7
699.514	535.6
699.919	535.9
700.324	535.5
700.75	547.5
701.156	545
701.561	551
701.987	543.6
702.393	549.6
702.798	545.7
703.203	540
703.63	532.2
704.036	530.5
704.442	544.3
704.847	530.2
705.274	538.2
705.68	546.4
706.086	546.7
706.492	529.3
706.92	539.8
707.326	547.3
707.732	535.8
708.139	529.8
708.545	527.3
708.973	534
709.38	537.5
709.786	531.4
710.193	557.3
710.6	540
711.028	527.6
711.435	533.6
711.842	539.2
712.249	531.9
712.656	534.4
713.064	548
713.492	530.3
713.9	531.7
714.307	538.2
714.715	534.5
715.123	540.7
715.53	538.1
715.938	544.3
716.367	538.9
716.775	530.5
717.184	530.6
717.592	532.5
718	547.3
718.408	566.2
718.816	575.2
719.225	534.5
719.633	536.5
720.042	532.1
720.472	539.3
720.881	550.4
721.29	540.8
721.699	528.6
722.108	543.2
722.517	539.9
722.926	533
723.335	543.9
723.744	534
724.154	538.7
724.563	538.8
724.973	544.5
725.382	538.1
725.792	539.4
726.202	530.6
726.612	546.3
727.022	541
727.432	530.4
779.813	538
780.223	577.6
780.634	532.5
781.044	531.5
781.454	536.8
781.865	544.4
782.276	530.6
782.686	541.2
783.097	538.6
783.508	535.7
783.919	538.5
784.33	549.2
784.741	541.4
785.152	530.7
785.563	523.8
785.974	533.5
786.386	545
786.776	532.5
787.188	537.7
787.599	529.1
788.011	543.3
788.423	538.8
788.835	530.5
789.247	532.9
789.659	530.9
790.071	531.9
790.483	573.8
790.874	534.7
791.286	544.4
791.699	533.7
792.111	536.3
792.524	536.9
792.937	535.8
793.349	528.7
793.741	528.3
794.154	536.6
794.567	551.6
794.98	535
795.393	528.4
795.785	550.5
796.198	531.1
796.612	538.9
797.026	531.1
797.439	527.2
797.831	529.6
798.245	529.5
798.659	536.4
799.073	527.8
799.487	530.3
799.88	538.7
800.294	537.1
800.708	537.7
801.123	534.7
801.516	551.8
801.93	534.3
802.345	518.4
802.76	541.4
803.153	552.6
803.568	553.6
803.983	547.7
804.377	542.4
804.792	526.6
805.207	527.4
805.601	540
806.016	563.8
806.432	530.6
806.826	564.6
807.242	542.9
807.658	540.1
808.052	534.3
808.468	531.2
808.884	538.3
809.279	534.1
809.695	542.6
810.111	557
810.506	542.9
810.922	545.7
811.339	534
811.734	540.7
812.151	532.1
812.546	532.3
812.963	532.3
813.38	539.6
813.776	535.9
814.193	550.7
814.589	533.8
815.006	534.6
815.402	531.2
815.82	529.4
816.237	539.5
816.633	534.6
817.051	531.1
817.448	536.3
817.866	529.1
818.262	555.3
818.68	527
819.077	526.9
819.495	529.9
819.892	568.6
820.311	529.1
820.708	535.6
821.127	527.4
821.524	543.2
821.943	532.7
822.34	550.7
822.759	535.2
823.157	535.8
823.576	543.7
823.974	542
824.393	541.7
824.791	528.8
825.189	531
825.609	533.3
826.007	539.2
826.427	523.6
826.826	533.6
827.246	532.2
827.644	522.5
828.043	540.6
828.463	529.2
828.862	537.7
829.261	537.7
829.682	522.6
830.081	540.9
830.502	535.8
830.901	540.7
831.301	531.9
831.722	526.8
832.121	531.9
832.521	525
832.943	532.1
833.342	531
833.742	525.9
834.164	532.3
834.564	524.7
834.965	531.2
835.386	535
835.787	528.2
836.188	530.6
836.588	534.1
837.01	524.5
837.411	530.7
837.812	536.9
838.213	534.7
838.636	529
839.037	593.6
839.438	536.1
839.84	531.9
840.263	541.5
840.664	540.7
841.066	532.9
841.468	535.2
841.891	526.6
842.293	541.6
842.695	536.9
843.098	545.2
843.5	540.6
843.902	540.5
844.326	540
844.729	535.6
845.131	541.3
845.534	533.3
845.937	548.6
846.34	546.2
846.764	525.4
847.167	533.9
847.571	523.5
847.974	529.1
848.377	527.5
