#lambda/nm	C1
208.295	471.6
208.67	439.8
209.045	399.9
209.419	408.9
209.794	579.5
210.169	558
210.544	666.4
210.919	572
211.295	557.8
211.67	572.6
212.045	560.9
212.421	566.2
212.796	600.3
213.172	562.2
213.547	566.7
213.923	562.4
214.299	566.2
214.675	573.9
215.051	571.6
215.427	570.8
215.803	587
216.179	576.9
216.555	564.4
216.932	570.1
217.308	565
217.684	564.8
218.061	572.7
218.438	567.5
218.814	563.2
219.191	574.3
219.568	553.6
219.945	566.8
220.322	576.2
220.699	572.2
221.076	576.8
221.453	568.8
221.83	560.2
222.208	563.2
222.585	560
222.962	570.9
223.34	565.9
223.717	561
224.095	563.6
224.473	560.1
224.851	560.1
225.229	556.7
225.607	582.4
225.985	556.1
226.363	571.5
226.741	571.6
227.119	570.8
227.497	581.4
227.876	559.6
228.254	576.7
228.633	571.2
229.011	567.9
229.39	574.7
229.769	573.5
230.148	576.8
230.527	583.3
230.905	568.7
231.284	571.8
231.664	562.1
232.043	575.6
232.422	569.2
232.801	561.9
233.181	576.2
233.56	562.3
233.94	568.8
234.319	559.4
234.699	566.6
235.079	601
235.458	601.4
235.838	586.7
236.218	559.9
236.598	559.8
236.978	566.5
237.358	565.1
237.738	570.6
238.119	578.3
238.499	558.2
238.88	571.3
239.26	580.2
239.641	564.6
240.021	569.3
240.402	566.7
240.783	567.7
241.163	568
241.544	571.9
241.925	570.6
242.306	583.9
242.687	561.8
243.069	569.5
243.45	578.1
243.831	565.4
244.212	568.9
244.594	599.4
244.975	576.4
245.357	578.4
245.739	562.7
246.12	565.7
246.502	581.6
246.884	568
247.266	562.3
247.648	568.5
248.03	594.3
248.412	565.2
248.794	574.3
249.176	562.5
249.559	580.1
249.941	559.4
250.323	559.6
250.706	558.4
251.089	570.5
251.471	573
251.854	570.1
252.237	568
252.62	579.1
253.002	570.8
253.385	568.9
253.769	580.9
254.152	573.2
254.535	576.2
254.918	562.5
255.301	568.6
255.685	568.9
256.068	564.2
256.452	589.5
256.835	577.9
257.219	572.3
257.603	583.2
257.986	562.9
258.37	577.4
258.754	556.7
259.138	576.5
259.522	576.3
259.906	570.1
260.29	572.7
260.675	569.8
261.059	573.5
261.443	558.8
261.828	575.4
262.212	572.8
262.597	561.8
262.981	561.8
263.366	573.9
263.751	570.4
264.136	561.9
264.521	567.7
264.906	562.2
265.291	578.3
265.676	570.8
266.061	578.2
266.446	589.5
266.831	564.3
267.217	590.3
267.602	575.6
267.987	571.7
268.373	571.6
268.759	579.8
269.144	577.4
269.53	572.1
269.916	565.2
270.302	566.7
270.688	571.8
271.074	570.7
271.46	578.9
271.846	595.9
272.232	566.4
272.618	556.9
273.004	563.6
273.391	574.1
273.777	583.6
274.164	572.7
274.55	582.2
274.937	572.9
275.324	560.4
275.71	575.5
276.097	572.4
276.484	564.1
276.871	574.5
277.258	569.3
277.645	559.7
278.032	566
278.419	568.7
278.807	572.5
279.194	556.2
279.581	558.1
279.969	573.7
280.356	570.4
280.744	566.4
281.131	595.5
281.519	584.1
281.907	571.3
282.295	560.3
282.682	577.2
283.07	574
283.458	573.4
283.846	576.2
284.235	575.1
284.623	573.3
285.011	559.7
285.399	570.6
285.788	567.1
286.176	554.5
286.565	574.6
286.953	562.8
287.342	561.9
287.731	563.4
288.119	560.9
288.508	564.7
288.897	567.7
289.286	562.8
289.675	573.2
290.064	581
290.453	569
290.821	566.7
291.21	587.4
291.599	564.3
291.989	572.3
292.378	578.7
292.768	585.1
293.157	575.7
293.547	581.9
293.936	570.7
294.326	563.4
294.716	568.4
295.106	565.8
295.496	579.1
295.886	581
296.276	568.5
296.666	564.2
297.056	563.7
297.446	556.3
297.836	584.6
298.227	568.7
298.617	574.2
299.008	583.4
299.398	573
299.789	560.6
300.179	572.7
300.57	586.7
300.961	567.9
301.352	567.6
301.742	583.4
302.133	570.9
302.524	572.6
302.915	563.7
303.307	567.9
303.698	571.1
304.089	575.4
304.48	569.5
304.872	577.2
305.263	573.6
305.655	562
306.046	576.2
306.438	576.5
306.829	569
307.221	580.6
307.613	576.9
308.005	579.5
308.397	585.2
308.789	594.5
309.181	597.7
309.573	593.3
309.965	582.2
310.357	567.4
310.749	573.7
311.142	565.5
311.534	562.1
311.926	579.3
312.319	564.9
312.711	568.8
313.104	578.4
313.497	569.9
313.889	598.9
314.282	579.1
314.675	595.2
315.068	571.3
315.461	572.1
315.854	596.3
316.247	574.6
316.64	570.5
317.033	566.4
317.405	579.1
317.798	564.5
318.192	567.4
318.585	558.1
318.979	575.3
319.372	561.7
319.766	568
320.16	584.5
320.553	586.3
320.947	588.1
321.341	569.5
321.735	571.3
322.129	558.2
322.523	591.9
322.917	562.3
323.311	577.8
323.705	578.4
324.099	577.6
324.494	586.6
324.888	584.2
325.282	573.6
325.677	571.8
326.071	576.6
326.466	582.3
326.861	576.5
327.255	585.6
327.65	583.8
328.045	588.3
328.44	565.7
328.835	573.8
329.23	565.6
329.625	595.7
330.02	563.4
330.415	590
330.81	573.6
331.206	569.9
331.601	563.8
331.996	582.1
332.37	585.2
332.766	559.8
333.161	593.6
333.557	567
333.953	564.9
334.348	898.3
334.744	573.1
335.14	568.9
335.536	564.8
335.932	581.4
336.328	570.5
336.724	580.7
337.12	565.4
337.516	570.6
337.913	571
338.309	583.3
338.705	573.6
339.102	578.2
339.498	563.7
339.895	581.4
340.291	565.1
340.688	578.6
341.085	566.8
341.481	572.7
341.878	568.8
342.275	591.7
342.672	570.1
343.069	564.3
343.466	553.9
343.842	580.8
344.239	563.2
344.636	568.7
345.033	567.9
345.431	562.4
345.828	571
346.225	566.1
346.623	579
347.02	571.1
347.418	580.9
347.816	587.2
348.213	560.5
348.611	570.6
349.009	565.5
349.407	579.1
349.805	557.4
350.203	562.1
350.601	580.6
350.999	564
351.397	562.6
351.795	568.7
352.193	574.8
352.57	574.8
352.969	580.4
353.367	559.2
353.766	560.6
354.164	570.7
354.563	575.3
354.961	568.1
355.36	562.2
355.759	566.6
356.158	560.1
356.557	554.7
356.956	553.4
357.355	557.5
357.754	569.6
358.153	572.9
358.552	590.4
358.951	563.9
359.35	574.9
359.75	563.2
360.149	563.1
360.527	555.3
360.926	556.5
361.326	568.5
361.726	568.5
362.125	559.4
362.525	572.6
362.925	568.1
363.325	565.5
363.724	567.9
364.124	561.6
364.524	558.2
364.924	565
365.324	576.7
365.725	553.6
366.125	575.4
366.525	567.9
366.904	562
367.304	550.7
367.705	582.7
368.105	575.7
368.506	565.3
368.906	567.7
369.307	571.5
369.708	568.5
370.108	554.2
370.509	573.8
370.91	564.5
371.311	560.8
371.712	562.8
372.113	561.1
372.514	554.7
372.894	572.1
373.295	559.9
373.696	573.7
374.097	568.9
374.499	589.5
374.9	564.5
375.301	554.5
375.703	567.7
376.105	553.9
376.506	562.3
376.908	568.2
377.309	563.3
377.711	563.4
378.113	557
378.493	563.9
378.895	562.1
379.297	567.5
379.699	553.5
380.102	570.7
380.504	560.9
380.906	558.2
381.308	584.8
381.71	563.1
382.113	571
382.515	562
382.918	569.5
383.299	558.3
383.701	565.6
384.104	568.9
384.507	548.3
384.909	558
385.312	555.3
385.715	550.5
386.118	560.4
386.521	551.9
386.924	574.2
387.327	556.3
387.709	546.5
388.112	548.8
388.515	560.1
388.918	561.6
389.322	564
389.725	559.9
390.129	577.7
390.532	572.1
390.936	557.9
391.339	557.6
391.743	562.3
392.125	553.9
392.529	570.9
392.933	573.1
393.337	561.7
393.74	562.1
394.144	562.2
394.548	562.4
394.953	559.7
395.357	573.9
395.761	556
396.144	563.3
396.548	562
396.952	565.6
397.357	558.3
397.761	562.9
398.166	560.3
398.57	562.3
398.975	551.1
399.379	565.8
399.763	607.9
400.168	557.6
400.572	561.1
400.977	557.6
401.382	579
401.787	567.9
402.192	569.8
402.597	576
403.002	553.6
403.386	573.9
403.791	576.5
404.197	556.5
404.602	562
405.007	567.9
405.413	556
405.818	551.9
406.224	555.2
406.608	552.9
407.014	547.6
407.42	575.4
407.825	561.6
408.231	571.8
408.637	570.1
409.043	574
409.449	556.9
409.834	557.5
410.24	563.7
410.646	571
411.052	565.3
411.458	566.8
411.865	570.6
412.271	568.6
412.677	562.8
413.062	572.8
413.469	555.4
413.875	587.5
414.282	572.3
414.689	564.1
415.095	568.8
415.502	560.9
415.888	566.9
416.294	551.3
416.701	600.8
417.108	552.9
417.515	572.8
417.923	555.9
418.33	582.9
418.715	570.1
419.123	556.5
419.53	560.5
419.937	565
420.345	571.5
420.752	557.5
421.16	579.3
421.546	562.5
421.953	569.3
422.361	552.7
422.769	565.4
423.177	551.3
423.585	588.1
423.992	583.6
424.379	576.1
424.787	568.9
425.195	580.8
425.603	564.6
426.011	570.7
426.419	576.6
426.806	571.9
427.214	568.1
427.623	570.9
428.031	578
428.44	569.4
428.848	577.7
429.235	578.7
429.644	569.9
430.053	569.3
430.461	581.2
430.87	585.9
431.279	577.8
431.666	560.8
432.075	566.8
432.484	574.3
432.893	563.8
433.302	581.1
433.711	604.8
434.099	567.1
434.508	558.1
434.918	558.1
435.327	569.6
435.737	567
436.125	560.3
436.534	564.6
436.944	570.3
437.353	569.7
437.763	583.2
438.173	552.2
438.561	572.1
438.971	546.1
439.381	556.2
439.791	562.6
440.201	547.3
440.589	562.1
440.999	570.5
441.409	563.8
441.819	548.7
442.23	566.2
442.619	568.2
443.029	564.3
443.439	563.3
443.85	572.2
444.26	575
444.649	570.1
445.06	563.7
445.471	556
445.881	565
446.292	581.2
446.682	585.6
447.092	551.1
447.503	606.2
447.914	561.2
448.325	562.6
448.715	565.4
449.126	556.7
449.537	560.8
449.948	559.3
450.338	563.6
450.75	569.8
451.161	566.4
451.572	564.3
451.984	559.8
452.374	547.9
452.786	561
453.197	570.8
453.609	569
453.999	549.6
454.411	553.4
454.823	568.4
455.235	564.8
455.647	553.7
456.037	566.8
456.449	547.1
456.862	559.8
457.274	564.7
457.665	553.2
458.077	562.2
458.489	568.5
458.902	558.5
459.293	561.8
459.705	563.3
460.118	551.7
460.53	559.3
460.921	559.2
461.334	563.1
461.747	555
462.16	569.2
462.551	572.7
462.964	564.3
463.377	540.8
463.79	556.1
464.182	565.3
464.595	557.2
465.008	565
465.421	561
465.813	551
466.226	561.1
466.64	552.3
467.053	598.7
467.445	564.1
467.859	554.4
468.272	556.1
468.686	565
469.078	556.8
469.492	547
469.906	554.6
470.298	562.8
470.712	547.4
471.126	586.2
471.54	543.8
471.933	546.9
472.347	548.9
472.761	556.5
473.175	548.2
473.568	546.7
473.982	548.7
474.397	555.8
474.79	555.7
475.204	563.1
475.619	553.4
476.033	556.1
476.426	550.1
476.841	546.6
477.256	572.8
477.649	547.3
478.064	550.8
478.479	544.5
478.872	553.5
479.287	537.5
479.702	552.7
480.118	551.3
480.511	553.2
480.927	545.3
481.342	545.3
481.736	556.2
482.151	549.5
482.566	562.6
482.96	557.6
483.376	561.2
483.792	553.4
484.186	558.2
484.602	547.6
485.017	551.6
485.412	549.9
485.827	554.2
486.243	554.4
486.638	570.2
487.054	560.5
487.47	569.6
487.865	555.2
488.281	548.9
488.697	550.3
489.092	549.6
489.508	550.3
489.925	561.6
490.32	541.7
490.736	561.9
491.153	558.2
491.548	554.4
491.964	563.3
492.381	544.6
492.776	554.9
493.193	557
493.61	560.2
494.006	552.6
494.422	563
494.84	547.2
495.235	561.7
495.652	550.7
496.069	557.3
496.465	542.6
496.883	551.8
497.3	575.8
497.696	548.4
498.113	561.4
498.509	541.8
498.927	544.1
499.344	544.3
499.741	546.7
500.158	562.7
500.576	558.4
500.973	552.5
501.39	541.8
501.787	543.8
502.205	551
502.623	546.5
503.02	537
503.438	549.3
503.856	544.2
504.253	554.2
504.671	554
505.068	546.6
505.486	546.5
505.905	568
506.302	545.5
506.72	560.8
507.118	540.4
507.536	546.5
507.955	547.7
508.352	553.8
508.771	556.1
509.169	553
509.587	546.2
510.006	554.2
510.404	541.4
510.823	543.5
511.221	543.4
511.64	545
512.038	564.8
512.457	554
512.877	552.5
513.275	548.3
513.694	549.9
514.092	546.6
514.512	556
514.91	548.4
515.33	551
515.749	551
516.148	556.2
516.568	555
516.966	552.1
517.386	543.6
517.785	551.1
518.205	546.9
518.603	545.4
519.024	542.2
519.444	556.2
519.843	558
520.263	554.5
520.662	556.5
521.082	545.5
521.481	554.4
521.902	545.2
522.301	548.7
522.722	558.6
523.121	548.8
523.542	545.4
523.963	547.3
524.362	555.4
524.783	552.5
525.183	551.6
525.604	554.9
526.003	543.1
526.425	551.8
526.824	559
527.246	563.1
527.646	559.5
528.067	549.1
528.467	552.9
528.888	556.6
529.289	547.4
529.71	550.2
530.11	553.2
530.532	548.3
530.932	544.5
531.354	544.6
531.755	582.1
532.176	562.6
532.577	543.3
532.999	549.3
533.4	548.1
533.822	552
534.223	547.4
534.645	547.7
535.046	546.5
535.468	548.3
535.869	558.8
536.292	540.8
536.693	556.7
537.115	553.9
537.516	543.4
537.939	550
538.34	561.1
538.742	561.7
539.165	547.7
539.566	551.9
539.989	543.9
540.391	544.9
540.814	553.5
541.216	552.6
541.639	546.4
542.041	558
542.464	544.4
542.866	545.2
543.268	543.4
543.691	553.1
544.093	555.3
544.517	571.7
544.919	543.4
545.343	574.7
545.745	543.1
546.147	557.2
546.571	548.2
546.974	543.6
547.398	546.3
547.8	564.8
548.224	543.6
548.627	546.4
549.03	553.4
549.454	546.8
549.857	542.1
550.281	538.7
550.684	545.3
551.087	560.2
551.512	553.3
551.915	558
552.34	550.1
552.743	549.4
553.146	549.4
553.571	553.6
553.975	561.5
554.399	543.9
554.803	595.6
555.207	553.8
555.632	547.2
556.036	555.5
556.461	538.4
556.865	554.3
557.268	542.6
557.694	545
558.098	552
558.502	556
558.927	539.7
559.332	551.5
559.736	544.9
560.162	558
560.566	541.9
560.992	553.3
561.396	547.9
561.801	547.3
562.227	550.2
562.631	548.2
563.036	548.6
563.462	554.5
563.867	546.7
564.272	538
564.698	551.7
565.103	537.6
565.508	561.4
565.935	547.5
566.34	546.6
566.745	553.9
567.172	543.1
567.577	567.4
567.982	557.3
568.409	556.1
568.815	544.5
569.22	547.5
569.626	555
570.053	538.5
570.459	553.5
570.865	551.3
571.292	552.5
571.698	551.3
572.104	532.8
572.531	544.4
572.937	554.9
573.343	547.5
573.75	542.6
574.177	549.4
574.583	550.8
574.99	544.2
575.396	552.5
575.824	546.5
576.231	553.1
576.637	537.9
577.065	573
577.472	541.9
577.879	541.5
578.286	560
578.714	544.1
579.121	544.2
579.528	550.2
579.935	552.5
580.364	545.6
580.771	534.6
581.178	539.8
581.585	550.6
582.014	551.5
582.421	546.4
582.829	541.6
583.236	554.6
583.644	540.1
584.073	545.8
584.481	547.7
584.889	542.2
585.296	550.4
585.726	554.5
586.134	541.6
586.542	538.2
586.95	560.1
587.358	540.1
587.787	547
588.196	542.7
588.604	546.4
589.012	541.9
589.421	534.7
589.851	545.9
590.259	546.5
590.668	540.5
591.076	577.8
591.485	538
591.894	540.8
592.324	554.5
592.733	557.4
593.142	540
593.551	539.4
593.96	580.2
594.369	534.2
594.8	536.7
595.209	541.6
595.618	532
596.028	543.9
596.437	536.7
596.847	545.5
597.256	541.6
597.687	546.5
598.097	544.9
598.507	526.1
598.917	540.5
599.327	553.2
599.736	550.4
600.146	549.8
600.556	545.4
600.988	554.8
601.398	542.1
601.808	554.9
602.219	535.2
602.629	544.6
603.039	551.2
603.45	568
603.86	543.2
604.271	558.1
604.703	546.6
605.114	543.5
605.525	549.4
605.935	555.1
606.346	560.7
606.757	550.2
607.168	542.6
607.579	533.4
607.99	552.6
608.402	545.8
608.813	550.5
609.224	542.5
609.636	539.1
610.047	535.5
610.48	548
610.892	550.7
611.303	552.6
611.715	537
612.127	539.6
612.539	543.5
612.95	545
613.362	532.9
613.774	529.8
614.186	537.7
614.599	538.4
615.011	552.8
615.423	537.8
615.835	536.3
616.248	538.3
616.66	551.1
617.073	534.9
617.485	538.4
617.898	549.2
618.311	540.7
618.723	542.3
619.136	567.7
619.549	552.9
619.962	567.2
620.375	544.2
620.788	545.4
621.201	539.4
621.614	545.5
622.028	542.2
622.441	547.6
622.854	558.4
623.268	536
623.681	548.3
624.095	545.7
624.509	551.7
624.922	549.7
625.336	535.2
625.728	545.4
626.142	551.4
626.556	562.1
626.97	551.8
627.384	540.7
627.799	544.3
628.213	554.5
628.627	542.6
629.041	540
629.456	537.3
629.87	541.4
630.285	550.3
630.699	551.8
631.093	541.7
631.507	547
631.922	540.6
632.337	557.7
632.752	534.6
633.167	541.9
633.582	545.3
633.997	541.7
634.412	539.2
634.806	539.7
635.221	538
635.637	554.9
636.052	534.6
636.468	546.5
636.883	563.4
637.299	547.3
637.715	532.9
638.109	539
638.525	533.9
638.941	550.7
639.357	549.1
639.773	556.1
640.189	539.5
640.584	541.8
641	546.3
641.416	532.9
641.832	541.9
642.249	540.4
642.665	545.3
643.06	547.5
643.477	554.2
643.894	532.5
644.31	536
644.727	543.3
645.123	542.7
645.54	536.6
645.957	542.1
646.374	541.5
646.77	546.1
647.187	569.3
647.604	543.3
648.021	522.1
648.439	535.9
648.835	543.7
649.252	546.9
649.67	546.7
650.088	546.1
650.484	543.6
650.902	550.3
651.32	550.1
651.738	539.8
652.134	545.7
652.552	567.2
652.971	550.2
653.389	543.5
653.786	552.4
654.204	545.4
654.622	543.9
655.019	544.1
655.438	548.9
655.857	539.8
656.275	547.4
656.673	530.2
657.091	607.9
657.51	535.4
657.908	547.6
658.327	559.1
658.746	537.2
659.144	541.7
659.563	553.7
659.982	545.1
660.38	534.6
660.8	547
661.219	553.1
661.617	541.5
662.037	538.7
662.457	555.6
662.855	530.2
663.275	570.5
663.695	539.4
664.094	535.2
664.514	547.5
664.934	537.1
665.333	547.5
665.753	535.8
666.152	533.4
666.572	537.4
666.993	551.1
667.392	539.5
667.812	542.2
668.212	532.7
668.632	544.4
669.053	541.1
669.453	547
669.874	544.7
670.273	544.7
670.694	536.1
671.116	552.9
671.515	550
671.937	538.7
672.337	534.8
672.758	542
673.158	547.5
673.58	530.4
673.98	546.2
674.402	552.2
674.824	541
675.224	538.1
675.646	539.7
676.047	539.7
676.469	543.7
676.869	544
677.292	545.9
677.693	527.8
678.115	540.1
678.516	546
678.939	543.9
679.34	538.3
679.762	554.5
680.164	546.3
680.586	532.8
680.988	544.8
681.411	561.3
681.812	544.1
682.236	535.5
682.637	533.8
683.061	532.5
683.462	541.9
683.864	535.8
684.288	548
684.69	533.3
685.114	542.1
685.516	553.2
685.94	536.2
686.342	550.5
686.766	533.6
687.168	537.4
687.571	555.7
687.995	546.8
688.398	531.3
688.822	537.3
689.225	555.2
689.628	559.8
690.052	540.7
690.456	545.2
690.88	542.5
691.284	532.6
691.687	549.7
692.112	532.7
692.515	531.3
692.919	539.1
693.344	544
693.747	538.1
694.173	532.9
694.577	547.4
694.98	532.4
695.406	537.4
695.81	543
696.214	546.3
696.64	542.3
697.044	543.7
697.448	547.6
697.874	531.9
698.279	544.3
698.684	530.9
699.11	538.4
699.514	536.2
699.919	537.4
700.324	532.1
700.75	537.5
701.156	541.7
701.561	550.7
701.987	546.5
702.393	549.9
702.798	550.9
703.203	540.6
703.63	536.7
704.036	537.2
704.442	542
704.847	536.7
705.274	538.2
705.68	545.3
706.086	547.7
706.492	530.9
706.92	539.1
707.326	548.1
707.732	537
708.139	533.5
708.545	530.5
708.973	544
709.38	536.7
709.786	526.5
710.193	556.9
710.6	547.6
711.028	532.5
711.435	537.4
711.842	541.4
712.249	537.6
712.656	539.6
713.064	550
713.492	535.1
713.9	541.9
714.307	541.2
714.715	540.3
715.123	539.9
715.53	537.7
715.938	551.4
716.367	539.4
716.775	536.6
717.184	529.9
717.592	537.8
718	550.6
718.408	572
718.816	581.7
719.225	541.4
719.633	543.3
720.042	528.3
720.472	536.9
720.881	559.7
721.29	550.5
721.699	532.6
722.108	543.8
722.517	543.9
722.926	541.5
723.335	547.2
723.744	541.7
724.154	534.2
724.563	537.5
724.973	539.2
725.382	544.8
725.792	539.9
726.202	533.1
726.612	546
727.022	537.3
727.432	532.4
779.813	534.8
780.223	580.6
780.634	537.4
781.044	531.7
781.454	538.9
781.865	548.7
782.276	533.9
782.686	548.2
783.097	535.9
783.508	543.7
783.919	543.3
784.33	546.2
784.741	549.3
785.152	528.6
785.563	530.1
785.974	529.3
786.386	545.7
786.776	539.4
787.188	540.3
787.599	537.9
788.011	547.4
788.423	538.7
788.835	537.9
789.247	528.5
789.659	538.1
790.071	535.4
790.483	575.1
790.874	538.5
791.286	550.1
791.699	535.4
792.111	544.4
792.524	537.9
792.937	537.7
793.349	530
793.741	539.2
794.154	533.7
794.567	552.7
794.98	539.6
795.393	531.5
795.785	553.9
796.198	531.9
796.612	533.6
797.026	535.5
797.439	521.4
797.831	536.8
798.245	529.1
798.659	534.9
799.073	532.8
799.487	537.1
799.88	534.5
800.294	534.3
800.708	539
801.123	544.8
801.516	550.7
801.93	529
802.345	523.9
802.76	539.5
803.153	549.1
803.568	549.1
803.983	541.4
804.377	542.6
804.792	525.7
805.207	526.7
805.601	537.7
806.016	565.5
806.432	533.3
806.826	564.2
807.242	547.6
807.658	539.3
808.052	534.4
808.468	532.2
808.884	535.2
809.279	534.2
809.695	550
810.111	557
810.506	541.7
810.922	554.6
811.339	533.1
811.734	545.7
812.151	533.4
812.546	525.6
812.963	533.7
813.38	541.1
813.776	536
814.193	554.3
814.589	528.1
815.006	537.5
815.402	525.1
815.82	535.9
816.237	535.4
816.633	535.7
817.051	525.9
817.448	537.7
817.866	524.4
818.262	555.3
818.68	529.7
819.077	529.9
819.495	531
819.892	572.3
820.311	532.1
820.708	534.1
821.127	530.7
821.524	548.6
821.943	540.1
822.34	550.8
822.759	539.5
823.157	539.7
823.576	541
823.974	543
824.393	543.9
824.791	537.5
825.189	531
825.609	533.4
826.007	535.3
826.427	526.8
826.826	534.5
827.246	543.6
827.644	525.8
828.043	547.9
828.463	533.9
828.862	543.3
829.261	545.5
829.682	526
830.081	542.2
830.502	528
830.901	540.5
831.301	528.7
831.722	527.1
832.121	534.2
832.521	536.5
832.943	535.3
833.342	532.7
833.742	530.2
834.164	536.7
834.564	526.9
834.965	539.5
835.386	530.5
835.787	532.5
836.188	540.6
836.588	533.7
837.01	534.1
837.411	524.2
837.812	540.1
838.213	537.2
838.636	533
839.037	598.7
839.438	536
839.84	539
840.263	541.4
840.664	542.3
841.066	531.7
841.468	533.4
841.891	533.4
842.293	543.6
842.695	533.8
843.098	545.7
843.5	534.7
843.902	539.1
844.326	541.7
844.729	534.5
845.131	542.9
845.534	533.3
845.937	551.9
846.34	547.1
846.764	527.8
