#lambda/nm	C1
208.295	470.9
208.67	437.8
209.045	399.9
209.419	409.1
209.794	586.6
210.169	568.3
210.544	682.7
210.919	582.9
211.295	572.4
211.67	581.3
212.045	577.7
212.421	578.3
212.796	617.3
213.172	568.3
213.547	574.2
213.923	573.9
214.299	567.9
214.675	584
215.051	586.9
215.427	583.8
215.803	591.1
216.179	593.8
216.555	572.3
216.932	581
217.308	580.6
217.684	582.9
218.061	585.4
218.438	580.1
218.814	573.7
219.191	587
219.568	573.8
219.945	578.8
220.322	581.8
220.699	584.4
221.076	590.5
221.453	582.3
221.83	575
222.208	570.2
222.585	573.2
222.962	578.9
223.34	583.7
223.717	582.4
224.095	578.3
224.473	583.9
224.851	574.6
225.229	572.9
225.607	593.8
225.985	567.4
226.363	584.3
226.741	581.2
227.119	572.2
227.497	588.8
227.876	566
228.254	582.8
228.633	589.6
229.011	578.9
229.39	587.2
229.769	584.3
230.148	587.5
230.527	595.5
230.905	582.9
231.284	578.9
231.664	581.6
232.043	590.6
232.422	581.9
232.801	577.8
233.181	589.7
233.56	580.6
233.94	580.4
234.319	569
234.699	574.3
235.079	619.8
235.458	613
235.838	593.7
236.218	576.6
236.598	571.9
236.978	571.8
237.358	574.4
237.738	568.9
238.119	589.5
238.499	570.4
238.88	579.8
239.26	593.9
239.641	574.7
240.021	581.4
240.402	585.2
240.783	577.3
241.163	578.2
241.544	586.4
241.925	583.6
242.306	595.6
242.687	574.6
243.069	583.5
243.45	594.9
243.831	580.6
244.212	575.7
244.594	612.3
244.975	587.9
245.357	585.4
245.739	576.8
246.12	585.3
246.502	593.7
246.884	582.7
247.266	584.7
247.648	581.2
248.03	599.5
248.412	588.1
248.794	588.7
249.176	573.6
249.559	591.9
249.941	575.9
250.323	569.3
250.706	573.6
251.089	583.2
251.471	580
251.854	580.2
252.237	578.9
252.62	587.5
253.002	576.8
253.385	576.1
253.769	594.6
254.152	576.3
254.535	582.7
254.918	569
255.301	578.9
255.685	579
256.068	571.2
256.452	597.6
256.835	587.4
257.219	585.1
257.603	595.5
257.986	570
258.37	587.2
258.754	570.3
259.138	589.4
259.522	591.1
259.906	580.6
260.29	586.7
260.675	574.6
261.059	583
261.443	569.3
261.828	588.6
262.212	581.1
262.597	570.7
262.981	577.3
263.366	589.2
263.751	579.7
264.136	572.5
264.521	580.5
264.906	574
265.291	589.3
265.676	575.6
266.061	591.3
266.446	599.3
266.831	578.4
267.217	595.9
267.602	581.1
267.987	581.1
268.373	576.2
268.759	594.3
269.144	583
269.53	579
269.916	577
270.302	577.8
270.688	580.8
271.074	590.6
271.46	585.6
271.846	611.3
272.232	581.6
272.618	569.3
273.004	578
273.391	587.6
273.777	598.5
274.164	586.1
274.55	601
274.937	583.4
275.324	574.3
275.71	587.4
276.097	588.6
276.484	574.3
276.871	584.5
277.258	590.2
277.645	570
278.032	577.4
278.419	579.9
278.807	591.7
279.194	570.9
279.581	576.5
279.969	590.4
280.356	580.2
280.744	583.1
281.131	606.8
281.519	591.3
281.907	579.5
282.295	579.7
282.682	594.9
283.07	576
283.458	588.5
283.846	597.5
284.235	596.9
284.623	591.2
285.011	572.6
285.399	585.4
285.788	580.4
286.176	574.1
286.565	590.3
286.953	573.8
287.342	578.9
287.731	576.1
288.119	571.6
288.508	576.5
288.897	578.3
289.286	569.4
289.675	582.8
290.064	596.8
290.453	575.7
290.821	578.9
291.21	598.3
291.599	575.9
291.989	578.9
292.378	592.5
292.768	603.5
293.157	585.1
293.547	590.8
293.936	582.4
294.326	577.6
294.716	582.4
295.106	579.6
295.496	586.4
295.886	587.5
296.276	574.6
296.666	577.9
297.056	579.1
297.446	575.6
297.836	600.8
298.227	577.7
298.617	581.1
299.008	591.7
299.398	578.3
299.789	584.3
300.179	582.2
300.57	594.3
300.961	577.2
301.352	574.3
301.742	590.6
302.133	580.3
302.524	581.4
302.915	584.2
303.307	573.4
303.698	592.8
304.089	587.1
304.48	581.4
304.872	587.9
305.263	581.6
305.655	572
306.046	582.8
306.438	583.3
306.829	579.1
307.221	592.2
307.613	584.6
308.005	591.3
308.397	600
308.789	602.7
309.181	605.6
309.573	597.6
309.965	589.6
310.357	577.8
310.749	582
311.142	574.8
311.534	580.9
311.926	586.1
312.319	582.2
312.711	579.3
313.104	596.2
313.497	582.5
313.889	617.3
314.282	594.7
314.675	607.7
315.068	579.4
315.461	584.1
315.854	610.5
316.247	589.6
316.64	581.2
317.033	582.9
317.405	590.2
317.798	584.8
318.192	587.6
318.585	581.3
318.979	589.9
319.372	579.9
319.766	587.5
320.16	590.2
320.553	596.6
320.947	605.3
321.341	581.1
321.735	584.7
322.129	570.1
322.523	603.1
322.917	574.2
323.311	586.1
323.705	583.7
324.099	590.7
324.494	598.7
324.888	594.8
325.282	577.9
325.677	589.9
326.071	589
326.466	592.2
326.861	584.5
327.255	594.9
327.65	596.8
328.045	596.3
328.44	589.8
328.835	582.1
329.23	581.3
329.625	610.2
330.02	579.2
330.415	602.2
330.81	586.2
331.206	588.7
331.601	582.3
331.996	587.3
332.37	596.1
332.766	569.6
333.161	599.2
333.557	581.6
333.953	587.8
334.348	954.4
334.744	586.4
335.14	575.2
335.536	579.5
335.932	592.4
336.328	591.6
336.724	593.2
337.12	592.9
337.516	584.2
337.913	584.6
338.309	594
338.705	583.8
339.102	600
339.498	579.1
339.895	595.7
340.291	579
340.688	591.2
341.085	577.3
341.481	574.4
341.878	577.1
342.275	600.4
342.672	574.6
343.069	576.9
343.466	573.1
343.842	594.4
344.239	573.1
344.636	576.8
345.033	576.4
345.431	573
345.828	587.3
346.225	575.8
346.623	587.6
347.02	578.4
347.418	586.1
347.816	589.1
348.213	570.5
348.611	582.4
349.009	584
349.407	588.2
349.805	566.3
350.203	562.9
350.601	594.1
350.999	572.9
351.397	568.8
351.795	580.8
352.193	587.8
352.57	584
352.969	590.2
353.367	571.7
353.766	574.3
354.164	584
354.563	590.4
354.961	583.5
355.36	576.5
355.759	580.4
356.158	564.7
356.557	569.9
356.956	574
357.355	566.8
357.754	580.4
358.153	588.4
358.552	607.8
358.951	577.2
359.35	589.1
359.75	574.4
360.149	570.1
360.527	562.6
360.926	570.4
361.326	577.3
361.726	577.4
362.125	569
362.525	582.7
362.925	574.6
363.325	577.5
363.724	580.4
364.124	574.5
364.524	571.8
364.924	570.4
365.324	589.9
365.725	566.4
366.125	578.1
366.525	577.3
366.904	570.7
367.304	562.3
367.705	592.2
368.105	584.8
368.506	573.1
368.906	574.5
369.307	577
369.708	582
370.108	568.4
370.509	581.7
370.91	565.4
371.311	580.2
371.712	575
372.113	569.8
372.514	565.2
372.894	580.2
373.295	570
373.696	586.7
374.097	584.7
374.499	603.8
374.9	579.7
375.301	569.6
375.703	577
376.105	575.2
376.506	580.6
376.908	583.8
377.309	573.9
377.711	575.9
378.113	575
378.493	577.1
378.895	576.3
379.297	584.2
379.699	570.1
380.102	579.4
380.504	578.3
380.906	573
381.308	600.3
381.71	575.1
382.113	587.2
382.515	572
382.918	577.9
383.299	569.6
383.701	577.7
384.104	577.5
384.507	559.4
384.909	571.2
385.312	562.8
385.715	568.2
386.118	572.6
386.521	565.1
386.924	583.8
387.327	568
387.709	567.7
388.112	558.7
388.515	565.8
388.918	574.5
389.322	582.5
389.725	569.1
390.129	600.7
390.532	577.7
390.936	568.8
391.339	564.5
391.743	574.7
392.125	562.3
392.529	584.5
392.933	587.9
393.337	575.3
393.74	575.3
394.144	568.8
394.548	560.7
394.953	569
395.357	579.6
395.761	566.8
396.144	572.6
396.548	576.5
396.952	573.7
397.357	573.2
397.761	569
398.166	573.4
398.57	565.5
398.975	567.6
399.379	573.6
399.763	615.9
400.168	573.6
400.572	574.7
400.977	569
401.382	593.4
401.787	586
402.192	587
402.597	587.8
403.002	558.1
403.386	584.5
403.791	587.6
404.197	573.9
404.602	576.4
405.007	575.8
405.413	573.9
405.818	565.5
406.224	565.5
406.608	566.9
407.014	566
407.42	584.9
407.825	570.9
408.231	575.9
408.637	581.1
409.043	590.2
409.449	566.4
409.834	567.8
410.24	579.1
410.646	588.4
411.052	580.3
411.458	576
411.865	583.2
412.271	583.2
412.677	575.1
413.062	579.4
413.469	563.6
413.875	598.3
414.282	589.1
414.689	578.9
415.095	585.3
415.502	568.1
415.888	573.4
416.294	558.9
416.701	608.2
417.108	566.1
417.515	578.6
417.923	573
418.33	586
418.715	589.8
419.123	571.9
419.53	569.9
419.937	575.9
420.345	587.5
420.752	575.9
421.16	586.2
421.546	575.7
421.953	580.5
422.361	562.8
422.769	572.2
423.177	576.8
423.585	595.6
423.992	594.2
424.379	586.7
424.787	585
425.195	600.3
425.603	581.6
426.011	589.9
426.419	589.9
426.806	575.4
427.214	574
427.623	580.5
428.031	593.6
428.44	582.9
428.848	587.2
429.235	591.8
429.644	579.5
430.053	575
430.461	593.7
430.87	600.5
431.279	586.7
431.666	572.9
432.075	579.1
432.484	579.2
432.893	569.9
433.302	596.5
433.711	616.6
434.099	580
434.508	576.5
434.918	567
435.327	576.6
435.737	583.1
436.125	576.8
436.534	579.1
436.944	582.8
437.353	586.2
437.763	591.8
438.173	566.7
438.561	585.3
438.971	559.3
439.381	573.5
439.791	581.1
440.201	556.2
440.589	579.4
440.999	578
441.409	569.5
441.819	559.4
442.23	580.8
442.619	578.1
443.029	571.6
443.439	578.3
443.85	579.8
444.26	582.6
444.649	576.8
445.06	574.4
445.471	565.5
445.881	568.3
446.292	589.1
446.682	592.6
447.092	559.5
447.503	623.5
447.914	579.5
448.325	569.3
448.715	575.9
449.126	565.4
449.537	576.1
449.948	571.6
450.338	572.8
450.75	583.5
451.161	569.9
451.572	578.2
451.984	569.1
452.374	559.9
452.786	569.3
453.197	571.5
453.609	577.3
453.999	553.8
454.411	565.2
454.823	584.8
455.235	577.8
455.647	569
456.037	577.1
456.449	557.4
456.862	562.4
457.274	569.9
457.665	562.1
458.077	572.7
458.489	581.3
458.902	570
459.293	571.7
459.705	574.2
460.118	560.8
460.53	577.5
460.921	567.7
461.334	573.3
461.747	570.1
462.16	581.2
462.551	586.8
462.964	580.9
463.377	558.3
463.79	563.2
464.182	581
464.595	561
465.008	573.9
465.421	571.1
465.813	567.4
466.226	574.9
466.64	564.5
467.053	610.9
467.445	579.9
467.859	570.1
468.272	570.5
468.686	581.3
469.078	568.1
469.492	558.2
469.906	571.4
470.298	577.8
470.712	568.8
471.126	597.8
471.54	550.8
471.933	560.9
472.347	568
472.761	564.8
473.175	554.5
473.568	562.9
473.982	559.4
474.397	567.2
474.79	563.8
475.204	578.2
475.619	564.8
476.033	566
476.426	570.8
476.841	562.6
477.256	592.1
477.649	564.4
478.064	563.1
478.479	557.3
478.872	559.7
479.287	551
479.702	555
480.118	566.3
480.511	568.3
480.927	554.7
481.342	562.4
481.736	571.4
482.151	557
482.566	574.8
482.96	565.8
483.376	576
483.792	560.2
484.186	574.5
484.602	571.6
485.017	559.7
485.412	570
485.827	565.7
486.243	567.4
486.638	597.4
487.054	575.5
487.47	577.3
487.865	569
488.281	568.7
488.697	559
489.092	565.3
489.508	556.9
489.925	571.3
490.32	552.7
490.736	566.1
491.153	565.2
491.548	568.5
491.964	572
492.381	551.1
492.776	565.6
493.193	571.2
493.61	573.6
494.006	565.7
494.422	572.5
494.84	560.2
495.235	574.7
495.652	567.1
496.069	562.9
496.465	558.1
496.883	562.4
497.3	587.2
497.696	567
498.113	568.2
498.509	553.9
498.927	552.4
499.344	554.3
499.741	559.4
500.158	572.1
500.576	567.8
500.973	565.5
501.39	554.6
501.787	557.9
502.205	564.9
502.623	558.7
503.02	553.1
503.438	557.6
503.856	556.6
504.253	565.3
504.671	568.3
505.068	563.8
505.486	560.3
505.905	580.7
506.302	569.4
506.72	564.7
507.118	555.1
507.536	557.1
507.955	563.2
508.352	567.5
508.771	571.6
509.169	569.1
509.587	561
510.006	557.6
510.404	553.1
510.823	560.6
511.221	560.1
511.64	558.2
512.038	574.9
512.457	561.9
512.877	558
513.275	556.8
513.694	561.6
514.092	559
514.512	566.9
514.91	557.9
515.33	565.1
515.749	563.6
516.148	561.6
516.568	564.3
516.966	558.7
517.386	556.7
517.785	562.8
518.205	563.9
518.603	555.5
519.024	550.9
519.444	566.1
519.843	567.5
520.263	566.3
520.662	566.9
521.082	561.5
521.481	565.9
521.902	558.8
522.301	565.8
522.722	560.7
523.121	559.7
523.542	553.7
523.963	561.2
524.362	560.7
524.783	564.4
525.183	560.5
525.604	565.1
526.003	557.6
526.425	559.6
526.824	566.6
527.246	569.1
527.646	568.5
528.067	564.1
528.467	561.8
528.888	565.8
529.289	560.4
529.71	561
530.11	562.8
530.532	560.8
530.932	552.1
531.354	560.7
531.755	594.1
532.176	574
532.577	562.9
532.999	562.1
533.4	561.3
533.822	571
534.223	559.6
534.645	559.9
535.046	561.9
535.468	566.2
535.869	574.3
536.292	561
536.693	560.5
537.115	566.7
537.516	548.2
537.939	553.9
538.34	576.5
538.742	572
539.165	563.6
539.566	560.9
539.989	547.6
540.391	559.9
540.814	561.4
541.216	555.7
541.639	564.5
542.041	567.9
542.464	552.5
542.866	552
543.268	553.3
543.691	568.2
544.093	565.3
544.517	576.3
544.919	556.6
545.343	584.6
545.745	552.8
546.147	564
546.571	560.4
546.974	558.7
547.398	558.1
547.8	570.6
548.224	562.1
548.627	556.4
549.03	562.9
549.454	556.9
549.857	548
550.281	555.3
550.684	559
551.087	566
551.512	562.4
551.915	567.4
552.34	564.3
552.743	556.1
553.146	562.9
553.571	558.8
553.975	579.9
554.399	552.5
554.803	607.6
555.207	555.2
555.632	548
556.036	562.2
556.461	551.4
556.865	560.4
557.268	547
557.694	552.5
558.098	561.8
558.502	565
558.927	557.2
559.332	558.1
559.736	557.8
560.162	566.7
560.566	557.2
560.992	565.3
561.396	563.7
561.801	552.2
562.227	563.1
562.631	560.3
563.036	557.6
563.462	563.6
563.867	559.3
564.272	548.5
564.698	565.8
565.103	553.2
565.508	573.4
565.935	564.6
566.34	556.8
566.745	574.5
567.172	555.8
567.577	582
567.982	573.4
568.409	558.8
568.815	553
569.22	563.9
569.626	564.6
570.053	549.1
570.459	559.9
570.865	563.8
571.292	567.1
571.698	563
572.104	548.7
572.531	556
572.937	569.9
573.343	556.3
573.75	556.8
574.177	559.4
574.583	567.9
574.99	555.6
575.396	563.4
575.824	552.8
576.231	559.9
576.637	553.4
577.065	578.2
577.472	552.2
577.879	556.4
578.286	571.5
578.714	552.5
579.121	557
579.528	559
579.935	568.1
580.364	552
580.771	550.2
581.178	550
581.585	561.6
582.014	568.8
582.421	554.8
582.829	550.5
583.236	567.2
583.644	554.9
584.073	557.1
584.481	556.5
584.889	552
585.296	556.1
585.726	555.4
586.134	553.9
586.542	558.1
586.95	569.2
587.358	546.3
587.787	554.4
588.196	542.8
588.604	550.6
589.012	554.8
589.421	552.9
589.851	551.2
590.259	564.4
590.668	554.9
591.076	591.9
591.485	548.5
591.894	547.4
592.324	567.3
592.733	568.7
593.142	543.8
593.551	556.1
593.96	561.1
594.369	543.6
594.8	548.3
595.209	552.7
595.618	545
596.028	550.5
596.437	549.1
596.847	557.1
597.256	561.3
597.687	562.1
598.097	564
598.507	546.2
598.917	559.4
599.327	565
599.736	560.5
600.146	562.4
600.556	560.4
600.988	568.9
601.398	551.2
601.808	566.6
602.219	545.4
602.629	558.8
603.039	558.2
603.45	578.7
603.86	557.2
604.271	570.3
604.703	559.9
605.114	553.6
605.525	557.9
605.935	565
606.346	575.4
606.757	557.2
607.168	553.5
607.579	554.6
607.99	570
608.402	556.6
608.813	560.3
609.224	551.7
609.636	546.5
610.047	544.9
610.48	557.5
610.892	566.9
611.303	560.4
611.715	559.8
612.127	545.7
612.539	552
612.95	558.8
613.362	542.8
613.774	541.7
614.186	551.8
614.599	547.2
615.011	567.3
615.423	549.4
615.835	552.2
616.248	542.7
616.66	563.2
617.073	545.6
617.485	552
617.898	566.3
618.311	553.3
618.723	548.1
619.136	583
619.549	567.6
619.962	572.1
620.375	555.2
620.788	558.5
621.201	553.6
621.614	564.2
622.028	558.5
622.441	558.3
622.854	566.9
623.268	551.1
623.681	563.7
624.095	555.7
624.509	560.7
624.922	564.2
625.336	544.4
625.728	557
626.142	564.6
626.556	570.8
626.97	562
627.384	549.3
627.799	558.5
628.213	563.6
628.627	550.7
629.041	550.5
629.456	549.7
629.87	555.5
630.285	561.4
630.699	562
631.093	555.9
631.507	556.9
631.922	555.7
632.337	569
632.752	547
633.167	551.5
633.582	546.7
633.997	548
634.412	547.9
634.806	552.1
635.221	542.4
635.637	565.9
636.052	546.7
636.468	556.9
636.883	566.7
637.299	548.3
637.715	538.3
638.109	557.5
638.525	544.1
638.941	569
639.357	556.8
639.773	575.1
640.189	550
640.584	548.4
641	565.1
641.416	545.1
641.832	548.3
642.249	554.3
642.665	554.4
643.06	566.1
643.477	559.8
643.894	542.7
644.31	554.8
644.727	550.2
645.123	550.4
645.54	549.5
645.957	557.2
646.374	553.4
646.77	552.8
647.187	579.7
647.604	558.1
648.021	542.6
648.439	545.2
648.835	553.5
649.252	553.1
649.67	554.1
650.088	552.1
650.484	552.9
650.902	559.9
651.32	562.9
651.738	559.1
652.134	558.4
652.552	567.6
652.971	565.6
653.389	555.6
653.786	565.8
654.204	556.6
654.622	549.7
655.019	548.8
655.438	554.7
655.857	551.3
656.275	555
656.673	545.2
657.091	621.1
657.51	550
657.908	567.1
658.327	569.7
658.746	545.1
659.144	555.1
659.563	567.5
659.982	553
660.38	544.9
660.8	557.3
661.219	566.3
661.617	555.9
662.037	557.7
662.457	560.3
662.855	544.7
663.275	581.8
663.695	551.9
664.094	555.9
664.514	554.5
664.934	550.9
665.333	559.1
665.753	551.5
666.152	549.3
666.572	549.6
666.993	563.4
667.392	548
667.812	556.3
668.212	552.7
668.632	562.7
669.053	546.6
669.453	555.4
669.874	556
670.273	554.5
670.694	547.8
671.116	566.7
671.515	556.5
671.937	556.1
672.337	547.8
672.758	550
673.158	558.8
673.58	545.8
673.98	553.9
674.402	568.1
674.824	556
675.224	550.8
675.646	546.3
676.047	547.2
676.469	557.1
676.869	559.4
677.292	553
677.693	546.3
678.115	552.2
678.516	557.6
678.939	561.9
679.34	553.1
679.762	563.6
680.164	563.8
680.586	547.2
680.988	552.9
681.411	574.2
681.812	554.4
682.236	543
682.637	544.8
683.061	539.5
683.462	551.9
683.864	552.7
684.288	560.2
684.69	544.3
685.114	561
685.516	561.7
685.94	547.5
686.342	561
686.766	548.9
687.168	552.9
687.571	563.3
687.995	545.7
688.398	544.6
688.822	551.2
689.225	566.2
689.628	571.6
690.052	552.2
690.456	553
690.88	551.3
691.284	541.1
691.687	548.9
692.112	546.9
692.515	544.9
692.919	551.8
693.344	553.8
693.747	545.3
694.173	546.1
694.577	556
694.98	551.9
695.406	550.5
695.81	553.8
696.214	559.7
696.64	552
697.044	555.9
697.448	559.1
697.874	546.5
698.279	549.1
698.684	538.9
699.11	548.5
699.514	552.4
699.919	556.3
700.324	542.4
700.75	547.7
701.156	557.3
701.561	562.9
701.987	553.7
702.393	560.8
702.798	564.3
703.203	549.7
703.63	543.8
704.036	551.7
704.442	550.5
704.847	547.6
705.274	548.3
705.68	554.7
706.086	564.1
706.492	544
706.92	552.5
707.326	557.8
707.732	548
708.139	541.2
708.545	541.5
708.973	549.3
709.38	554.6
709.786	541.6
710.193	564.7
710.6	552.2
711.028	547.3
711.435	544.3
711.842	548.8
712.249	547.1
712.656	552.9
713.064	556.1
713.492	543.7
713.9	548
714.307	560.3
714.715	552.9
715.123	559.2
715.53	549.3
715.938	557.5
716.367	555.5
716.775	552
717.184	544.9
717.592	547.3
718	559.8
718.408	586
718.816	596.8
719.225	553.2
719.633	555.8
720.042	546.7
720.472	553.7
720.881	571.7
721.29	560.9
721.699	539.9
722.108	553.8
722.517	551.3
722.926	553
723.335	558.4
723.744	551.1
724.154	556.1
724.563	551.6
724.973	555.1
725.382	553.1
725.792	552
726.202	540.2
726.612	559.9
727.022	548.8
727.432	537.6
779.813	553.8
780.223	588.6
780.634	542.8
781.044	543.1
781.454	545.2
781.865	558.2
782.276	545.9
782.686	557.8
783.097	554.3
783.508	547.7
783.919	554.5
784.33	559.4
784.741	557.3
785.152	537.3
785.563	534.9
785.974	542.4
786.386	560.7
786.776	549.2
787.188	549.1
787.599	542.9
788.011	550.5
788.423	551.8
788.835	549.1
789.247	541.1
789.659	544.8
790.071	546
790.483	588.2
790.874	549.4
791.286	550.2
791.699	548.4
792.111	547.2
792.524	548.5
792.937	554.1
793.349	542.4
793.741	541.3
794.154	544.7
794.567	564.4
794.98	548.7
795.393	541.2
795.785	562.9
796.198	544.6
796.612	548
797.026	543.1
797.439	536.1
797.831	547.4
798.245	540.2
798.659	549.8
799.073	545.6
799.487	545.5
799.88	550.8
800.294	548.4
800.708	554.9
801.123	550.7
801.516	568.5
801.93	540
802.345	538.6
802.76	549.6
803.153	556.9
803.568	560.9
803.983	553.9
804.377	556.1
804.792	532.9
805.207	538.3
805.601	548.1
806.016	581.1
806.432	539
806.826	575.3
807.242	566.4
807.658	557.2
808.052	541.2
808.468	546.3
808.884	542.4
809.279	548.2
809.695	557.6
810.111	564.8
810.506	554.1
810.922	563.3
811.339	545.2
811.734	557
812.151	546.9
812.546	543.3
812.963	548.3
813.38	556.2
813.776	547.6
814.193	565.8
814.589	539.8
815.006	545.7
815.402	539.9
815.82	543.9
816.237	547.8
816.633	553.6
817.051	540.6
817.448	548.7
817.866	544.9
818.262	564.9
818.68	543.4
819.077	541.6
819.495	543.9
819.892	585.3
820.311	546.2
820.708	546.1
821.127	551.9
821.524	553
821.943	544.3
822.34	565.6
822.759	556.1
823.157	549.6
823.576	566.5
823.974	557.5
824.393	550.1
824.791	537.6
825.189	540.8
825.609	540.7
826.007	540.6
826.427	530.7
826.826	544.5
827.246	546
827.644	532.7
828.043	555.8
828.463	543.9
828.862	549.4
829.261	556.7
829.682	537
830.081	551.6
830.502	545.7
830.901	550.3
831.301	546.3
831.722	535.1
832.121	556.3
832.521	540.7
832.943	545.1
833.342	546.3
833.742	535.2
834.164	542.7
834.564	542.2
834.965	549.3
835.386	548.7
835.787	547
836.188	547.7
836.588	549.6
837.01	543.6
837.411	542.6
837.812	558.6
838.213	547.7
838.636	542
839.037	605.8
839.438	546.3
839.84	547
840.263	559.1
840.664	549.4
841.066	545
841.468	549.4
841.891	542.5
842.293	556.8
842.695	552.9
843.098	555.9
843.5	550.7
843.902	550.6
844.326	555.6
844.729	548.9
845.131	557.7
845.534	549.3
845.937	557
846.34	562.9
846.764	541.7
847.167	547.2
847.571	538.6
847.974	545.3
