#lambda/nm	C1
208.295	470.7
208.67	439
209.045	400.2
209.419	406.1
209.794	579.7
210.169	563.7
210.544	682.9
210.919	584.4
211.295	562.7
211.67	580
212.045	572.1
212.421	572.1
212.796	609.1
213.172	574.4
213.547	574.2
213.923	576.9
214.299	569.5
214.675	582.5
215.051	581.2
215.427	582
215.803	593.4
216.179	584.5
216.555	571.8
216.932	577
217.308	574.4
217.684	573.9
218.061	579.8
218.438	579.8
218.814	567.2
219.191	583.7
219.568	573.7
219.945	574.2
220.322	580.6
220.699	578.4
221.076	584.3
221.453	578.2
221.83	567
222.208	568.2
222.585	565
222.962	575
223.34	573.8
223.717	568.3
224.095	567.3
224.473	577.4
224.851	566.1
225.229	565.5
225.607	591.6
225.985	564.5
226.363	576.7
226.741	569.1
227.119	572.4
227.497	588.6
227.876	565.7
228.254	588
228.633	583.1
229.011	575.1
229.39	580.7
229.769	577.3
230.148	581.7
230.527	591.3
230.905	578.5
231.284	580.5
231.664	569.1
232.043	590.2
232.422	578.8
232.801	570.3
233.181	585
233.56	568.6
233.94	579.6
234.319	557.2
234.699	571.3
235.079	614.4
235.458	611.9
235.838	595.5
236.218	568.5
236.598	563.3
236.978	567.7
237.358	572.2
237.738	570
238.119	581.1
238.499	563.2
238.88	577.4
239.26	592.2
239.641	565.9
240.021	566.6
240.402	574.1
240.783	573.3
241.163	569.2
241.544	577
241.925	579.3
242.306	592.5
242.687	571.4
243.069	579.1
243.45	586.2
243.831	573.8
244.212	573.1
244.594	610.8
244.975	586
245.357	574
245.739	574.9
246.12	579.4
246.502	593.1
246.884	578.6
247.266	573.2
247.648	577.1
248.03	603.3
248.412	575.5
248.794	579.5
249.176	573.4
249.559	586
249.941	573.6
250.323	567.8
250.706	568.8
251.089	573.2
251.471	577.4
251.854	572.2
252.237	578.8
252.62	580.7
253.002	576.7
253.385	573.4
253.769	593.5
254.152	577.8
254.535	586.9
254.918	571.9
255.301	574.1
255.685	572.5
256.068	569.2
256.452	596.6
256.835	584.1
257.219	583.1
257.603	587.8
257.986	567.6
258.37	583.6
258.754	568.5
259.138	583
259.522	578.2
259.906	575.6
260.29	579.5
260.675	579.2
261.059	579
261.443	568.9
261.828	578.6
262.212	583.1
262.597	564.4
262.981	570.7
263.366	590.5
263.751	574.4
264.136	571.6
264.521	574.7
264.906	570.6
265.291	584
265.676	574.5
266.061	581.4
266.446	594.6
266.831	577.3
267.217	590.4
267.602	577.2
267.987	580.4
268.373	577.4
268.759	586.9
269.144	581.4
269.53	573.7
269.916	575.8
270.302	577.5
270.688	579.6
271.074	583.2
271.46	584.8
271.846	604.6
272.232	575.2
272.618	571.4
273.004	575.1
273.391	582.4
273.777	587.4
274.164	581.3
274.55	588.6
274.937	585
275.324	573.9
275.71	584.8
276.097	582.3
276.484	574.1
276.871	578.7
277.258	583.1
277.645	571.3
278.032	575.2
278.419	574.2
278.807	581.4
279.194	572.9
279.581	570.9
279.969	581.6
280.356	579.6
280.744	576.5
281.131	597.4
281.519	587.6
281.907	575.2
282.295	578.1
282.682	589.1
283.07	579.8
283.458	584.7
283.846	586.6
284.235	586.5
284.623	582.9
285.011	568
285.399	578.6
285.788	576.7
286.176	562.3
286.565	588.9
286.953	565
287.342	571.7
287.731	567.4
288.119	563.1
288.508	571.8
288.897	575.7
289.286	562.7
289.675	579.6
290.064	577.6
290.453	574
290.821	571.2
291.21	590.2
291.599	576.1
291.989	578.5
292.378	585.7
292.768	600.2
293.157	581.8
293.547	583.7
293.936	572.8
294.326	571.4
294.716	575.4
295.106	575.8
295.496	581.1
295.886	584
296.276	571.2
296.666	572.1
297.056	573.8
297.446	571.6
297.836	593.7
298.227	574.5
298.617	574.2
299.008	592.8
299.398	578
299.789	575.3
300.179	582
300.57	589.8
300.961	573.4
301.352	573.7
301.742	581.9
302.133	581.1
302.524	575
302.915	577.6
303.307	575.1
303.698	592.9
304.089	580.3
304.48	575.5
304.872	585.1
305.263	579.4
305.655	578.4
306.046	582.8
306.438	580.9
306.829	570.7
307.221	591.8
307.613	579.9
308.005	588.3
308.397	588
308.789	596
309.181	602.8
309.573	594.8
309.965	585.3
310.357	579.2
310.749	593.1
311.142	573.1
311.534	576
311.926	589.1
312.319	576.4
312.711	576
313.104	588.5
313.497	580.2
313.889	621.3
314.282	595
314.675	604
315.068	583.9
315.461	586.3
315.854	611.4
316.247	583.7
316.64	580.2
317.033	583.3
317.405	584.2
317.798	577.9
318.192	579.9
318.585	569.9
318.979	582.6
319.372	568.2
319.766	577.1
320.16	580.6
320.553	588.3
320.947	594.4
321.341	576.1
321.735	577.4
322.129	566.8
322.523	600
322.917	571.5
323.311	590.4
323.705	576.9
324.099	585.9
324.494	597
324.888	588.5
325.282	575.7
325.677	576.8
326.071	583.6
326.466	589.1
326.861	588.7
327.255	588.6
327.65	586.3
328.045	592.4
328.44	579.6
328.835	577.2
329.23	570.7
329.625	603.5
330.02	574.1
330.415	599.8
330.81	585
331.206	581.6
331.601	574.5
331.996	589.5
332.37	591.4
332.766	568.1
333.161	604.1
333.557	580.5
333.953	582.3
334.348	915.3
334.744	582.6
335.14	569.7
335.536	575.4
335.932	591.4
336.328	579.8
336.724	588
337.12	576.9
337.516	579.9
337.913	582.3
338.309	598.9
338.705	589.4
339.102	583.8
339.498	575.1
339.895	592.8
340.291	574
340.688	588.8
341.085	564.1
341.481	576.8
341.878	577.7
342.275	600
342.672	576.1
343.069	575.5
343.466	569.2
343.842	589.7
344.239	568.2
344.636	580.2
345.033	571.5
345.431	570.7
345.828	581.4
346.225	572.9
346.623	578.4
347.02	584
347.418	585.9
347.816	588.6
348.213	575.6
348.611	583.1
349.009	567.6
349.407	587.9
349.805	568
350.203	568.3
350.601	590.6
350.999	572.3
351.397	570
351.795	573.4
352.193	584.2
352.57	586.9
352.969	586.8
353.367	573.1
353.766	571
354.164	577.4
354.563	583.2
354.961	577.2
355.36	572.6
355.759	570.6
356.158	569.1
356.557	565.6
356.956	566.2
357.355	562.9
357.754	575.4
358.153	579
358.552	596.1
358.951	573.3
359.35	589
359.75	567.6
360.149	562.8
360.527	554.5
360.926	564.6
361.326	574.4
361.726	573.5
362.125	564.7
362.525	581.9
362.925	572.7
363.325	570.1
363.724	574.9
364.124	567.3
364.524	570.2
364.924	570.7
365.324	582.4
365.725	556.9
366.125	573.7
366.525	568.1
366.904	559.8
367.304	560.6
367.705	591.7
368.105	582.5
368.506	568.2
368.906	570.5
369.307	570.7
369.708	573
370.108	562.9
370.509	582.2
370.91	560.9
371.311	575.2
371.712	572.1
372.113	577.3
372.514	561.1
372.894	571.9
373.295	561
373.696	577.3
374.097	579.7
374.499	594.9
374.9	571.2
375.301	566
375.703	576.2
376.105	566.1
376.506	575
376.908	575.1
377.309	572.9
377.711	572.9
378.113	571.7
378.493	573.2
378.895	565.2
379.297	585.4
379.699	557.5
380.102	572.6
380.504	570.8
380.906	559.5
381.308	592.4
381.71	569.4
382.113	572.7
382.515	566.5
382.918	570.8
383.299	567.7
383.701	574
384.104	571.9
384.507	552.7
384.909	564.5
385.312	553.5
385.715	563
386.118	568.6
386.521	558
386.924	575.6
387.327	563.7
387.709	557.9
388.112	553.4
388.515	570.9
388.918	569.8
389.322	576.3
389.725	566.4
390.129	589.8
390.532	577.9
390.936	565.4
391.339	565.5
391.743	571.8
392.125	560.8
392.529	573.7
392.933	586
393.337	567.2
393.74	566.8
394.144	572.3
394.548	560.8
394.953	567.7
395.357	572.7
395.761	568
396.144	567.4
396.548	567.7
396.952	571.6
397.357	571.5
397.761	566.6
398.166	565.4
398.57	566.5
398.975	561
399.379	572.9
399.763	619.7
400.168	568
400.572	566.4
400.977	570.7
401.382	588.1
401.787	573.1
402.192	588.8
402.597	585.6
403.002	561.5
403.386	573.5
403.791	585
404.197	561.9
404.602	572
405.007	571.4
405.413	564.7
405.818	565.8
406.224	562.9
406.608	571.7
407.014	563.4
407.42	585.6
407.825	571.3
408.231	582.2
408.637	574.4
409.043	588.6
409.449	563.9
409.834	563.8
410.24	574.1
410.646	577.4
411.052	582.7
411.458	577.1
411.865	577.5
412.271	578.9
412.677	565.8
413.062	571.3
413.469	560.4
413.875	601.9
414.282	579.2
414.689	572.5
415.095	569.4
415.502	562.6
415.888	572.2
416.294	559.7
416.701	611.7
417.108	563.4
417.515	581.9
417.923	572.4
418.33	588.8
418.715	573.9
419.123	571.1
419.53	566.2
419.937	575
420.345	580
420.752	563.2
421.16	585.9
421.546	573.5
421.953	582.9
422.361	563.1
422.769	571
423.177	562.4
423.585	593.1
423.992	586
424.379	582.2
424.787	579.8
425.195	590.2
425.603	573.3
426.011	582.5
426.419	586.5
426.806	580.3
427.214	574.7
427.623	583.6
428.031	589.3
428.44	577.7
428.848	585.9
429.235	588.9
429.644	572.1
430.053	572.2
430.461	587.9
430.87	597
431.279	586.7
431.666	570.8
432.075	578.2
432.484	577.9
432.893	571.8
433.302	594.8
433.711	613.9
434.099	583
434.508	570.7
434.918	560.5
435.327	577.6
435.737	575
436.125	575.4
436.534	573.9
436.944	581.6
437.353	572.3
437.763	585.8
438.173	560.5
438.561	583.6
438.971	558.5
439.381	572.5
439.791	573.9
440.201	552
440.589	567
440.999	578.6
441.409	574.3
441.819	562.5
442.23	578
442.619	574.9
443.029	566.3
443.439	571.4
443.85	580.8
444.26	584.6
444.649	578.3
445.06	567.6
445.471	570.3
445.881	572.7
446.292	586.1
446.682	587.4
447.092	554
447.503	613
447.914	571.6
448.325	567.1
448.715	561.6
449.126	561.2
449.537	573.9
449.948	564.6
450.338	576
450.75	577.4
451.161	569.8
451.572	572.3
451.984	562.1
452.374	552.1
452.786	570.9
453.197	574.9
453.609	571.8
453.999	554.2
454.411	560.7
454.823	571.3
455.235	571.5
455.647	563.9
456.037	568.3
456.449	550.5
456.862	566.7
457.274	562.8
457.665	559
458.077	567.1
458.489	577.7
458.902	564
459.293	564.3
459.705	564.7
460.118	558.8
460.53	569.4
460.921	570.2
461.334	572
461.747	567.6
462.16	575.4
462.551	575.1
462.964	577.1
463.377	553
463.79	561.9
464.182	571.2
464.595	557.8
465.008	564.8
465.421	564.4
465.813	559.5
466.226	568.1
466.64	557.7
467.053	608.9
467.445	572.2
467.859	566.6
468.272	563.3
468.686	577.8
469.078	562.4
469.492	551.4
469.906	573.3
470.298	570.8
470.712	560.2
471.126	591.3
471.54	554.2
471.933	555.7
472.347	559.9
472.761	558.3
473.175	552.5
473.568	559
473.982	558.7
474.397	559.6
474.79	566
475.204	569.3
475.619	560.6
476.033	567.4
476.426	564.2
476.841	552.9
477.256	590.1
477.649	556.4
478.064	550
478.479	555.5
478.872	558.5
479.287	544.5
479.702	550.6
480.118	560.1
480.511	560.2
480.927	552.9
481.342	563
481.736	565.5
482.151	556.9
482.566	573.2
482.96	562.2
483.376	569.7
483.792	555.8
484.186	561
484.602	560.3
485.017	561.2
485.412	563.1
485.827	561.2
486.243	560
486.638	590
487.054	571.3
487.47	576.9
487.865	565
488.281	560.3
488.697	556.9
489.092	560.2
489.508	552.8
489.925	566
490.32	550.2
490.736	565
491.153	567.6
491.548	560.3
491.964	571.4
492.381	549.8
492.776	565
493.193	552.9
493.61	576
494.006	564.8
494.422	563.7
494.84	554.4
495.235	573.7
495.652	562.3
496.069	567.1
496.465	548.5
496.883	559.3
497.3	583.1
497.696	558.6
498.113	563.2
498.509	553.8
498.927	549.7
499.344	555.7
499.741	553
500.158	565.3
500.576	566
500.973	556
501.39	558.8
501.787	551.6
502.205	558.9
502.623	561.4
503.02	547
503.438	556.3
503.856	563.5
504.253	563.5
504.671	561.7
505.068	555.2
505.486	558.5
505.905	581
506.302	559.4
506.72	570.5
507.118	551.1
507.536	558.6
507.955	551.2
508.352	556.8
508.771	564.6
509.169	563.4
509.587	549.2
510.006	550.9
510.404	543.3
510.823	550.6
511.221	561
511.64	555
512.038	569.3
512.457	561.1
512.877	556.7
513.275	553.8
513.694	552.6
514.092	562.6
514.512	561.8
514.91	562
515.33	557.4
515.749	560
516.148	560.6
516.568	563.8
516.966	559.7
517.386	556.5
517.785	556.6
518.205	555.7
518.603	550.9
519.024	555.9
519.444	557.2
519.843	566.2
520.263	560.8
520.662	558.5
521.082	558.1
521.481	559.7
521.902	555.4
522.301	555.4
522.722	561.4
523.121	561.2
523.542	554.2
523.963	554.4
524.362	557.1
524.783	562
525.183	554.7
525.604	563
526.003	557.8
526.425	557.9
526.824	560.3
527.246	564.9
527.646	569.1
528.067	562.5
528.467	561.2
528.888	564.1
529.289	557.2
529.71	558.1
530.11	555.8
530.532	556
530.932	550.8
531.354	552.4
531.755	593.5
532.176	563.4
532.577	559.3
532.999	559.9
533.4	554.9
533.822	563.3
534.223	561.6
534.645	554.5
535.046	557
535.468	558.1
535.869	577.3
536.292	551.3
536.693	552.7
537.115	557.4
537.516	551.3
537.939	555.3
538.34	572.3
538.742	567.3
539.165	559.6
539.566	555.6
539.989	551.3
540.391	554.5
540.814	560.6
541.216	562
541.639	556.9
542.041	569
542.464	555.8
542.866	555.2
543.268	551.2
543.691	560.6
544.093	561.6
544.517	575.4
544.919	548.2
545.343	578.2
545.745	549.8
546.147	563.4
546.571	550.3
546.974	550.1
547.398	559.7
547.8	568.2
548.224	556.7
548.627	549.1
549.03	562.7
549.454	549.3
549.857	549.1
550.281	548.8
550.684	550.7
551.087	566.7
551.512	561.8
551.915	556.8
552.34	554.5
552.743	553.7
553.146	558.9
553.571	559.1
553.975	571.5
554.399	554.7
554.803	599.5
555.207	556.5
555.632	552.3
556.036	555
556.461	545.5
556.865	557.7
557.268	548.8
557.694	549.5
558.098	556.6
558.502	557.5
558.927	546.3
559.332	557.3
559.736	554.2
560.162	557.8
560.566	552.1
560.992	561.1
561.396	554.2
561.801	552.5
562.227	555.2
562.631	551.2
563.036	557.1
563.462	563.2
563.867	556.7
564.272	545.2
564.698	555.5
565.103	537.9
565.508	570
565.935	556.2
566.34	554.2
566.745	563.7
567.172	548.3
567.577	576.2
567.982	571.3
568.409	561.5
568.815	549.4
569.22	551.1
569.626	563.4
570.053	541.9
570.459	553.1
570.865	561
571.292	560.9
571.698	557.1
572.104	543.8
572.531	548.6
572.937	565.3
573.343	552.8
573.75	552.8
574.177	555.6
574.583	561.6
574.99	555.4
575.396	557.2
575.824	552.5
576.231	556.9
576.637	554.5
577.065	567.9
577.472	551.8
577.879	547.8
578.286	569.6
578.714	542.2
579.121	548.8
579.528	554
579.935	565.7
580.364	550.9
580.771	537.5
581.178	549.1
581.585	559.3
582.014	564.1
582.421	543.2
582.829	553.3
583.236	562.9
583.644	549.1
584.073	551.5
584.481	556.1
584.889	550
585.296	558.3
585.726	553.7
586.134	546.6
586.542	550
586.95	565.8
587.358	546.6
587.787	555.1
588.196	546.8
588.604	548.6
589.012	557.2
589.421	546
589.851	550.1
590.259	561
590.668	550.9
591.076	586.6
591.485	544.7
591.894	555
592.324	567.3
592.733	563.6
593.142	542.3
593.551	552.9
593.96	556.2
594.369	546.5
594.8	549.3
595.209	550.4
595.618	536.4
596.028	542.6
596.437	545.2
596.847	552.3
597.256	555.5
597.687	556.5
598.097	552.8
598.507	541
598.917	555.3
599.327	558.7
599.736	552.7
600.146	563.9
600.556	554.6
600.988	564.1
601.398	554.4
601.808	560.9
602.219	541
602.629	554.6
603.039	561.3
603.45	582
603.86	551.2
604.271	565.4
604.703	554.3
605.114	555.9
605.525	553
605.935	558.9
606.346	572.8
606.757	557.1
607.168	551.2
607.579	547.4
607.99	564.1
608.402	555.9
608.813	556.5
609.224	544.8
609.636	545.6
610.047	545
610.48	548.8
610.892	553.5
611.303	561.5
611.715	548.2
612.127	543.8
612.539	548.1
612.95	551.6
613.362	536
613.774	542.7
614.186	547.1
614.599	544.4
615.011	557.2
615.423	547.9
615.835	547.3
616.248	544
616.66	558.1
617.073	541.7
617.485	546
617.898	558.8
618.311	550.1
618.723	547.8
619.136	580.4
619.549	562.8
619.962	569.9
620.375	549.2
620.788	552.6
621.201	544.2
621.614	561.5
622.028	547
622.441	555.3
622.854	566.5
623.268	546.5
623.681	557
624.095	551.8
624.509	559.7
624.922	558
625.336	539.3
625.728	554.1
626.142	562.4
626.556	568.4
626.97	556.2
627.384	548.8
627.799	547.7
628.213	564.7
628.627	552
629.041	545.2
629.456	548.2
629.87	559
630.285	561.5
630.699	560.8
631.093	548.6
631.507	560.1
631.922	555.1
632.337	561.4
632.752	541.1
633.167	553.7
633.582	548.4
633.997	548.8
634.412	546.7
634.806	556.7
635.221	547.7
635.637	560.4
636.052	542.4
636.468	555.1
636.883	571.5
637.299	553.8
637.715	546.3
638.109	545.4
638.525	536.9
638.941	564.6
639.357	553
639.773	559.9
640.189	549.3
640.584	549.4
641	553.1
641.416	544.5
641.832	545.6
642.249	545.7
642.665	552.2
643.06	555.4
643.477	553.2
643.894	544.5
644.31	553.2
644.727	552.9
645.123	550.4
645.54	546.6
645.957	550
646.374	553.3
646.77	553.6
647.187	574.6
647.604	549.5
648.021	538.3
648.439	544.4
648.835	550.9
649.252	547.8
649.67	547.8
650.088	548
650.484	552.2
650.902	557.1
651.32	555.1
651.738	551
652.134	553.4
652.552	562
652.971	555.9
653.389	549.6
653.786	558.5
654.204	551.5
654.622	542.8
655.019	553
655.438	553.2
655.857	544.2
656.275	551.7
656.673	538.7
657.091	617.2
657.51	543.5
657.908	552.1
658.327	566.4
658.746	542.1
659.144	550.5
659.563	564.9
659.982	548.8
660.38	542.9
660.8	555.1
661.219	555.6
661.617	556.1
662.037	550.1
662.457	556.7
662.855	540.9
663.275	575.4
663.695	553.5
664.094	549.8
664.514	549.8
664.934	544.8
665.333	552
665.753	537.8
666.152	536.9
666.572	544.8
666.993	556.5
667.392	543.2
667.812	544.3
668.212	546.5
668.632	559.6
669.053	543.4
669.453	557.8
669.874	545.6
670.273	549.2
670.694	541
671.116	557.5
671.515	557.3
671.937	545
672.337	545.6
672.758	549.4
673.158	556.2
673.58	544
673.98	553.1
674.402	564.6
674.824	550.6
675.224	546.7
675.646	538.3
676.047	541.9
676.469	548.8
676.869	554.2
677.292	556.5
677.693	539.7
678.115	545.9
678.516	554.5
678.939	548.4
679.34	549.9
679.762	560.4
680.164	554
680.586	541.6
680.988	554
681.411	575.2
681.812	544.7
682.236	544.4
682.637	540
683.061	544
683.462	547.4
683.864	542.5
684.288	556.4
684.69	546.7
685.114	555.3
685.516	559.4
685.94	541.6
686.342	553.3
686.766	545.8
687.168	542.2
687.571	566
687.995	543.7
688.398	545.9
688.822	549.8
689.225	564.3
689.628	565.4
690.052	550
690.456	552.8
690.88	543.8
691.284	543.4
691.687	559.1
692.112	537.3
692.515	541
692.919	546.5
693.344	550.6
693.747	542.2
694.173	546.9
694.577	556.4
694.98	547.9
695.406	544.3
695.81	547.9
696.214	554.5
696.64	553.3
697.044	553.2
697.448	553.8
697.874	548.8
698.279	545
698.684	543.9
699.11	543.9
699.514	543.2
699.919	547.4
700.324	539.8
700.75	548.4
701.156	545.4
701.561	557.3
701.987	555.5
702.393	557
702.798	555.1
703.203	552.5
703.63	541.9
704.036	545.1
704.442	548.7
704.847	540.6
705.274	543.1
705.68	549.2
706.086	557.6
706.492	540
706.92	549.3
707.326	555.7
707.732	554.1
708.139	539.2
708.545	538.1
708.973	543.3
709.38	551.9
709.786	535.9
710.193	550.4
710.6	547.6
711.028	540
711.435	550.6
711.842	550
712.249	546.6
712.656	544.9
713.064	554.2
713.492	537.2
713.9	544.9
714.307	547.1
714.715	553.8
715.123	546.6
715.53	549.1
715.938	555.4
716.367	547.9
716.775	546.2
717.184	542.6
717.592	544
718	553.1
718.408	579.8
718.816	594.5
719.225	551.9
719.633	548.4
720.042	547.2
720.472	550.1
720.881	568.8
721.29	548.9
721.699	540.1
722.108	550.6
722.517	548.8
722.926	544.6
723.335	556
723.744	549.4
724.154	548.6
724.563	550.8
724.973	549.7
725.382	547.9
725.792	540.8
726.202	540.4
726.612	553.8
727.022	543.8
727.432	548.8
779.813	539.6
780.223	588.9
780.634	546
781.044	540.6
781.454	545.4
781.865	559.3
782.276	540
782.686	558.5
783.097	548.6
783.508	544.8
783.919	551.1
784.33	556.2
784.741	559.6
785.152	542.4
785.563	536.5
785.974	540.2
786.386	560.3
786.776	538.1
787.188	544.5
787.599	534.1
788.011	548.4
788.423	551.1
788.835	537.2
789.247	536.7
789.659	544.3
790.071	536.5
790.483	585.1
790.874	542.7
791.286	550.9
791.699	535.7
792.111	545
792.524	547.8
792.937	547.5
793.349	541.6
793.741	535.9
794.154	538.2
794.567	561.2
794.98	540.3
795.393	532
795.785	559.2
796.198	536
796.612	541
797.026	545.8
797.439	527.1
797.831	544.8
798.245	538.4
798.659	542.9
799.073	542.4
799.487	538.2
799.88	544.1
800.294	543.5
800.708	548.1
801.123	549.7
801.516	561.9
801.93	536.3
802.345	535.4
802.76	550.1
803.153	558.4
803.568	559.6
803.983	553.4
804.377	545.6
804.792	538.9
805.207	532.4
805.601	544.9
806.016	575.9
806.432	539.7
806.826	570.1
807.242	555.7
807.658	547.8
808.052	546.2
808.468	543.5
808.884	541.8
809.279	544.7
809.695	558.2
810.111	560.2
810.506	547.6
810.922	562.9
811.339	540.3
811.734	554.3
812.151	541.1
812.546	542.6
812.963	539.2
813.38	545
813.776	542.7
814.193	561.3
814.589	540.7
815.006	539.9
815.402	536.5
815.82	536.3
816.237	539.3
816.633	541
817.051	535.4
817.448	545.6
817.866	537.6
818.262	560.9
818.68	539.4
819.077	542.2
819.495	547.5
819.892	579.6
820.311	540.6
820.708	536.9
821.127	540.5
821.524	549.4
821.943	548.3
822.34	562.6
822.759	544.4
823.157	544.5
823.576	551.8
823.974	552
824.393	548.6
824.791	536.4
825.189	541
825.609	539.6
826.007	544.2
826.427	533.7
826.826	540.7
827.246	542.5
827.644	530.8
828.043	552.4
828.463	538.3
828.862	549.1
829.261	547.5
829.682	530.3
830.081	545.4
830.502	533.1
830.901	551
831.301	539
831.722	536.9
832.121	543.8
832.521	538.2
832.943	543.3
833.342	551.3
833.742	535.6
834.164	540
834.564	533.6
834.965	542.2
835.386	537.8
835.787	537.7
836.188	545.3
836.588	538.6
837.01	542.2
837.411	535.1
837.812	549.6
838.213	548.6
838.636	541.5
839.037	608.6
839.438	543
839.84	545.8
840.263	548.5
840.664	546.7
841.066	539.4
841.468	541.5
841.891	536.4
842.293	557.9
842.695	549.2
843.098	549.7
843.5	538.9
843.902	543.1
844.326	551.5
844.729	543.2
845.131	553.5
845.534	550.6
845.937	553.9
846.34	558.9
846.764	535.9
847.167	547.8
847.571	534.8
847.974	546.5
848.377	538.6
848.781	585.7
