#lambda/nm	C1
208.295	469.7
208.67	443.3
209.045	400.2
209.419	404.4
209.794	573.3
210.169	559.2
210.544	667.3
210.919	574.2
211.295	557.4
211.67	570
212.045	566.6
212.421	570
212.796	608.8
213.172	565.5
213.547	564.9
213.923	563.4
214.299	563.1
214.675	578.9
215.051	569.9
215.427	572.9
215.803	580.6
216.179	571.5
216.555	557.6
216.932	580
217.308	571.7
217.684	568.8
218.061	576.7
218.438	574.2
218.814	567.4
219.191	575.2
219.568	563.7
219.945	571.1
220.322	576.4
220.699	567.9
221.076	581.2
221.453	571.3
221.83	562.1
222.208	562.9
222.585	566.3
222.962	578.7
223.34	576.4
223.717	570.7
224.095	569.7
224.473	570.7
224.851	566.8
225.229	557.7
225.607	585.9
225.985	563.2
226.363	570.6
226.741	574.7
227.119	568.3
227.497	582.1
227.876	556.3
228.254	575.4
228.633	576.5
229.011	574.2
229.39	572.6
229.769	574.4
230.148	574.7
230.527	587.1
230.905	571.6
231.284	574
231.664	565.1
232.043	579.5
232.422	571.4
232.801	567.9
233.181	571.2
233.56	573.2
233.94	572.6
234.319	565.9
234.699	570.3
235.079	606.8
235.458	603
235.838	590.3
236.218	568.4
236.598	564.1
236.978	562.6
237.358	568.7
237.738	568.9
238.119	578
238.499	563.6
238.88	571.6
239.26	588.1
239.641	562.1
240.021	566.7
240.402	571.1
240.783	574
241.163	570.4
241.544	576.8
241.925	574.9
242.306	587
242.687	570.1
243.069	569.1
243.45	576.5
243.831	570.6
244.212	572.8
244.594	604
244.975	578.2
245.357	579.6
245.739	564.3
246.12	571.2
246.502	581.1
246.884	567.2
247.266	572.8
247.648	576.2
248.03	592.8
248.412	576.6
248.794	574.4
249.176	565.3
249.559	585.1
249.941	562
250.323	561
250.706	568.9
251.089	571.6
251.471	577.5
251.854	573
252.237	569.4
252.62	582.2
253.002	572.7
253.385	571.6
253.769	584.6
254.152	572.3
254.535	577.7
254.918	562.3
255.301	569.3
255.685	567.8
256.068	561.6
256.452	597.6
256.835	580.5
257.219	579.2
257.603	581.8
257.986	560.8
258.37	576.3
258.754	563.1
259.138	577.9
259.522	578.2
259.906	569.1
260.29	575.8
260.675	573.9
261.059	575
261.443	560.6
261.828	573.6
262.212	577.1
262.597	567.8
262.981	562.9
263.366	579.8
263.751	572.3
264.136	566.9
264.521	567.5
264.906	559.3
265.291	581
265.676	574
266.061	577.2
266.446	582
266.831	573
267.217	591.3
267.602	572
267.987	574.2
268.373	567.1
268.759	581.4
269.144	578.8
269.53	574.3
269.916	574.1
270.302	560.7
270.688	576.6
271.074	576.9
271.46	589.9
271.846	602.5
272.232	568.5
272.618	567.3
273.004	573.1
273.391	579.4
273.777	584.3
274.164	575.6
274.55	588.5
274.937	572.5
275.324	567.5
275.71	578.3
276.097	579.9
276.484	562.8
276.871	572.4
277.258	576.7
277.645	560.9
278.032	572.4
278.419	570.1
278.807	577.6
279.194	566.8
279.581	570.9
279.969	578.3
280.356	577.9
280.744	574.4
281.131	594.6
281.519	583.5
281.907	564.5
282.295	566
282.682	582.4
283.07	578.3
283.458	581.4
283.846	580.7
284.235	576.4
284.623	585.6
285.011	562.3
285.399	569.3
285.788	569.5
286.176	564.6
286.565	584.2
286.953	567.7
287.342	571
287.731	565.6
288.119	566.1
288.508	566.7
288.897	572.8
289.286	562.4
289.675	574.2
290.064	578.2
290.453	571.1
290.821	577.3
291.21	586.7
291.599	568.3
291.989	566.8
292.378	577.2
292.768	590.9
293.157	575.6
293.547	578.6
293.936	566.8
294.326	567.1
294.716	578
295.106	573.5
295.496	578.1
295.886	577.5
296.276	568.8
296.666	566.7
297.056	568.7
297.446	562.4
297.836	585.7
298.227	564.7
298.617	577.8
299.008	586.2
299.398	572.5
299.789	571.9
300.179	572.8
300.57	590.3
300.961	561.3
301.352	567.5
301.742	582.3
302.133	578.1
302.524	572.9
302.915	566.4
303.307	564.7
303.698	583.6
304.089	573.2
304.48	566.2
304.872	579.7
305.263	570.6
305.655	558.1
306.046	575.9
306.438	575.9
306.829	570.3
307.221	589
307.613	577.6
308.005	577.8
308.397	578.9
308.789	590.8
309.181	597.1
309.573	586.2
309.965	581.3
310.357	564
310.749	579.6
311.142	567.6
311.534	572.1
311.926	578.4
312.319	572.2
312.711	563.5
313.104	580.9
313.497	565.4
313.889	609.4
314.282	586.5
314.675	595.6
315.068	568.8
315.461	579.8
315.854	604.6
316.247	573
316.64	571.8
317.033	572.8
317.405	579
317.798	574
318.192	574.2
318.585	569.5
318.979	573.9
319.372	568.8
319.766	569.4
320.16	585.1
320.553	584.5
320.947	591.3
321.341	572.5
321.735	579.2
322.129	563.7
322.523	595.4
322.917	560.2
323.311	582.8
323.705	575.8
324.099	574.4
324.494	586.5
324.888	581.7
325.282	577.5
325.677	573.4
326.071	578
326.466	585.1
326.861	576.4
327.255	582.4
327.65	586.5
328.045	583.4
328.44	576.9
328.835	572.8
329.23	567.7
329.625	596.5
330.02	569.5
330.415	595.1
330.81	573.6
331.206	575.3
331.601	573.6
331.996	583.8
332.37	581.4
332.766	568.3
333.161	594.9
333.557	568.8
333.953	576
334.348	928.1
334.744	571.2
335.14	571.1
335.536	567.7
335.932	588
336.328	573.5
336.724	584.9
337.12	568.7
337.516	580.3
337.913	573.4
338.309	585.9
338.705	573.5
339.102	586.6
339.498	572.8
339.895	581.8
340.291	572
340.688	586
341.085	563.6
341.481	567.8
341.878	570.4
342.275	593.5
342.672	565.9
343.069	567.3
343.466	561.6
343.842	576.3
344.239	563.2
344.636	569.6
345.033	564.7
345.431	568.1
345.828	575.2
346.225	565.4
346.623	588.1
347.02	564.9
347.418	579.6
347.816	586.1
348.213	559.3
348.611	577.8
349.009	564.4
349.407	580.3
349.805	553.5
350.203	563.1
350.601	577
350.999	562.9
351.397	563.8
351.795	571.2
352.193	579.2
352.57	572.5
352.969	580.2
353.367	563.8
353.766	566.7
354.164	568.3
354.563	583.7
354.961	571.6
355.36	567.8
355.759	571.3
356.158	559.4
356.557	561.9
356.956	561.5
357.355	565.8
357.754	573.7
358.153	575.8
358.552	592.5
358.951	565.8
359.35	576.7
359.75	567.9
360.149	557.7
360.527	558.3
360.926	563.8
361.326	569.3
361.726	566.4
362.125	559.2
362.525	578.4
362.925	570.4
363.325	566.4
363.724	570.5
364.124	560.7
364.524	559.4
364.924	560.5
365.324	576.6
365.725	555.9
366.125	570.2
366.525	570.1
366.904	559.8
367.304	555.3
367.705	585.4
368.105	579.8
368.506	567.2
368.906	571.6
369.307	567.2
369.708	573.2
370.108	560.4
370.509	580.7
370.91	559.7
371.311	566.2
371.712	570.8
372.113	564.8
372.514	558.9
372.894	563.5
373.295	559.8
373.696	573.2
374.097	572.4
374.499	594.8
374.9	569.9
375.301	556.8
375.703	566.9
376.105	560.7
376.506	572.1
376.908	573.1
377.309	564.5
377.711	563.4
378.113	560.4
378.493	566.8
378.895	568
379.297	577.3
379.699	559.4
380.102	571.4
380.504	569.3
380.906	563.2
381.308	591.6
381.71	567.3
382.113	577.1
382.515	565.4
382.918	567.2
383.299	561.2
383.701	568
384.104	566
384.507	548.4
384.909	565.8
385.312	554.9
385.715	557.4
386.118	562.5
386.521	562
386.924	572.1
387.327	558.5
387.709	549.2
388.112	548.5
388.515	566.2
388.918	564.6
389.322	566.7
389.725	559.4
390.129	586.5
390.532	570.2
390.936	558.6
391.339	560.4
391.743	569.6
392.125	559.7
392.529	574.7
392.933	574.3
393.337	568
393.74	562.3
394.144	563.2
394.548	556
394.953	558.6
395.357	574.1
395.761	561.6
396.144	565
396.548	568.3
396.952	565.4
397.357	566.4
397.761	559.3
398.166	562
398.57	556.5
398.975	557
399.379	562.3
399.763	611.2
400.168	566.2
400.572	561
400.977	564
401.382	582.1
401.787	569.5
402.192	577.1
402.597	585.6
403.002	553.4
403.386	577.2
403.791	575.3
404.197	556.4
404.602	562.6
405.007	564.7
405.413	552.1
405.818	553.5
406.224	556.9
406.608	558
407.014	554
407.42	579.6
407.825	559.4
408.231	570.6
408.637	565.3
409.043	579.8
409.449	565.5
409.834	555.6
410.24	567.4
410.646	574.6
411.052	572.3
411.458	571
411.865	569.9
412.271	569.5
412.677	565.7
413.062	570.5
413.469	559.5
413.875	588.3
414.282	580.7
414.689	570.1
415.095	574.6
415.502	559.1
415.888	566.9
416.294	549.7
416.701	598.3
417.108	558.2
417.515	573.2
417.923	562.2
418.33	582
418.715	575.9
419.123	560.6
419.53	558.4
419.937	562.8
420.345	574
420.752	559.9
421.16	578.4
421.546	567.3
421.953	575.9
422.361	562
422.769	565
423.177	559.2
423.585	587.5
423.992	582.6
424.379	573
424.787	572
425.195	585.9
425.603	565.4
426.011	578.6
426.419	577.5
426.806	572.8
427.214	569.4
427.623	580.4
428.031	578.4
428.44	567.9
428.848	581.5
429.235	585.3
429.644	571.9
430.053	570.1
430.461	584.7
430.87	595.8
431.279	573.9
431.666	564.2
432.075	569.1
432.484	574.3
432.893	574.4
433.302	586.3
433.711	609.6
434.099	573.3
434.508	565.9
434.918	558.5
435.327	571.4
435.737	567.3
436.125	572.1
436.534	571.5
436.944	569.8
437.353	569.5
437.763	585.8
438.173	557.7
438.561	576.4
438.971	546.4
439.381	555.8
439.791	566.9
440.201	551.9
440.589	566.2
440.999	574
441.409	570
441.819	558.9
442.23	572.6
442.619	576.3
443.029	568.9
443.439	570.8
443.85	569.7
444.26	576.8
444.649	567.3
445.06	563
445.471	559.9
445.881	563.1
446.292	579.9
446.682	584.7
447.092	546.3
447.503	602.6
447.914	559.5
448.325	562.3
448.715	562.9
449.126	554.5
449.537	560.9
449.948	558.7
450.338	563
450.75	572.3
451.161	569.3
451.572	565.2
451.984	558.5
452.374	551.4
452.786	560.3
453.197	563.2
453.609	572.5
453.999	547.1
454.411	553.3
454.823	572.7
455.235	559.7
455.647	563.7
456.037	563.9
456.449	552.7
456.862	566.2
457.274	561.5
457.665	556.1
458.077	564.9
458.489	564.8
458.902	560.6
459.293	560.1
459.705	556.7
460.118	559.6
460.53	569
460.921	560.9
461.334	561.2
461.747	563.2
462.16	573.6
462.551	570.5
462.964	563.7
463.377	552.7
463.79	563.7
464.182	563.4
464.595	555.7
465.008	563.3
465.421	564.7
465.813	559.1
466.226	565
466.64	558
467.053	601.1
467.445	569.6
467.859	562.1
468.272	560.1
468.686	574.4
469.078	556.9
469.492	551.2
469.906	557.3
470.298	562.6
470.712	553.4
471.126	586.8
471.54	545.4
471.933	551.1
472.347	559.2
472.761	550.8
473.175	553.6
473.568	549.2
473.982	551.5
474.397	559.7
474.79	563.1
475.204	567.8
475.619	553.3
476.033	558
476.426	563.1
476.841	549.1
477.256	581.2
477.649	550.3
478.064	550.6
478.479	552.8
478.872	550.1
479.287	550
479.702	551.2
480.118	551.7
480.511	554.7
480.927	555.1
481.342	556.8
481.736	557
482.151	548.3
482.566	568
482.96	558.6
483.376	565.2
483.792	550.9
484.186	561.4
484.602	556.1
485.017	554.2
485.412	560.5
485.827	563.8
486.243	554.5
486.638	576.9
487.054	562.6
487.47	576.2
487.865	558.8
488.281	553.9
488.697	554.9
489.092	560.3
489.508	548
489.925	571.2
490.32	551.3
490.736	564
491.153	562.1
491.548	561.3
491.964	573.1
492.381	544.4
492.776	559.8
493.193	556.4
493.61	565.3
494.006	559.4
494.422	559.5
494.84	550.5
495.235	567.1
495.652	554.3
496.069	554.3
496.465	550.9
496.883	553.9
497.3	578.7
497.696	547
498.113	559.1
498.509	549.5
498.927	544.2
499.344	546.6
499.741	549
500.158	563.6
500.576	562.8
500.973	559.6
501.39	547.8
501.787	545.1
502.205	560.9
502.623	547
503.02	543.7
503.438	544.5
503.856	548.6
504.253	560.1
504.671	555.4
505.068	545
505.486	556.4
505.905	569.5
506.302	558.8
506.72	562.8
507.118	549.2
507.536	553.1
507.955	552.2
508.352	554.3
508.771	556.8
509.169	560.3
509.587	543.8
510.006	556.3
510.404	542.2
510.823	548.6
511.221	547.1
511.64	547.2
512.038	563.5
512.457	548.8
512.877	553
513.275	553.3
513.694	554.6
514.092	549.9
514.512	558.3
514.91	557.8
515.33	551.2
515.749	549.8
516.148	556.2
516.568	556.9
516.966	552.6
517.386	551
517.785	550.7
518.205	550.4
518.603	546.4
519.024	544.2
519.444	555
519.843	559.8
520.263	550.8
520.662	558.7
521.082	551.9
521.481	553.8
521.902	556.8
522.301	553
522.722	555.7
523.121	555.8
523.542	551.1
523.963	554
524.362	551.9
524.783	556.4
525.183	551.1
525.604	557.5
526.003	551.8
526.425	547.4
526.824	557.4
527.246	561.3
527.646	559.8
528.067	555.2
528.467	554.4
528.888	559.3
529.289	554.3
529.71	554.8
530.11	551
530.532	549.9
530.932	547
531.354	550.5
531.755	591.3
532.176	560.4
532.577	549
532.999	554.1
533.4	550.5
533.822	563.5
534.223	558.6
534.645	554.9
535.046	552.2
535.468	554.6
535.869	559.1
536.292	545.7
536.693	552.1
537.115	556.6
537.516	547.2
537.939	545.6
538.34	565.9
538.742	566.5
539.165	553.7
539.566	550.1
539.989	550.2
540.391	548.4
540.814	553.4
541.216	554.3
541.639	558.1
542.041	558.3
542.464	548.3
542.866	549.5
543.268	542.7
543.691	553.8
544.093	555.6
544.517	571.6
544.919	546.4
545.343	569.7
545.745	546
546.147	558.7
546.571	549.5
546.974	545.7
547.398	554.1
547.8	558.3
548.224	546.3
548.627	550
549.03	560.1
549.454	547.2
549.857	540.4
550.281	548.5
550.684	547.2
551.087	557.1
551.512	554.7
551.915	555.3
552.34	555.6
552.743	552.2
553.146	547.7
553.571	551.6
553.975	566.7
554.399	540.9
554.803	597
555.207	551.1
555.632	548.3
556.036	553
556.461	542.2
556.865	549.5
557.268	540.3
557.694	544.7
558.098	555.4
558.502	558
558.927	545
559.332	550.3
559.736	547.3
560.162	557.5
560.566	548.3
560.992	552.8
561.396	545.1
561.801	545
562.227	552.9
562.631	549
563.036	553.1
563.462	555.6
563.867	552.6
564.272	535.5
564.698	556.6
565.103	537.7
565.508	564.1
565.935	548.5
566.34	552
566.745	562.7
567.172	553.5
567.577	573.4
567.982	560.7
568.409	548.1
568.815	543.5
569.22	546.3
569.626	558.1
570.053	536.9
570.459	556.1
570.865	556
571.292	555.3
571.698	555
572.104	538.9
572.531	545.3
572.937	562.9
573.343	547.5
573.75	549.7
574.177	555.1
574.583	556.8
574.99	549.2
575.396	554.9
575.824	551.2
576.231	554.6
576.637	545.1
577.065	577.5
577.472	544.3
577.879	546.5
578.286	566.2
578.714	542.5
579.121	550.8
579.528	552.9
579.935	556.9
580.364	547.5
580.771	537.1
581.178	543.1
581.585	550.7
582.014	555
582.421	547.9
582.829	548.3
583.236	556.9
583.644	543.6
584.073	545.6
584.481	551.7
584.889	542.8
585.296	555.8
585.726	549.2
586.134	546.7
586.542	544.1
586.95	563.8
587.358	540
587.787	554.9
588.196	543.6
588.604	554.1
589.012	556.2
589.421	539.7
589.851	540.1
590.259	549.5
590.668	538.8
591.076	582.8
591.485	540.1
591.894	541.1
592.324	559.4
592.733	553.7
593.142	533.3
593.551	543.6
593.96	578.8
594.369	538.1
594.8	540.2
595.209	546.1
595.618	533.9
596.028	546.4
596.437	540.3
596.847	546.1
597.256	548.5
597.687	551.7
598.097	550.1
598.507	538
598.917	548.2
599.327	559.2
599.736	548.5
600.146	556.7
600.556	552.1
600.988	551.7
601.398	545.9
601.808	555.7
602.219	538.7
602.629	549.1
603.039	551.7
603.45	575.1
603.86	550.2
604.271	560.6
604.703	549.4
605.114	546.3
605.525	549.5
605.935	551.9
606.346	566.2
606.757	545
607.168	548.1
607.579	544.4
607.99	553
608.402	549.9
608.813	553.4
609.224	542.9
609.636	541.3
610.047	539.3
610.48	545.6
610.892	556.2
611.303	555.3
611.715	542.6
612.127	545.8
612.539	541.9
612.95	548.3
613.362	537.1
613.774	537.9
614.186	548.4
614.599	543.6
615.011	554.4
615.423	538
615.835	542.7
616.248	533.5
616.66	554
617.073	538.7
617.485	543.3
617.898	552.6
618.311	549.4
618.723	544
619.136	574.6
619.549	558
619.962	567.4
620.375	539.7
620.788	547.6
621.201	541.6
621.614	553
622.028	549.3
622.441	548.5
622.854	558.8
623.268	539.5
623.681	553.7
624.095	547.2
624.509	557.2
624.922	549.3
625.336	535.3
625.728	548.5
626.142	551.5
626.556	554
626.97	552.1
627.384	542.6
627.799	549.4
628.213	561.2
628.627	551.9
629.041	546.7
629.456	547.2
629.87	545
630.285	556.9
630.699	551.7
631.093	544.7
631.507	553.4
631.922	551.5
632.337	560.2
632.752	543.6
633.167	545.4
633.582	543
633.997	544.3
634.412	535.5
634.806	546.7
635.221	535.8
635.637	555.9
636.052	534.5
636.468	549.9
636.883	560.5
637.299	542.7
637.715	535
638.109	543.3
638.525	531.9
638.941	557.8
639.357	547.4
639.773	558.9
640.189	538.2
640.584	544.6
641	552.4
641.416	535.5
641.832	546.4
642.249	543.5
642.665	543.8
643.06	548.3
643.477	553.4
643.894	531.7
644.31	548.3
644.727	541.4
645.123	549.1
645.54	541.4
645.957	545.3
646.374	551.5
646.77	547.6
647.187	566.2
647.604	548.2
648.021	528.1
648.439	540.8
648.835	543.5
649.252	543.3
649.67	542.4
650.088	542.9
650.484	551.4
650.902	549.5
651.32	553.5
651.738	544
652.134	546.5
652.552	566.7
652.971	557.1
653.389	548
653.786	556.8
654.204	550.9
654.622	542.4
655.019	544.5
655.438	551.7
655.857	546.9
656.275	551.5
656.673	539.2
657.091	608.2
657.51	543.5
657.908	559.6
658.327	552.3
658.746	538.3
659.144	545.3
659.563	556
659.982	549.4
660.38	537.2
660.8	550.1
661.219	554.2
661.617	548.3
662.037	548.8
662.457	558.3
662.855	534.1
663.275	573.7
663.695	544
664.094	543.1
664.514	550.9
664.934	537.9
665.333	549.6
665.753	541.4
666.152	537.5
666.572	538.8
666.993	557.7
667.392	541.3
667.812	542.2
668.212	547
668.632	551.5
669.053	542.6
669.453	550.5
669.874	549.6
670.273	545.6
670.694	539.9
671.116	561
671.515	552.6
671.937	542.2
672.337	537.3
672.758	537.7
673.158	551.4
673.58	535.2
673.98	541.4
674.402	557
674.824	546.6
675.224	534.6
675.646	540.7
676.047	545
676.469	548.1
676.869	555.8
677.292	546.4
677.693	539.9
678.115	540.6
678.516	545.8
678.939	549.1
679.34	545.3
679.762	556.6
680.164	548.2
680.586	536.4
680.988	544.4
681.411	566.2
681.812	544.4
682.236	536.7
682.637	537.8
683.061	532.7
683.462	543.1
683.864	546.4
684.288	551.9
684.69	529
685.114	552.9
685.516	551.5
685.94	536.7
686.342	544.3
686.766	530.7
687.168	538.7
687.571	556.8
687.995	537.8
688.398	531.1
688.822	542.3
689.225	552.6
689.628	558.9
690.052	539.4
690.456	545.2
690.88	545.8
691.284	538.7
691.687	547.8
692.112	535.6
692.515	536.5
692.919	543.8
693.344	546.8
693.747	543.5
694.173	537.6
694.577	555.8
694.98	548.2
695.406	542.1
695.81	543
696.214	539.9
696.64	538.6
697.044	543.5
697.448	555.2
697.874	543.5
698.279	539
698.684	539.9
699.11	532.7
699.514	540.8
699.919	540.9
700.324	530.9
700.75	548
701.156	546
701.561	553.9
701.987	543.4
702.393	552.4
702.798	557.8
703.203	543.3
703.63	539.9
704.036	540.7
704.442	544.4
704.847	534.5
705.274	544.9
705.68	546.1
706.086	552.6
706.492	533.4
706.92	537.9
707.326	556.2
707.732	538.7
708.139	536.6
708.545	531.7
708.973	543.3
709.38	541.9
709.786	529.7
710.193	555
710.6	544.7
711.028	535.2
711.435	536.2
711.842	541.5
712.249	537.5
712.656	542.8
713.064	552.5
713.492	534.5
713.9	538.8
714.307	545
714.715	538.6
715.123	545.6
715.53	550.3
715.938	549.5
716.367	544.3
716.775	540.4
717.184	542.4
717.592	542.4
718	551.1
718.408	576.7
718.816	584.4
719.225	543
719.633	544.9
720.042	535.6
720.472	544.1
720.881	560.2
721.29	556.5
721.699	537.1
722.108	541.8
722.517	544.6
722.926	539.9
723.335	554.9
723.744	537.1
724.154	538.8
724.563	542.1
724.973	545.3
725.382	545.3
725.792	542.8
726.202	536
726.612	552.5
727.022	543.2
727.432	537.7
779.813	544.5
780.223	585.2
780.634	536.6
781.044	536.8
781.454	537.3
781.865	552.1
782.276	534.5
782.686	551.1
783.097	538.8
783.508	539.3
783.919	537.6
784.33	556.1
784.741	552.1
785.152	532.6
785.563	527.7
785.974	533
786.386	546.6
786.776	536.3
787.188	537
787.599	536.6
788.011	543.7
788.423	546
788.835	540.7
789.247	535.2
789.659	540.5
790.071	538.3
790.483	581.2
790.874	543.2
791.286	547.2
791.699	538.5
792.111	543.5
792.524	538.7
792.937	540.3
793.349	527.9
793.741	536.3
794.154	538.7
794.567	558.4
794.98	543
795.393	532.8
795.785	553.7
796.198	539
796.612	538
797.026	539.6
797.439	528.2
797.831	535.6
798.245	535.4
798.659	533.7
799.073	537.8
799.487	537
799.88	540.5
800.294	538.3
800.708	543.6
801.123	537.1
801.516	550.8
801.93	529.6
802.345	528.2
802.76	546.9
803.153	551.1
803.568	554
803.983	541.9
804.377	543.3
804.792	534
805.207	523.8
805.601	542.5
806.016	573.6
806.432	535.8
806.826	566.3
807.242	555.2
807.658	548.1
808.052	536.4
808.468	539.6
808.884	531.1
809.279	542.3
809.695	554.8
810.111	558.4
810.506	543.5
810.922	555.4
811.339	534.8
811.734	546.6
812.151	532.5
812.546	537.4
812.963	531.7
813.38	548.2
813.776	544
814.193	558.1
814.589	535.4
815.006	534.1
815.402	536.7
815.82	534.6
816.237	539.1
816.633	539
817.051	531.1
817.448	540.8
817.866	532.4
818.262	562.6
818.68	540
819.077	534.8
819.495	535.6
819.892	575.1
820.311	538.6
820.708	537.4
821.127	538
821.524	548.4
821.943	539.5
822.34	558.1
822.759	541.2
823.157	541
823.576	552.8
823.974	539.5
824.393	548.1
824.791	533.1
825.189	534.1
825.609	536.4
826.007	538
826.427	529.3
826.826	540.5
827.246	548.4
827.644	528.7
828.043	551.2
828.463	536.7
828.862	545.5
829.261	545.8
829.682	534.2
830.081	542.8
830.502	534.4
830.901	542
831.301	533.4
831.722	526.3
832.121	537.1
832.521	534.8
832.943	533.6
833.342	540.3
833.742	526.9
834.164	526.9
834.564	523
834.965	538.2
835.386	532.3
835.787	539
836.188	536.4
836.588	538
837.01	536.7
837.411	529.5
837.812	542.5
838.213	540
838.636	532.1
839.037	602.9
839.438	537.5
839.84	542.7
840.263	541.9
840.664	542.1
841.066	536.9
841.468	538.1
841.891	536.9
842.293	543.6
842.695	542.4
843.098	544.9
843.5	540
843.902	538.8
844.326	541.9
844.729	537
845.131	548.8
845.534	541.5
845.937	547.7
846.34	555.8
846.764	536.4
847.167	538.5
847.571	529.3
