#lambda/nm	C1
208.295	467.8
208.67	440.6
209.045	403.5
209.419	407.9
209.794	591.2
210.169	566.6
210.544	688.2
210.919	585
211.295	575
211.67	584.8
212.045	576.7
212.421	581.7
212.796	617.5
213.172	576.2
213.547	580.9
213.923	579.8
214.299	575
214.675	589
215.051	580.2
215.427	583.4
215.803	597.1
216.179	585.9
216.555	570.2
216.932	581
217.308	576.6
217.684	577.4
218.061	588.9
218.438	581.3
218.814	573.4
219.191	585.8
219.568	573.5
219.945	576.5
220.322	582.4
220.699	582.6
221.076	589.7
221.453	578.7
221.83	574.7
222.208	570.9
222.585	577.2
222.962	580.1
223.34	583
223.717	580.7
224.095	582
224.473	581.6
224.851	569.6
225.229	574.6
225.607	598.4
225.985	573.3
226.363	585.1
226.741	586.2
227.119	584
227.497	590.8
227.876	566.3
228.254	591.1
228.633	587.4
229.011	579.1
229.39	589.4
229.769	587.8
230.148	589.2
230.527	601.3
230.905	585
231.284	591.2
231.664	579.1
232.043	590.5
232.422	588.2
232.801	578
233.181	589.6
233.56	579.6
233.94	581.1
234.319	570.1
234.699	578.7
235.079	621.8
235.458	619
235.838	597.3
236.218	581
236.598	574.1
236.978	577.3
237.358	577
237.738	579.7
238.119	588
238.499	574.2
238.88	586.2
239.26	601
239.641	566.2
240.021	583.6
240.402	577.5
240.783	580.5
241.163	578.6
241.544	591.4
241.925	586.2
242.306	595.7
242.687	572.7
243.069	580.5
243.45	589.7
243.831	573.8
244.212	576.2
244.594	612.8
244.975	593.7
245.357	585.2
245.739	571.1
246.12	579.2
246.502	597.6
246.884	574.3
247.266	579.1
247.648	583.6
248.03	604
248.412	581.3
248.794	584.9
249.176	575.7
249.559	594
249.941	574.8
250.323	574.3
250.706	573.7
251.089	584
251.471	582.8
251.854	584.6
252.237	580.3
252.62	590.7
253.002	580.6
253.385	581
253.769	594.6
254.152	579.7
254.535	589.9
254.918	574.9
255.301	578.7
255.685	581.6
256.068	572.7
256.452	606.1
256.835	588.9
257.219	587.4
257.603	593.4
257.986	575.4
258.37	593.3
258.754	570.3
259.138	585.2
259.522	597.6
259.906	580.3
260.29	588.2
260.675	577.3
261.059	584.9
261.443	574.2
261.828	593.7
262.212	588.2
262.597	577.1
262.981	581.3
263.366	593.3
263.751	578.8
264.136	577.6
264.521	578
264.906	576.9
265.291	593.1
265.676	582
266.061	585.2
266.446	600.7
266.831	584.3
267.217	600.3
267.602	588.8
267.987	584.2
268.373	578.2
268.759	592.8
269.144	584.5
269.53	578.2
269.916	578.8
270.302	581.4
270.688	590.2
271.074	586
271.46	592.7
271.846	615
272.232	579.9
272.618	574.3
273.004	582.7
273.391	593.6
273.777	587.8
274.164	584.2
274.55	594.6
274.937	589.7
275.324	580.5
275.71	586.6
276.097	586.5
276.484	575.8
276.871	585
277.258	588.5
277.645	573.2
278.032	588.5
278.419	578.9
278.807	586.6
279.194	572.5
279.581	577.3
279.969	590.2
280.356	590.3
280.744	582.6
281.131	609.5
281.519	590.7
281.907	579.8
282.295	579.4
282.682	598.6
283.07	582.9
283.458	589
283.846	594.6
284.235	595
284.623	587
285.011	575.5
285.399	582.6
285.788	578.9
286.176	567.9
286.565	592.1
286.953	578.4
287.342	578.9
287.731	575.1
288.119	568.4
288.508	579.3
288.897	582
289.286	569.3
289.675	582.2
290.064	589.9
290.453	577.3
290.821	586.1
291.21	600.3
291.599	585.2
291.989	579.4
292.378	591.2
292.768	603.6
293.157	586.7
293.547	592.6
293.936	578
294.326	580
294.716	585.7
295.106	575.8
295.496	588.9
295.886	588.6
296.276	584.7
296.666	582.7
297.056	575.4
297.446	573.6
297.836	604.6
298.227	579.6
298.617	583.1
299.008	593.4
299.398	587.7
299.789	580.9
300.179	585.2
300.57	597.9
300.961	577.5
301.352	578.6
301.742	595.5
302.133	582.6
302.524	585.3
302.915	585.3
303.307	576.8
303.698	591.7
304.089	588.5
304.48	581.9
304.872	593.8
305.263	585.3
305.655	579
306.046	588.1
306.438	590.3
306.829	576.4
307.221	597.7
307.613	587.7
308.005	598.4
308.397	600.7
308.789	608.3
309.181	612.3
309.573	606.6
309.965	593.3
310.357	576
310.749	591.4
311.142	573.5
311.534	579
311.926	587.4
312.319	586.9
312.711	584.4
313.104	596.6
313.497	580.4
313.889	620.3
314.282	595.2
314.675	606.4
315.068	584.7
315.461	586.7
315.854	608.2
316.247	585.3
316.64	582.5
317.033	585.2
317.405	588.3
317.798	583.6
318.192	587.2
318.585	576.4
318.979	590.9
319.372	577.9
319.766	580.2
320.16	598.8
320.553	601.9
320.947	601.3
321.341	579.7
321.735	581.3
322.129	570.1
322.523	609.3
322.917	580.7
323.311	597.4
323.705	587.8
324.099	588.8
324.494	600.4
324.888	588.7
325.282	586
325.677	594.6
326.071	590.9
326.466	597.8
326.861	586.4
327.255	590.1
327.65	599.1
328.045	599.8
328.44	587.2
328.835	584.9
329.23	575.5
329.625	610.5
330.02	580.6
330.415	606.6
330.81	587.7
331.206	592.7
331.601	581.4
331.996	593.4
332.37	596.6
332.766	573.3
333.161	606.2
333.557	579.4
333.953	583
334.348	956.6
334.744	587.1
335.14	580.8
335.536	583.7
335.932	603.4
336.328	590.2
336.724	597.8
337.12	584.1
337.516	585.5
337.913	588.5
338.309	595.6
338.705	589.2
339.102	593.6
339.498	578.3
339.895	595
340.291	574.5
340.688	591.6
341.085	578.3
341.481	578.8
341.878	587
342.275	599
342.672	573.3
343.069	573.7
343.466	569
343.842	594.4
344.239	572.9
344.636	579.4
345.033	574.2
345.431	575.4
345.828	579.9
346.225	581.8
346.623	592.5
347.02	580.6
347.418	585.2
347.816	596
348.213	574.1
348.611	589.6
349.009	577.7
349.407	590.1
349.805	575.4
350.203	571.3
350.601	588.1
350.999	576.7
351.397	575.7
351.795	579
352.193	587.4
352.57	589.9
352.969	592.7
353.367	573.4
353.766	570.1
354.164	580.4
354.563	591.5
354.961	577.3
355.36	577.6
355.759	581.8
356.158	574.3
356.557	576.4
356.956	572.8
357.355	566.9
357.754	585.6
358.153	585.8
358.552	598.4
358.951	579.5
359.35	580.5
359.75	583.3
360.149	579.6
360.527	573.4
360.926	572.6
361.326	573.8
361.726	580.4
362.125	572.7
362.525	582.1
362.925	572.2
363.325	578.5
363.724	574
364.124	575.7
364.524	566.7
364.924	572.1
365.324	590.1
365.725	563.6
366.125	582.2
366.525	578.7
366.904	573.8
367.304	559.7
367.705	592.8
368.105	584.9
368.506	577.2
368.906	576.7
369.307	577.2
369.708	583.2
370.108	563.1
370.509	587
370.91	571.1
371.311	575.1
371.712	575.8
372.113	574.6
372.514	567.4
372.894	569.7
373.295	572.4
373.696	582.7
374.097	583
374.499	605.6
374.9	577.1
375.301	571.6
375.703	574.3
376.105	566.9
376.506	581
376.908	583.9
377.309	575.4
377.711	578.2
378.113	573.5
378.493	571
378.895	569.3
379.297	582.3
379.699	564.2
380.102	578.6
380.504	576.8
380.906	569.3
381.308	594.1
381.71	574.6
382.113	583.4
382.515	573.8
382.918	577.3
383.299	571.9
383.701	581.4
384.104	581.2
384.507	560.3
384.909	578.3
385.312	560
385.715	561.9
386.118	571.5
386.521	560.7
386.924	583.5
387.327	572.8
387.709	566.6
388.112	561.4
388.515	568
388.918	572
389.322	578.5
389.725	572
390.129	600
390.532	579.8
390.936	572.4
391.339	574.4
391.743	576.2
392.125	570.2
392.529	583
392.933	590.5
393.337	580.3
393.74	574.3
394.144	568
394.548	575
394.953	568.2
395.357	579.5
395.761	576.3
396.144	573.3
396.548	580.4
396.952	577.3
397.357	573.1
397.761	572.8
398.166	574
398.57	573.3
398.975	570.6
399.379	574.4
399.763	619.5
400.168	577.1
400.572	574.8
400.977	572.4
401.382	594.2
401.787	584.2
402.192	595.4
402.597	591.7
403.002	566.6
403.386	586.7
403.791	593.3
404.197	567.5
404.602	577.3
405.007	574.8
405.413	568.8
405.818	570.6
406.224	574.9
406.608	574.1
407.014	567.8
407.42	595.5
407.825	570
408.231	586.5
408.637	582
409.043	591.8
409.449	562.7
409.834	569.6
410.24	575.2
410.646	585.8
411.052	586.5
411.458	575.1
411.865	581.7
412.271	578.4
412.677	583.3
413.062	580.8
413.469	569.9
413.875	598.1
414.282	584.9
414.689	581.9
415.095	572.5
415.502	569.9
415.888	573.6
416.294	561.5
416.701	614.3
417.108	571.8
417.515	582.7
417.923	567.9
418.33	592.8
418.715	590.9
419.123	571.1
419.53	573.8
419.937	578.7
420.345	588.6
420.752	577.6
421.16	591.1
421.546	579
421.953	588
422.361	569.6
422.769	579.8
423.177	569.5
423.585	603.8
423.992	599.3
424.379	591.1
424.787	594.2
425.195	598.3
425.603	574.9
426.011	588.9
426.419	594.3
426.806	586.3
427.214	582.6
427.623	589.2
428.031	594.5
428.44	584.5
428.848	589.7
429.235	597.3
429.644	583.4
430.053	574.8
430.461	594.4
430.87	602.5
431.279	591.1
431.666	572.6
432.075	574.9
432.484	588.9
432.893	578
433.302	595.8
433.711	613.9
434.099	586.8
434.508	573.4
434.918	576.3
435.327	581.8
435.737	580.3
436.125	573.8
436.534	572.8
436.944	578
437.353	580.6
437.763	588.1
438.173	566.5
438.561	588.7
438.971	564.7
439.381	575.9
439.791	577.9
440.201	560.7
440.589	577.2
440.999	578.3
441.409	577.4
441.819	564.3
442.23	582.5
442.619	582.2
443.029	572.9
443.439	576.3
443.85	589.2
444.26	590.5
444.649	582.6
445.06	573.8
445.471	565.6
445.881	575.2
446.292	586.5
446.682	591.8
447.092	561
447.503	624.1
447.914	575.4
448.325	573
448.715	573.1
449.126	564.1
449.537	574.7
449.948	574.4
450.338	576.7
450.75	582.4
451.161	572.7
451.572	575.8
451.984	570.4
452.374	557.1
452.786	574.2
453.197	577.3
453.609	575.9
453.999	561
454.411	563.9
454.823	576.5
455.235	575.6
455.647	573.4
456.037	575.7
456.449	559.2
456.862	571.5
457.274	578.2
457.665	561.4
458.077	575.3
458.489	582.9
458.902	564.8
459.293	570.1
459.705	573.7
460.118	564.6
460.53	564.4
460.921	569.3
461.334	575.4
461.747	571.3
462.16	579.7
462.551	583.7
462.964	576.8
463.377	559.9
463.79	568.5
464.182	575.4
464.595	564.2
465.008	577.8
465.421	576.1
465.813	565.7
466.226	581.3
466.64	568.3
467.053	623.6
467.445	583.2
467.859	567.9
468.272	569.9
468.686	580
469.078	568.9
469.492	558.7
469.906	568.6
470.298	578.9
470.712	564.9
471.126	599.1
471.54	558.1
471.933	567.5
472.347	569
472.761	567.2
473.175	557.3
473.568	560.6
473.982	559.4
474.397	570.8
474.79	567.7
475.204	575
475.619	569.5
476.033	570.8
476.426	568.5
476.841	564.1
477.256	598.4
477.649	557.1
478.064	559.1
478.479	564.7
478.872	565.1
479.287	555.3
479.702	558.9
480.118	567.5
480.511	564.8
480.927	562.8
481.342	566.7
481.736	569.2
482.151	563.6
482.566	574.6
482.96	567.3
483.376	579.7
483.792	560.8
484.186	572.8
484.602	566.3
485.017	568.4
485.412	563.6
485.827	570.8
486.243	564.7
486.638	592.6
487.054	576.5
487.47	587.6
487.865	567.6
488.281	566.3
488.697	558.7
489.092	563.3
489.508	557.7
489.925	579.3
490.32	556.9
490.736	572.7
491.153	567.7
491.548	570.4
491.964	586.8
492.381	556
492.776	571.6
493.193	569.2
493.61	573.2
494.006	563.5
494.422	572.7
494.84	560.1
495.235	574.9
495.652	567.1
496.069	571.9
496.465	557.8
496.883	563.8
497.3	590.4
497.696	568.9
498.113	570.4
498.509	560.3
498.927	556.5
499.344	560.8
499.741	555.8
500.158	575.4
500.576	572.3
500.973	564.6
501.39	560.9
501.787	555.8
502.205	570.8
502.623	563.3
503.02	554.5
503.438	560.1
503.856	562.8
504.253	570.7
504.671	563.3
505.068	563.2
505.486	557.4
505.905	584
506.302	563.6
506.72	571.1
507.118	559.5
507.536	560.7
507.955	566.1
508.352	568.1
508.771	569.9
509.169	565.5
509.587	553.5
510.006	565.2
510.404	553.9
510.823	557.7
511.221	560.8
511.64	556.7
512.038	574.8
512.457	561.9
512.877	564
513.275	561.1
513.694	565.8
514.092	558.7
514.512	564.7
514.91	561.7
515.33	564.6
515.749	563.6
516.148	571.2
516.568	565.8
516.966	567
517.386	566.9
517.785	564.1
518.205	561.7
518.603	561.7
519.024	559.7
519.444	572.9
519.843	575.6
520.263	566
520.662	567.8
521.082	565
521.481	563.8
521.902	563.2
522.301	570.4
522.722	570.6
523.121	560.9
523.542	560.2
523.963	564.8
524.362	567.6
524.783	567.2
525.183	558.9
525.604	567
526.003	562.8
526.425	557.6
526.824	568.4
527.246	570.3
527.646	575
528.067	566.3
528.467	563.3
528.888	567.7
529.289	561
529.71	568.6
530.11	559.5
530.532	559.6
530.932	555
531.354	553.9
531.755	599.3
532.176	570.8
532.577	561.9
532.999	562.8
533.4	555.6
533.822	571.1
534.223	567
534.645	565.9
535.046	559.4
535.468	560.8
535.869	578.3
536.292	559.6
536.693	559.9
537.115	564.7
537.516	552.7
537.939	556.4
538.34	579.6
538.742	572.8
539.165	565.3
539.566	565.4
539.989	558.3
540.391	555.1
540.814	563
541.216	555.9
541.639	562.2
542.041	565.4
542.464	553.9
542.866	557.7
543.268	549.6
543.691	564.2
544.093	573.4
544.517	582.8
544.919	556.7
545.343	582.4
545.745	553.7
546.147	564.7
546.571	559.5
546.974	556.2
547.398	562.8
547.8	574.3
548.224	561.1
548.627	558
549.03	568.8
549.454	561.8
549.857	551.3
550.281	559.1
550.684	554.9
551.087	572.3
551.512	564.2
551.915	568.4
552.34	556.5
552.743	558.6
553.146	563.9
553.571	561.6
553.975	577.3
554.399	550.4
554.803	609.1
555.207	557.9
555.632	556.9
556.036	561.2
556.461	549
556.865	563.6
557.268	553.8
557.694	558.5
558.098	564.2
558.502	560
558.927	556.4
559.332	553.6
559.736	559.4
560.162	564
560.566	557.4
560.992	565
561.396	562.9
561.801	560
562.227	567.8
562.631	559.3
563.036	562.2
563.462	567.2
563.867	564.8
564.272	548.2
564.698	562.7
565.103	553.2
565.508	574.9
565.935	562.1
566.34	559.9
566.745	572.1
567.172	556
567.577	578.1
567.982	571.7
568.409	560.7
568.815	555.4
569.22	561.3
569.626	563.3
570.053	548.6
570.459	564.8
570.865	560.6
571.292	562.2
571.698	562.5
572.104	541.7
572.531	557.3
572.937	569.3
573.343	557.1
573.75	553.2
574.177	567.4
574.583	563.7
574.99	557.9
575.396	564.9
575.824	559.2
576.231	561
576.637	550.5
577.065	583.7
577.472	556.3
577.879	559.7
578.286	571.5
578.714	555
579.121	557.8
579.528	566.6
579.935	561.9
580.364	555.2
580.771	541.3
581.178	551.2
581.585	564.8
582.014	565.3
582.421	555.2
582.829	552.8
583.236	572
583.644	549
584.073	557.8
584.481	563.2
584.889	554.7
585.296	564.4
585.726	560
586.134	550.8
586.542	554.2
586.95	576.9
587.358	552.4
587.787	558.6
588.196	547.8
588.604	554.6
589.012	558.4
589.421	550
589.851	547.7
590.259	557.1
590.668	552.8
591.076	584.9
591.485	552.6
591.894	554.5
592.324	575
592.733	569
593.142	550.6
593.551	557.8
593.96	563.9
594.369	545.2
594.8	542.9
595.209	558.3
595.618	545
596.028	549.2
596.437	550.4
596.847	557
597.256	561.3
597.687	564.2
598.097	553.7
598.507	551
598.917	555.9
599.327	563.6
599.736	561
600.146	564.5
600.556	555.6
600.988	570
601.398	555.1
601.808	563.5
602.219	544.5
602.629	558.8
603.039	555.3
603.45	580.7
603.86	555.9
604.271	572.3
604.703	555.9
605.114	556.8
605.525	558.9
605.935	558.5
606.346	583.4
606.757	563
607.168	556.1
607.579	552.1
607.99	566.2
608.402	558.2
608.813	557.7
609.224	553.7
609.636	549.6
610.047	550.9
610.48	561.7
610.892	567.1
611.303	569.5
611.715	553.6
612.127	549.5
612.539	557.2
612.95	557.3
613.362	553.2
613.774	551.1
614.186	552.9
614.599	552.4
615.011	569.3
615.423	546.3
615.835	551.1
616.248	551.6
616.66	563.5
617.073	556.8
617.485	551.4
617.898	564.8
618.311	556.8
618.723	552.7
619.136	583.8
619.549	572.4
619.962	581.8
620.375	556.2
620.788	553.6
621.201	553.3
621.614	564.4
622.028	556.1
622.441	557.9
622.854	569.7
623.268	551.2
623.681	563.3
624.095	559.3
624.509	563
624.922	563.1
625.336	557.6
625.728	561.6
626.142	564.3
626.556	573.6
626.97	557.7
627.384	554.3
627.799	555.3
628.213	568.4
628.627	557.9
629.041	554.5
629.456	550.4
629.87	558.8
630.285	565.3
630.699	565.4
631.093	555.9
631.507	557.2
631.922	562.6
632.337	569.1
632.752	546.4
633.167	557.2
633.582	558.1
633.997	552.3
634.412	548.2
634.806	558.2
635.221	548
635.637	566.5
636.052	544.7
636.468	560.4
636.883	570.1
637.299	555.8
637.715	547.2
638.109	551.2
638.525	540.5
638.941	565.2
639.357	553.9
639.773	565.8
640.189	546.9
640.584	554.4
641	563.3
641.416	543.5
641.832	550.8
642.249	552.6
642.665	555.2
643.06	559.6
643.477	565.6
643.894	543.7
644.31	551.9
644.727	554.3
645.123	556
645.54	548.2
645.957	559.6
646.374	561.2
646.77	553.4
647.187	584.9
647.604	552.5
648.021	540.9
648.439	548.1
648.835	562.2
649.252	558.2
649.67	556.4
650.088	553.9
650.484	562.2
650.902	560.6
651.32	564.8
651.738	545.5
652.134	556
652.552	572.8
652.971	560.6
653.389	551.8
653.786	569.2
654.204	556.5
654.622	545.1
655.019	549.6
655.438	560.6
655.857	556.2
656.275	557.4
656.673	546.7
657.091	620.3
657.51	554.2
657.908	566.8
658.327	575.8
658.746	539.9
659.144	553.7
659.563	567.8
659.982	558.8
660.38	549.5
660.8	552.1
661.219	565
661.617	563.6
662.037	556.5
662.457	560.7
662.855	541.6
663.275	585.4
663.695	560.9
664.094	552.4
664.514	559.6
664.934	548.8
665.333	565.9
665.753	549.6
666.152	549.3
666.572	548.6
666.993	564.4
667.392	550.1
667.812	549.6
668.212	551.6
668.632	569.1
669.053	546.8
669.453	560.1
669.874	557.5
670.273	558
670.694	549
671.116	562.2
671.515	559.8
671.937	553
672.337	549.8
672.758	552.2
673.158	563.6
673.58	543.9
673.98	557
674.402	562.1
674.824	554.2
675.224	550.6
675.646	549.3
676.047	548.1
676.469	553.1
676.869	558.9
677.292	553.3
677.693	553.6
678.115	552.5
678.516	555.2
678.939	555.1
679.34	557
679.762	568
680.164	560.8
680.586	546.3
680.988	561.1
681.411	581.2
681.812	553.7
682.236	548.4
682.637	548.5
683.061	541.4
683.462	552
683.864	550.3
684.288	559.9
684.69	540.7
685.114	562.8
685.516	566.4
685.94	541.6
686.342	566.1
686.766	545.1
687.168	554.4
687.571	569.2
687.995	555.7
688.398	542.5
688.822	552.4
689.225	569.8
689.628	571.7
690.052	553.4
690.456	560.1
690.88	553.7
691.284	546.5
691.687	561.8
692.112	550.8
692.515	547
692.919	550.9
693.344	555
693.747	550.8
694.173	549
694.577	563.7
694.98	550.5
695.406	551
695.81	551.3
696.214	556.9
696.64	553.6
697.044	554.4
697.448	558.4
697.874	548.1
698.279	548.7
698.684	540.7
699.11	547.1
699.514	548.4
699.919	552.7
700.324	540.5
700.75	550.8
701.156	549.8
701.561	559.7
701.987	557.8
702.393	567.4
702.798	566.3
703.203	553.9
703.63	552.3
704.036	546.5
704.442	555.9
704.847	545.9
705.274	550.9
705.68	555.9
706.086	566.8
706.492	542.3
706.92	554.3
707.326	564.7
707.732	556.1
708.139	546.6
708.545	548.7
708.973	551.5
709.38	553.3
709.786	537.4
710.193	565.6
710.6	553.5
711.028	547.9
711.435	550.5
711.842	551.3
712.249	550.8
712.656	554.9
713.064	562.5
713.492	543.5
713.9	551.3
714.307	560.2
714.715	553.1
715.123	557.8
715.53	551.5
715.938	566.1
716.367	556.7
716.775	549.4
717.184	544.7
717.592	553.2
718	564
718.408	581
718.816	592.3
719.225	553.1
719.633	554.8
720.042	539.7
720.472	551.2
720.881	572.9
721.29	558.6
721.699	542.8
722.108	551.4
722.517	556.1
722.926	552.3
723.335	560.5
723.744	553.2
724.154	555.6
724.563	559.3
724.973	556.6
725.382	554.7
725.792	547.5
726.202	543.1
726.612	558.7
727.022	550.7
727.432	548.6
779.813	552.1
780.223	589.5
780.634	549.3
781.044	542.7
781.454	551.7
781.865	561.2
782.276	538.2
782.686	558.8
783.097	553.9
783.508	546.9
783.919	549.8
784.33	561.9
784.741	567.4
785.152	544.3
785.563	541.1
785.974	543.1
786.386	560.8
786.776	548.5
787.188	546.8
787.599	546.1
788.011	560.6
788.423	555
788.835	546.3
789.247	541.1
789.659	550.4
790.071	548.7
790.483	588.3
790.874	550.5
791.286	557
791.699	550.7
792.111	548
792.524	554
792.937	552.7
793.349	538.9
793.741	542.6
794.154	543.9
794.567	571.2
794.98	549.8
795.393	534.8
795.785	562.7
796.198	542.4
796.612	547.8
797.026	544.5
797.439	534.5
797.831	549.5
798.245	535.2
798.659	542.4
799.073	545.7
799.487	542.6
799.88	552.5
800.294	552.2
800.708	554.7
801.123	549.1
801.516	567.3
801.93	545.9
802.345	533.9
802.76	547.5
803.153	563.2
803.568	565.9
803.983	565.6
804.377	554.4
804.792	544.8
805.207	533.9
805.601	549.5
806.016	581.1
806.432	543.2
806.826	578.9
807.242	562.1
807.658	558.2
808.052	548.8
808.468	548.2
808.884	546.8
809.279	548
809.695	558.9
810.111	568.3
810.506	547.7
810.922	564
811.339	548.4
811.734	556.5
812.151	544.4
812.546	545.3
812.963	551.4
813.38	553.7
813.776	545.8
814.193	565.8
814.589	543.5
815.006	550.6
815.402	541.5
815.82	543.2
816.237	548.1
816.633	550
817.051	536.6
817.448	551.5
817.866	540.6
818.262	570.6
818.68	548
819.077	545.5
819.495	549.4
819.892	586.7
820.311	547.1
820.708	545.1
821.127	540.6
821.524	561.7
821.943	548.7
822.34	571.4
822.759	547.9
823.157	547.6
823.576	564.1
823.974	557.4
824.393	555.6
824.791	549.1
825.189	539.8
825.609	545.1
826.007	554.6
826.427	540.2
826.826	543.9
827.246	547.4
827.644	534.3
828.043	561.8
828.463	546.2
828.862	553.6
829.261	555.1
829.682	541.8
830.081	556.6
830.502	537.4
830.901	554.3
831.301	544.1
831.722	535.6
832.121	543.6
832.521	543
832.943	552.4
833.342	547.3
833.742	543.5
834.164	545.9
834.564	539.9
834.965	545.5
835.386	543.1
835.787	542.2
836.188	544.6
836.588	547.8
837.01	548.8
837.411	544.1
837.812	555.9
838.213	547.3
838.636	543.1
839.037	610.2
839.438	548.4
839.84	548.5
840.263	551.8
840.664	555.6
841.066	549
841.468	548.8
841.891	538.1
842.293	556.3
842.695	551.6
843.098	553.2
843.5	540.6
843.902	549.9
844.326	552.7
844.729	548.1
845.131	558.8
845.534	553.1
845.937	561.7
846.34	563.4
846.764	546.4
