#lambda/nm	C1
208.295	471.4
208.67	437.2
209.045	400.4
209.419	409.8
209.794	570.3
210.169	551.1
210.544	656.4
210.919	566.7
211.295	559.3
211.67	563.4
212.045	556.6
212.421	556.7
212.796	592.7
213.172	558.8
213.547	557.2
213.923	564.4
214.299	551
214.675	566.9
215.051	566.6
215.427	565.5
215.803	581.6
216.179	566
216.555	557.4
216.932	570.4
217.308	565.8
217.684	565.8
218.061	566
218.438	563.3
218.814	558.9
219.191	570.5
219.568	558.5
219.945	556.7
220.322	568.8
220.699	564.9
221.076	571.8
221.453	566.9
221.83	555.4
222.208	557.3
222.585	554.5
222.962	565.1
223.34	566.2
223.717	559.8
224.095	563.8
224.473	562.7
224.851	558.6
225.229	549.2
225.607	580.7
225.985	551.4
226.363	560.2
226.741	562.1
227.119	562.1
227.497	574.7
227.876	552.3
228.254	571.1
228.633	565
229.011	564.3
229.39	568.2
229.769	564
230.148	573.3
230.527	583.1
230.905	561.2
231.284	565.9
231.664	558.7
232.043	573.5
232.422	567.6
232.801	554.2
233.181	567
233.56	556.9
233.94	562
234.319	551.7
234.699	559.9
235.079	599.7
235.458	600.2
235.838	576.7
236.218	555.8
236.598	557.9
236.978	555.9
237.358	556.7
237.738	559.5
238.119	570.6
238.499	557.9
238.88	563
239.26	577.7
239.641	553.3
240.021	559.4
240.402	567.4
240.783	560.7
241.163	559.4
241.544	563.8
241.925	561.3
242.306	576.8
242.687	555.1
243.069	567.6
243.45	566.1
243.831	562.8
244.212	555.6
244.594	597.1
244.975	572
245.357	562.5
245.739	555.9
246.12	566.4
246.502	577
246.884	559
247.266	563
247.648	567.5
248.03	578.1
248.412	562.5
248.794	564.2
249.176	558.8
249.559	567
249.941	558.8
250.323	557
250.706	559
251.089	564.3
251.471	560.4
251.854	560.2
252.237	569.7
252.62	574.7
253.002	566.8
253.385	561.7
253.769	574.7
254.152	563.8
254.535	566
254.918	558.7
255.301	565.4
255.685	563.4
256.068	554.3
256.452	587.8
256.835	570.5
257.219	572.9
257.603	577.6
257.986	555
258.37	565.7
258.754	548.3
259.138	566.2
259.522	578
259.906	563.2
260.29	566.6
260.675	564.3
261.059	564.8
261.443	556.9
261.828	566.3
262.212	564.5
262.597	546.8
262.981	558.3
263.366	568.6
263.751	561.7
264.136	557.9
264.521	559.5
264.906	550.6
265.291	568.3
265.676	557.2
266.061	565.6
266.446	576.9
266.831	564
267.217	576.5
267.602	568
267.987	568.3
268.373	563.6
268.759	572.8
269.144	566.1
269.53	558.3
269.916	561.8
270.302	558.3
270.688	562.9
271.074	559.6
271.46	571.6
271.846	589.5
272.232	561.8
272.618	558.6
273.004	560.6
273.391	566.8
273.777	574.4
274.164	564.7
274.55	573.1
274.937	563.8
275.324	558.4
275.71	569.6
276.097	569
276.484	554.2
276.871	567.4
277.258	565.7
277.645	550.9
278.032	555.7
278.419	557.7
278.807	565.4
279.194	554.8
279.581	559
279.969	564.2
280.356	563.8
280.744	563.9
281.131	581.7
281.519	574.6
281.907	557.9
282.295	561.4
282.682	575
283.07	564.5
283.458	573.5
283.846	572.4
284.235	571.8
284.623	569.9
285.011	556.1
285.399	563.5
285.788	559.8
286.176	551.2
286.565	573.8
286.953	561.7
287.342	561
287.731	554.9
288.119	554
288.508	561.3
288.897	562.9
289.286	548.3
289.675	564.7
290.064	574.7
290.453	558.5
290.821	567
291.21	579.6
291.599	560.9
291.989	563.6
292.378	571.5
292.768	578.9
293.157	566.4
293.547	565.4
293.936	563.5
294.326	554.2
294.716	564.1
295.106	560.8
295.496	572.6
295.886	570.9
296.276	561.5
296.666	559.6
297.056	558.9
297.446	555.8
297.836	583
298.227	560.6
298.617	570.3
299.008	574.9
299.398	559.3
299.789	553.9
300.179	567.6
300.57	569.8
300.961	558.8
301.352	558.1
301.742	570.6
302.133	565.3
302.524	562.5
302.915	563.7
303.307	555.2
303.698	568.3
304.089	568.9
304.48	562.3
304.872	567.2
305.263	565.2
305.655	556.1
306.046	566.8
306.438	570.4
306.829	556.7
307.221	575
307.613	569.3
308.005	580.2
308.397	570.7
308.789	587.9
309.181	585.1
309.573	580.3
309.965	573.8
310.357	558.1
310.749	564.5
311.142	555.3
311.534	559.7
311.926	570.8
312.319	565
312.711	555.4
313.104	572.1
313.497	560.1
313.889	598.9
314.282	573.3
314.675	589.1
315.068	562.4
315.461	568.1
315.854	591.8
316.247	566.5
316.64	562.6
317.033	567.6
317.405	574.9
317.798	562.1
318.192	566.8
318.585	556.1
318.979	569
319.372	561.8
319.766	562.4
320.16	573.8
320.553	571.4
320.947	580.5
321.341	559.3
321.735	564.6
322.129	555.4
322.523	582
322.917	558.9
323.311	574.2
323.705	570.8
324.099	565.4
324.494	579
324.888	574.2
325.282	564.1
325.677	569.7
326.071	570.3
326.466	578.7
326.861	569
327.255	574.3
327.65	574.1
328.045	576.9
328.44	569.1
328.835	568.5
329.23	561
329.625	586.1
330.02	561.3
330.415	583.9
330.81	568.3
331.206	562.1
331.601	560.3
331.996	572.7
332.37	572.1
332.766	554.4
333.161	588.7
333.557	560.3
333.953	568.1
334.348	792
334.744	566.6
335.14	555.7
335.536	560.7
335.932	575.4
336.328	562.2
336.724	571.5
337.12	569.5
337.516	563.8
337.913	569.9
338.309	577.5
338.705	565.5
339.102	570
339.498	557.5
339.895	570.7
340.291	563.1
340.688	573.6
341.085	561.3
341.481	559.9
341.878	561.9
342.275	580
342.672	556.8
343.069	561.2
343.466	551.6
343.842	575.2
344.239	559.1
344.636	565.8
345.033	553.9
345.431	554
345.828	565.9
346.225	559
346.623	571.4
347.02	565.7
347.418	573.7
347.816	575.9
348.213	551.4
348.611	570.4
349.009	558.5
349.407	575.1
349.805	549.8
350.203	553.5
350.601	567.4
350.999	561.7
351.397	557.4
351.795	565.2
352.193	568.3
352.57	569.8
352.969	568.9
353.367	557.7
353.766	558.2
354.164	558.6
354.563	567.3
354.961	565.5
355.36	555
355.759	558
356.158	552.4
356.557	549.4
356.956	554.8
357.355	547.8
357.754	570.1
358.153	569
358.552	583.1
358.951	557.5
359.35	566.5
359.75	555.2
360.149	549.1
360.527	542.3
360.926	551.9
361.326	565.1
361.726	554.6
362.125	547
362.525	561.8
362.925	555.9
363.325	557.6
363.724	554.6
364.124	550.7
364.524	552.2
364.924	558.9
365.324	566.6
365.725	546.8
366.125	560.8
366.525	559
366.904	551.6
367.304	537.7
367.705	570.5
368.105	564.7
368.506	555
368.906	562.2
369.307	552.5
369.708	558.8
370.108	549.5
370.509	560.6
370.91	549.6
371.311	558.4
371.712	556
372.113	548.6
372.514	542.5
372.894	560.3
373.295	549.2
373.696	564.7
374.097	557.8
374.499	579.8
374.9	559.5
375.301	541.2
375.703	557.4
376.105	552.2
376.506	558.8
376.908	555.8
377.309	557.7
377.711	556.6
378.113	554.1
378.493	556.1
378.895	548
379.297	567.3
379.699	545.5
380.102	560.3
380.504	561.7
380.906	550
381.308	572.1
381.71	558.7
382.113	560.7
382.515	553.8
382.918	556.6
383.299	552.2
383.701	561.6
384.104	551.8
384.507	537.2
384.909	555.8
385.312	541.4
385.715	547.6
386.118	552.2
386.521	546.6
386.924	563.1
387.327	545.9
387.709	546.2
388.112	544
388.515	553.3
388.918	557.5
389.322	558.4
389.725	554.1
390.129	575.1
390.532	557.5
390.936	551.2
391.339	551
391.743	556
392.125	552.3
392.529	564.1
392.933	566.7
393.337	556.1
393.74	555.7
394.144	557.1
394.548	548.7
394.953	550.1
395.357	562.5
395.761	552.4
396.144	550.7
396.548	550.8
396.952	553.7
397.357	554.9
397.761	548.3
398.166	543.5
398.57	553.7
398.975	545.4
399.379	555.1
399.763	598.5
400.168	552.4
400.572	555.6
400.977	557.1
401.382	566.1
401.787	558
402.192	570
402.597	565.3
403.002	542.3
403.386	566.3
403.791	580.8
404.197	552
404.602	553.9
405.007	553.2
405.413	550.4
405.818	551.1
406.224	554
406.608	558.9
407.014	545.7
407.42	565.7
407.825	556.6
408.231	557.7
408.637	557.3
409.043	570.9
409.449	554.7
409.834	546.2
410.24	553.5
410.646	563.7
411.052	555.8
411.458	561.2
411.865	565.6
412.271	566.8
412.677	553.3
413.062	556.2
413.469	548
413.875	579.4
414.282	567.7
414.689	560.2
415.095	568
415.502	554.9
415.888	550.1
416.294	546.7
416.701	594.6
417.108	550.7
417.515	566.9
417.923	552.6
418.33	577.5
418.715	562.5
419.123	554.7
419.53	552.7
419.937	555.6
420.345	563.6
420.752	559.6
421.16	566.5
421.546	554.9
421.953	565.9
422.361	549.9
422.769	552.5
423.177	551.6
423.585	581.4
423.992	575.8
424.379	570.4
424.787	565.6
425.195	571.6
425.603	554.8
426.011	565.6
426.419	569.3
426.806	557.8
427.214	558.6
427.623	570
428.031	568.7
428.44	560
428.848	569.7
429.235	575.7
429.644	564.9
430.053	562.9
430.461	572.9
430.87	581.5
431.279	568.2
431.666	557.5
432.075	562.4
432.484	563.6
432.893	561.9
433.302	575
433.711	595.5
434.099	563.4
434.508	554.4
434.918	547.9
435.327	568.8
435.737	560.1
436.125	559.3
436.534	564.8
436.944	564.1
437.353	562
437.763	572.1
438.173	557.7
438.561	564.7
438.971	543.7
439.381	557.1
439.791	558
440.201	539.1
440.589	557.3
440.999	560
441.409	557.4
441.819	548.4
442.23	566.7
442.619	558.8
443.029	560.6
443.439	553
443.85	569.2
444.26	565.2
444.649	563.7
445.06	552.6
445.471	549.3
445.881	555.7
446.292	568
446.682	577.2
447.092	543.9
447.503	596.3
447.914	558.8
448.325	551.1
448.715	554.9
449.126	551.4
449.537	548.3
449.948	560.9
450.338	555.1
450.75	556.7
451.161	556.3
451.572	557.8
451.984	549.6
452.374	539.8
452.786	553.4
453.197	553.9
453.609	559.1
453.999	540.5
454.411	540
454.823	563.8
455.235	556
455.647	555.2
456.037	558.8
456.449	537.9
456.862	548.1
457.274	552.7
457.665	540.2
458.077	559.7
458.489	560.7
458.902	548.8
459.293	554.2
459.705	553.7
460.118	544.2
460.53	557.9
460.921	553
461.334	557.6
461.747	550.4
462.16	564.8
462.551	560.8
462.964	556.8
463.377	540.2
463.79	546
464.182	555.7
464.595	545.6
465.008	556.5
465.421	550.9
465.813	543.5
466.226	550.6
466.64	548.5
467.053	590.2
467.445	558
467.859	553.2
468.272	549.7
468.686	561.7
469.078	546.5
469.492	538.6
469.906	547.2
470.298	555.8
470.712	544.3
471.126	576.4
471.54	539.6
471.933	545.5
472.347	542.7
472.761	545.5
473.175	543.2
473.568	546.9
473.982	538.6
474.397	547.2
474.79	544.4
475.204	554.6
475.619	547.3
476.033	548.3
476.426	548.3
476.841	543.4
477.256	567.4
477.649	544.4
478.064	541.5
478.479	540.5
478.872	537.1
479.287	536.8
479.702	542.8
480.118	546.7
480.511	541.6
480.927	541
481.342	544.2
481.736	553.8
482.151	542.9
482.566	556.9
482.96	545.3
483.376	554.5
483.792	540.3
484.186	547.8
484.602	548.5
485.017	549.2
485.412	547.5
485.827	548.5
486.243	546.4
486.638	568.2
487.054	552.5
487.47	560.2
487.865	544.3
488.281	545.9
488.697	542.4
489.092	549.7
489.508	540.3
489.925	553.9
490.32	537.4
490.736	548.9
491.153	549.9
491.548	544.9
491.964	553.7
492.381	536.3
492.776	545.8
493.193	543.5
493.61	552.4
494.006	544
494.422	555
494.84	537.3
495.235	554.1
495.652	545
496.069	545
496.465	539.7
496.883	549.2
497.3	568.7
497.696	546.8
498.113	550.1
498.509	537.8
498.927	540.1
499.344	542.3
499.741	543.5
500.158	557.8
500.576	557.5
500.973	549.3
501.39	544.3
501.787	539.9
502.205	542.3
502.623	542.7
503.02	538.7
503.438	542.8
503.856	544.7
504.253	547.1
504.671	545.5
505.068	537.8
505.486	539.8
505.905	560.9
506.302	547.6
506.72	554.5
507.118	536.2
507.536	546.4
507.955	546.6
508.352	552.3
508.771	554.2
509.169	547
509.587	540.6
510.006	548.8
510.404	534.9
510.823	538.6
511.221	543.7
511.64	542.8
512.038	557.6
512.457	542.3
512.877	539.2
513.275	539.8
513.694	546.1
514.092	547.5
514.512	547.5
514.91	541.2
515.33	548.3
515.749	542.8
516.148	543.6
516.568	543
516.966	543.5
517.386	541.3
517.785	542.2
518.205	539.1
518.603	538.9
519.024	539.1
519.444	543.8
519.843	556.1
520.263	551.4
520.662	553.4
521.082	546.5
521.481	547.5
521.902	543.3
522.301	546.5
522.722	542.5
523.121	544.1
523.542	539.7
523.963	542.2
524.362	549.7
524.783	549.1
525.183	541.2
525.604	546.7
526.003	535.7
526.425	538.8
526.824	548
527.246	551.5
527.646	556
528.067	545.6
528.467	546.8
528.888	550
529.289	549.9
529.71	548.2
530.11	543.2
530.532	546.1
530.932	540.8
531.354	531.8
531.755	572.9
532.176	553.5
532.577	539.2
532.999	546.4
533.4	543.6
533.822	556.8
534.223	542.2
534.645	542.5
535.046	546.9
535.468	549.3
535.869	554.2
536.292	538.4
536.693	546.4
537.115	540.8
537.516	543.6
537.939	542.7
538.34	550.6
538.742	558
539.165	547.2
539.566	541.7
539.989	534.5
540.391	540.3
540.814	546.6
541.216	545.2
541.639	546.7
542.041	550.6
542.464	536.9
542.866	536.3
543.268	535
543.691	541.3
544.093	547.6
544.517	559.4
544.919	534.2
545.343	565.2
545.745	529.3
546.147	547
546.571	541.5
546.974	536.6
547.398	542.3
547.8	556.1
548.224	541.8
548.627	539.2
549.03	550.5
549.454	536.5
549.857	535.9
550.281	534.3
550.684	537.6
551.087	551.8
551.512	546.2
551.915	546.7
552.34	541.9
552.743	537
553.146	539.4
553.571	541.9
553.975	553.8
554.399	534.5
554.803	583.4
555.207	537.6
555.632	535.8
556.036	541.5
556.461	536.2
556.865	541.2
557.268	533.3
557.694	537.5
558.098	543.3
558.502	546.4
558.927	539.4
559.332	540.9
559.736	541.4
560.162	545.8
560.566	536.4
560.992	540.9
561.396	544.9
561.801	532.2
562.227	542.4
562.631	536.4
563.036	537.2
563.462	544.4
563.867	546
564.272	531.2
564.698	540.7
565.103	530
565.508	558
565.935	540.8
566.34	539.4
566.745	550.5
567.172	536.8
567.577	552.9
567.982	555.3
568.409	539.7
568.815	534.8
569.22	541
569.626	550.2
570.053	530.8
570.459	543.2
570.865	543.8
571.292	545.3
571.698	543.6
572.104	526.9
572.531	533.2
572.937	548.6
573.343	534.3
573.75	532.3
574.177	540.6
574.583	547.9
574.99	540
575.396	539
575.824	540.2
576.231	542.6
576.637	534.8
577.065	561.3
577.472	536.2
577.879	534.5
578.286	552.4
578.714	531.4
579.121	536.4
579.528	547.2
579.935	544.8
580.364	539.6
580.771	528.7
581.178	533.4
581.585	544.9
582.014	546.1
582.421	538.6
582.829	536.4
583.236	544.1
583.644	531.8
584.073	536.9
584.481	542.8
584.889	533
585.296	544.1
585.726	540.5
586.134	533.9
586.542	534.2
586.95	553.3
587.358	531.5
587.787	540.8
588.196	533.6
588.604	536.2
589.012	534.6
589.421	532.5
589.851	534.9
590.259	547.5
590.668	534.7
591.076	570.7
591.485	535.8
591.894	542.7
592.324	548.5
592.733	549.6
593.142	525
593.551	536.9
593.96	572.8
594.369	528.6
594.8	529
595.209	538.2
595.618	525.5
596.028	535.5
596.437	530
596.847	536.5
597.256	546.7
597.687	547.7
598.097	543.1
598.507	534.8
598.917	540.6
599.327	540
599.736	542
600.146	552.5
600.556	535.7
600.988	548.8
601.398	541
601.808	547.9
602.219	528.2
602.629	537.1
603.039	544
603.45	561.6
603.86	537.7
604.271	550
604.703	543.7
605.114	537
605.525	540.4
605.935	544.8
606.346	561.7
606.757	544.8
607.168	543.1
607.579	538.2
607.99	550.7
608.402	539
608.813	543.1
609.224	535.1
609.636	532.9
610.047	532.4
610.48	541.3
610.892	543.8
611.303	546.1
611.715	537.4
612.127	529.1
612.539	538.8
612.95	537.9
613.362	522.1
613.774	529
614.186	533.2
614.599	537.4
615.011	547.6
615.423	533.9
615.835	525.4
616.248	529.2
616.66	543.9
617.073	532.4
617.485	536.6
617.898	544.1
618.311	540
618.723	533.5
619.136	561.7
619.549	553.1
619.962	561
620.375	530.4
620.788	539.7
621.201	535.2
621.614	548.9
622.028	537.7
622.441	542.1
622.854	548.2
623.268	531
623.681	539.9
624.095	539.4
624.509	543.5
624.922	542.3
625.336	525
625.728	540.8
626.142	549.1
626.556	552.6
626.97	544.5
627.384	532.4
627.799	543.6
628.213	545.2
628.627	540
629.041	535.1
629.456	539.8
629.87	536.7
630.285	547.1
630.699	543.9
631.093	537.5
631.507	540.3
631.922	545.3
632.337	550.3
632.752	531.9
633.167	540.3
633.582	538.9
633.997	531.1
634.412	529.3
634.806	541.7
635.221	529.9
635.637	551.9
636.052	529.2
636.468	538.4
636.883	559.5
637.299	529.1
637.715	524
638.109	538.7
638.525	529.9
638.941	544.5
639.357	537
639.773	545.2
640.189	538.1
640.584	535.3
641	544
641.416	520.7
641.832	529.6
642.249	534.9
642.665	536.5
643.06	540.8
643.477	551.1
643.894	525.9
644.31	535.6
644.727	538.2
645.123	535.6
645.54	528.2
645.957	536.9
646.374	539.9
646.77	533.5
647.187	559.9
647.604	534.3
648.021	520.9
648.439	528.5
648.835	533.9
649.252	536.5
649.67	539.4
650.088	538.7
650.484	538.8
650.902	541.3
651.32	540.5
651.738	529.5
652.134	546.2
652.552	551.7
652.971	544.3
653.389	536.8
653.786	546.9
654.204	532.3
654.622	536
655.019	533.5
655.438	533.4
655.857	532.7
656.275	535.9
656.673	528.9
657.091	595.4
657.51	532.2
657.908	541
658.327	551.4
658.746	521.7
659.144	534.5
659.563	545
659.982	539.1
660.38	527.3
660.8	537
661.219	546.2
661.617	541
662.037	535.4
662.457	543.2
662.855	525.7
663.275	561.7
663.695	536.8
664.094	535.5
664.514	540.2
664.934	527.9
665.333	541.8
665.753	525.6
666.152	529.5
666.572	522.8
666.993	546.9
667.392	538
667.812	536.6
668.212	530.1
668.632	539.8
669.053	528.8
669.453	538.1
669.874	537.3
670.273	537.2
670.694	527.6
671.116	547.9
671.515	544.8
671.937	531.9
672.337	532.8
672.758	530.2
673.158	541.9
673.58	524.6
673.98	539.9
674.402	548.6
674.824	533.9
675.224	533.9
675.646	527.7
676.047	527.8
676.469	532.5
676.869	539
677.292	535.3
677.693	535.6
678.115	530
678.516	539.4
678.939	538.8
679.34	532.7
679.762	543
680.164	538.7
680.586	526.8
680.988	541.3
681.411	555.6
681.812	527.1
682.236	525.4
682.637	526.9
683.061	522.5
683.462	536.4
683.864	533
684.288	537
684.69	525.6
685.114	542.4
685.516	538
685.94	525.6
686.342	543.3
686.766	532.3
687.168	532.3
687.571	552.4
687.995	535.6
688.398	527.3
688.822	534.8
689.225	549.7
689.628	551.4
690.052	531.8
690.456	540.7
690.88	541.7
691.284	526.6
691.687	538.2
692.112	526.7
692.515	523.3
692.919	535.1
693.344	533.1
693.747	529.4
694.173	531
694.577	549.8
694.98	532.2
695.406	524.2
695.81	537.1
696.214	537.2
696.64	540.1
697.044	533.3
697.448	544.2
697.874	528.1
698.279	531.3
698.684	528.3
699.11	531.8
699.514	526.5
699.919	527.8
700.324	519.1
700.75	533.4
701.156	536.1
701.561	548.6
701.987	541.2
702.393	548.1
702.798	545
703.203	538.2
703.63	528.4
704.036	529.9
704.442	533.3
704.847	527.4
705.274	527.7
705.68	538.7
706.086	542
706.492	525.9
706.92	529.8
707.326	541.6
707.732	528.1
708.139	531.2
708.545	527.2
708.973	532.9
709.38	532.5
709.786	525.8
710.193	541.6
710.6	534.2
711.028	527.9
711.435	534.4
711.842	532.1
712.249	527.5
712.656	530.9
713.064	544.7
713.492	529.9
713.9	535.2
714.307	533.7
714.715	534.8
715.123	533.9
715.53	534.9
715.938	542.6
716.367	538.9
716.775	528.9
717.184	523.1
717.592	527.8
718	546.1
718.408	561.7
718.816	577.5
719.225	542.2
719.633	531.8
720.042	533.2
720.472	531.8
720.881	549.4
721.29	536.8
721.699	526.8
722.108	534.2
722.517	534.5
722.926	531.3
723.335	540.2
723.744	535.2
724.154	534.6
724.563	536
724.973	532.5
725.382	531.3
725.792	535.6
726.202	525.8
726.612	541.6
727.022	535.8
727.432	529.7
779.813	529
780.223	569.6
780.634	535.1
781.044	526.2
781.454	531.4
781.865	545.5
782.276	521.6
782.686	544.8
783.097	528.2
783.508	538.3
783.919	534.1
784.33	544.4
784.741	540.8
785.152	526.4
785.563	520.8
785.974	525.6
786.386	545.8
786.776	527.2
787.188	528.3
787.599	523.1
788.011	537.9
788.423	535.9
788.835	527.5
789.247	522.5
789.659	526.8
790.071	535.5
790.483	567.6
790.874	531
791.286	534.1
791.699	520.1
792.111	529.3
792.524	531
792.937	531.5
793.349	520.2
793.741	526.9
794.154	526.6
794.567	546.8
794.98	527.2
795.393	518.1
795.785	544.9
796.198	528.5
796.612	531.9
797.026	526.4
797.439	516.3
797.831	524.6
798.245	518.5
798.659	527.4
799.073	528.2
799.487	527.3
799.88	534.3
800.294	527.3
800.708	532.8
801.123	535.4
801.516	544.1
801.93	521.7
802.345	515.5
802.76	530.4
803.153	544.3
803.568	544.4
803.983	539.8
804.377	531
804.792	521.9
805.207	516.7
805.601	533.6
806.016	556
806.432	522.9
806.826	558.4
807.242	537.9
807.658	532.9
808.052	525.6
808.468	527.1
808.884	523.8
809.279	528.9
809.695	539.7
810.111	550.3
810.506	533.9
810.922	543
811.339	526.2
811.734	536.3
812.151	529.6
812.546	524.7
812.963	527.8
813.38	534
813.776	530.8
814.193	553.8
814.589	522.9
815.006	522.9
815.402	521.7
815.82	524.6
816.237	527.5
816.633	530
817.051	522.8
817.448	531.2
817.866	519.9
818.262	546.8
818.68	523.6
819.077	523.9
819.495	535.8
819.892	566
820.311	528.5
820.708	531.6
821.127	524.6
821.524	534.8
821.943	534.9
822.34	545.8
822.759	533.4
823.157	531.2
823.576	539.7
823.974	539.4
824.393	546
824.791	526.6
825.189	517.3
825.609	521.4
826.007	531.5
826.427	515.4
826.826	528.8
827.246	535.5
827.644	520.8
828.043	538.7
828.463	525.9
828.862	533.8
829.261	529.7
829.682	517.7
830.081	530.2
830.502	522.5
830.901	530.6
831.301	525.3
831.722	523.1
832.121	533.9
832.521	527.8
832.943	532.1
833.342	531.4
833.742	521.4
834.164	525.2
834.564	518.7
834.965	527.9
835.386	524.2
835.787	525.2
836.188	525.3
836.588	524.8
837.01	531.4
837.411	521.5
837.812	533.7
838.213	528.1
838.636	526.5
839.037	584.8
839.438	531.4
839.84	532.6
840.263	538.3
840.664	532.7
841.066	532.8
841.468	529.9
841.891	523.3
842.293	537.7
842.695	530.8
843.098	536.9
843.5	530.1
843.902	538.4
844.326	533.4
844.729	525.4
845.131	541.6
845.534	533.1
845.937	542.1
846.34	546.5
846.764	525
847.167	535.6
847.571	523.7
