#lambda/nm	C1
208.295	467.8
208.67	437.1
209.045	401.9
209.419	405.4
209.794	586.7
210.169	568.8
210.544	686
210.919	587.6
211.295	574.8
211.67	584.6
212.045	579
212.421	581.6
212.796	614.8
213.172	578.9
213.547	577.1
213.923	582.2
214.299	577.4
214.675	592
215.051	587.9
215.427	587.8
215.803	600.9
216.179	589.8
216.555	579.8
216.932	590.7
217.308	579.2
217.684	585.3
218.061	588.6
218.438	585.2
218.814	579.4
219.191	589.8
219.568	573.4
219.945	575.3
220.322	583.3
220.699	580.6
221.076	588.2
221.453	587.7
221.83	576.5
222.208	578.1
222.585	577.8
222.962	582.6
223.34	591.6
223.717	584.2
224.095	580.7
224.473	581.8
224.851	580.4
225.229	575.2
225.607	599.1
225.985	574.1
226.363	589.1
226.741	583.7
227.119	582.3
227.497	593.5
227.876	571.3
228.254	590.5
228.633	584.7
229.011	581.3
229.39	589.6
229.769	587.6
230.148	590.3
230.527	598.8
230.905	590.5
231.284	591.5
231.664	584.2
232.043	596
232.422	591.1
232.801	576.2
233.181	588.2
233.56	579.1
233.94	581.5
234.319	569.4
234.699	578.7
235.079	623.2
235.458	617
235.838	603.1
236.218	579
236.598	573.7
236.978	580.4
237.358	577.8
237.738	583
238.119	589.8
238.499	571.8
238.88	579
239.26	591.3
239.641	570.8
240.021	580.1
240.402	579.7
240.783	583.4
241.163	579.1
241.544	581.9
241.925	577.5
242.306	597
242.687	577.4
243.069	580.9
243.45	597.7
243.831	571.2
244.212	583.4
244.594	620.5
244.975	593.4
245.357	586.6
245.739	579.7
246.12	583.1
246.502	599.1
246.884	577.7
247.266	580.1
247.648	585.5
248.03	603.1
248.412	586.5
248.794	588.6
249.176	574.1
249.559	590.6
249.941	577.1
250.323	569.1
250.706	575.1
251.089	579.8
251.471	586.4
251.854	587.4
252.237	581.6
252.62	594.3
253.002	584.5
253.385	585.1
253.769	601.2
254.152	588.8
254.535	589.8
254.918	574.9
255.301	579.8
255.685	577.9
256.068	571.8
256.452	604
256.835	589.6
257.219	594
257.603	596.3
257.986	575.9
258.37	590.1
258.754	572.9
259.138	589.2
259.522	599.4
259.906	582.2
260.29	582.8
260.675	582.9
261.059	579.2
261.443	571.5
261.828	590
262.212	583.5
262.597	572.3
262.981	581.9
263.366	589.3
263.751	589.1
264.136	580
264.521	578.5
264.906	579.5
265.291	593.3
265.676	584.1
266.061	589
266.446	602.3
266.831	586.1
267.217	605.4
267.602	582.8
267.987	591.2
268.373	582.8
268.759	591.9
269.144	583.8
269.53	576.9
269.916	581.1
270.302	582.6
270.688	592.4
271.074	589
271.46	597.1
271.846	616.6
272.232	582.6
272.618	577.5
273.004	576.8
273.391	590.9
273.777	595.5
274.164	589.4
274.55	599.5
274.937	592.2
275.324	579
275.71	596.6
276.097	591.2
276.484	581
276.871	589.8
277.258	591.6
277.645	570.7
278.032	577
278.419	581
278.807	589.7
279.194	576.3
279.581	582.7
279.969	590.7
280.356	588.2
280.744	586.6
281.131	604.9
281.519	598.9
281.907	581.7
282.295	583.5
282.682	598.2
283.07	583.9
283.458	589.4
283.846	596.8
284.235	601.7
284.623	595.6
285.011	581.3
285.399	582
285.788	579.1
286.176	572.2
286.565	593.3
286.953	577.6
287.342	580.4
287.731	580.3
288.119	575.5
288.508	582.3
288.897	580.7
289.286	574.3
289.675	587.9
290.064	595.7
290.453	578
290.821	586.1
291.21	597.5
291.599	579
291.989	579.9
292.378	588.6
292.768	597.2
293.157	589.6
293.547	585
293.936	581.8
294.326	574.9
294.716	589.6
295.106	584.5
295.496	593
295.886	592.6
296.276	585.4
296.666	579.7
297.056	582.5
297.446	569.2
297.836	597.4
298.227	578.6
298.617	592
299.008	594.8
299.398	583.1
299.789	578
300.179	588.9
300.57	594.9
300.961	582.2
301.352	580.4
301.742	590.2
302.133	585
302.524	582.1
302.915	585.5
303.307	573.8
303.698	593.9
304.089	586.2
304.48	584.4
304.872	589.3
305.263	581.7
305.655	576.3
306.046	591.3
306.438	596.8
306.829	575.4
307.221	592
307.613	591.4
308.005	597
308.397	598.8
308.789	600
309.181	613.3
309.573	599.3
309.965	593.5
310.357	584.5
310.749	590
311.142	573.7
311.534	582.7
311.926	591.8
312.319	578.7
312.711	579.9
313.104	596.8
313.497	584.7
313.889	620
314.282	597.2
314.675	611.7
315.068	588.3
315.461	590.6
315.854	614.3
316.247	590.1
316.64	587
317.033	589.7
317.405	596.4
317.798	582.3
318.192	581.9
318.585	575.6
318.979	593.1
319.372	583.1
319.766	582.1
320.16	592.7
320.553	601.8
320.947	607.2
321.341	585
321.735	584.2
322.129	579
322.523	607.4
322.917	580.5
323.311	594.6
323.705	590.3
324.099	589.5
324.494	600.4
324.888	589.8
325.282	586.2
325.677	594.8
326.071	593.2
326.466	597.9
326.861	594.7
327.255	605.7
327.65	601.6
328.045	600.9
328.44	587.4
328.835	589.1
329.23	584.6
329.625	607.8
330.02	583.3
330.415	608.3
330.81	588.3
331.206	587.2
331.601	584.8
331.996	597.8
332.37	596.8
332.766	575.8
333.161	617.8
333.557	584.9
333.953	589
334.348	970.7
334.744	583.7
335.14	579.2
335.536	578.5
335.932	598.1
336.328	590.8
336.724	592.6
337.12	589.3
337.516	585.6
337.913	587.9
338.309	598.9
338.705	583.4
339.102	594.1
339.498	579.8
339.895	592.9
340.291	585.2
340.688	597
341.085	576
341.481	580.3
341.878	583.2
342.275	602.2
342.672	573.9
343.069	573.3
343.466	572.6
343.842	590.9
344.239	571
344.636	589.4
345.033	573
345.431	579.5
345.828	582.8
346.225	574.9
346.623	592.1
347.02	578.9
347.418	595.3
347.816	598.8
348.213	574.1
348.611	587.2
349.009	581.5
349.407	593.4
349.805	572.3
350.203	571.7
350.601	594.3
350.999	578.8
351.397	575.1
351.795	577.9
352.193	593.7
352.57	593.4
352.969	599.3
353.367	578.8
353.766	571.8
354.164	583.3
354.563	594
354.961	578.7
355.36	578.2
355.759	579.4
356.158	571.6
356.557	572.3
356.956	566.8
357.355	569.6
357.754	584.5
358.153	591.2
358.552	605.2
358.951	582.3
359.35	591.5
359.75	579.5
360.149	571.1
360.527	568.9
360.926	571
361.326	578.5
361.726	577.7
362.125	573
362.525	582.8
362.925	577.6
363.325	580.4
363.724	578
364.124	573.8
364.524	570.9
364.924	577.4
365.324	585.1
365.725	570.4
366.125	585
366.525	578.5
366.904	571.7
367.304	565.5
367.705	595.8
368.105	595.3
368.506	582.8
368.906	587.8
369.307	576.2
369.708	585.9
370.108	571.8
370.509	588
370.91	570.9
371.311	580.2
371.712	586
372.113	582.3
372.514	562.5
372.894	574.2
373.295	574.9
373.696	591
374.097	587
374.499	602.1
374.9	582
375.301	568.1
375.703	580.6
376.105	568.2
376.506	585.3
376.908	578.8
377.309	574.5
377.711	584.6
378.113	573.8
378.493	579.3
378.895	572.7
379.297	592.6
379.699	560.1
380.102	579.2
380.504	575.1
380.906	573.4
381.308	604
381.71	576.5
382.113	586.7
382.515	573.7
382.918	584.2
383.299	578.8
383.701	586.8
384.104	577.8
384.507	559.8
384.909	573.4
385.312	564.6
385.715	567
386.118	575.5
386.521	568.2
386.924	587.2
387.327	569.1
387.709	565.8
388.112	558.4
388.515	580.3
388.918	568.7
389.322	577.4
389.725	573.6
390.129	595.4
390.532	582
390.936	570.1
391.339	571.5
391.743	580.5
392.125	568.5
392.529	584.9
392.933	588.6
393.337	578.1
393.74	575.5
394.144	576.9
394.548	572.5
394.953	570.7
395.357	581.7
395.761	570.2
396.144	578.4
396.548	573.8
396.952	572.5
397.357	573.5
397.761	572.6
398.166	573.1
398.57	578.7
398.975	562.6
399.379	577.5
399.763	628.3
400.168	577.5
400.572	580.2
400.977	572.9
401.382	597.2
401.787	586.2
402.192	591.1
402.597	590.8
403.002	564.3
403.386	590.4
403.791	590.3
404.197	568.1
404.602	578.2
405.007	572.9
405.413	576.9
405.818	568.3
406.224	571.5
406.608	575.6
407.014	566.7
407.42	589.5
407.825	573.5
408.231	584.2
408.637	574.8
409.043	589
409.449	573.2
409.834	568.4
410.24	575.8
410.646	591.7
411.052	586.4
411.458	580.5
411.865	587.8
412.271	584.7
412.677	574.7
413.062	580.5
413.469	567.7
413.875	605.4
414.282	587.7
414.689	582.5
415.095	584.8
415.502	569
415.888	582.6
416.294	557.2
416.701	614.2
417.108	574.4
417.515	586
417.923	578
418.33	601.9
418.715	586.3
419.123	576.2
419.53	569.8
419.937	580.6
420.345	589.7
420.752	575.6
421.16	597
421.546	581.3
421.953	583.6
422.361	570.3
422.769	572.6
423.177	571.4
423.585	602.9
423.992	598.9
424.379	584.8
424.787	587.5
425.195	597.7
425.603	579.7
426.011	591
426.419	591.7
426.806	583
427.214	583.8
427.623	593.2
428.031	596.8
428.44	580.3
428.848	589.1
429.235	595.4
429.644	586
430.053	581
430.461	596.1
430.87	605.4
431.279	587.8
431.666	572.7
432.075	578.3
432.484	585.7
432.893	571.4
433.302	600
433.711	610.3
434.099	585.7
434.508	573.1
434.918	572.4
435.327	587.5
435.737	581
436.125	583
436.534	579.2
436.944	582.2
437.353	581.9
437.763	597.1
438.173	570.7
438.561	587.9
438.971	560.5
439.381	571.3
439.791	577.6
440.201	554.8
440.589	581.1
440.999	584.7
441.409	578.3
441.819	559.9
442.23	584.4
442.619	580.4
443.029	577.7
443.439	574.9
443.85	586.5
444.26	589.8
444.649	582.8
445.06	573.5
445.471	570.3
445.881	572.2
446.292	587.7
446.682	595.7
447.092	562.1
447.503	627
447.914	575.4
448.325	576.7
448.715	576.4
449.126	567.7
449.537	574.6
449.948	574.4
450.338	574.7
450.75	573.2
451.161	574.6
451.572	579.1
451.984	571.3
452.374	557.2
452.786	577.4
453.197	580
453.609	577.6
453.999	554.1
454.411	570.4
454.823	582.3
455.235	578.9
455.647	575.5
456.037	579.4
456.449	557.6
456.862	571.9
457.274	574.4
457.665	565
458.077	574.3
458.489	591.6
458.902	576.8
459.293	573.1
459.705	572.9
460.118	570.2
460.53	576.3
460.921	570.5
461.334	577.8
461.747	576
462.16	582.5
462.551	586
462.964	582.5
463.377	557.9
463.79	566.4
464.182	580.5
464.595	564.4
465.008	580.2
465.421	578.3
465.813	564.6
466.226	580.5
466.64	570.9
467.053	621.5
467.445	588.3
467.859	572.5
468.272	571.1
468.686	579.4
469.078	566.3
469.492	560.7
469.906	578.6
470.298	576.8
470.712	564
471.126	606.7
471.54	558.9
471.933	561.7
472.347	571.3
472.761	566.6
473.175	558.6
473.568	567.7
473.982	565.1
474.397	570.9
474.79	570.5
475.204	576.5
475.619	564.9
476.033	578.4
476.426	569.8
476.841	565.4
477.256	591.8
477.649	565.2
478.064	561.8
478.479	562.2
478.872	562.4
479.287	559.4
479.702	563.2
480.118	569
480.511	563.8
480.927	560.1
481.342	565
481.736	568.4
482.151	562.5
482.566	578.6
482.96	565.1
483.376	580.1
483.792	560.2
484.186	568.3
484.602	567.1
485.017	568.7
485.412	569.3
485.827	574.7
486.243	570
486.638	589.1
487.054	575.3
487.47	578.8
487.865	561.5
488.281	564.5
488.697	564.6
489.092	563.9
489.508	564.3
489.925	574.2
490.32	559.9
490.736	577.4
491.153	569.3
491.548	571.5
491.964	577.5
492.381	558
492.776	572.7
493.193	565.3
493.61	574.8
494.006	572.1
494.422	573.7
494.84	563.6
495.235	572.5
495.652	560.5
496.069	567.5
496.465	556.6
496.883	569
497.3	594.9
497.696	568.4
498.113	574.3
498.509	557.3
498.927	555.9
499.344	559.3
499.741	558.2
500.158	578.7
500.576	574.1
500.973	574
501.39	563
501.787	556.3
502.205	574.7
502.623	560.9
503.02	561.8
503.438	561.9
503.856	567.1
504.253	573.5
504.671	575
505.068	564.6
505.486	564.4
505.905	589.3
506.302	572.5
506.72	576.5
507.118	556.3
507.536	572.3
507.955	561.7
508.352	568
508.771	570.1
509.169	567.8
509.587	556.9
510.006	565.3
510.404	555.9
510.823	560.2
511.221	564.4
511.64	562.5
512.038	576
512.457	564.2
512.877	567.4
513.275	563.3
513.694	562.1
514.092	561.3
514.512	568.3
514.91	570
515.33	570.7
515.749	568.5
516.148	570.1
516.568	571.6
516.966	558.2
517.386	564.4
517.785	572
518.205	564.8
518.603	559.7
519.024	561.8
519.444	565
519.843	571.5
520.263	573
520.662	571.7
521.082	561.5
521.481	560.3
521.902	569.3
522.301	569.6
522.722	567.1
523.121	563
523.542	563.5
523.963	564
524.362	568.4
524.783	567.6
525.183	559.6
525.604	571.7
526.003	553.5
526.425	558.3
526.824	568
527.246	573.2
527.646	575.3
528.067	562.1
528.467	563.2
528.888	568.9
529.289	565.4
529.71	566.2
530.11	560.4
530.532	561.4
530.932	552.2
531.354	557
531.755	592.4
532.176	577.3
532.577	562.5
532.999	564.1
533.4	557.9
533.822	571
534.223	561
534.645	557.2
535.046	558.7
535.468	561.9
535.869	578.4
536.292	558.9
536.693	569.2
537.115	568.2
537.516	559
537.939	558.9
538.34	576.6
538.742	570.6
539.165	564.4
539.566	565.1
539.989	558.2
540.391	558.8
540.814	562.2
541.216	569.3
541.639	562.1
542.041	569.8
542.464	558.5
542.866	563
543.268	556
543.691	565.4
544.093	565.9
544.517	582.7
544.919	553.7
545.343	583.1
545.745	555.8
546.147	567.6
546.571	558.1
546.974	552.7
547.398	560.5
547.8	581.5
548.224	557.5
548.627	561.2
549.03	565.4
549.454	557.6
549.857	550.6
550.281	552.3
550.684	557.2
551.087	569.4
551.512	562.8
551.915	563.8
552.34	570
552.743	559.8
553.146	562
553.571	560.9
553.975	581.2
554.399	557.9
554.803	612.4
555.207	560.9
555.632	558.4
556.036	566.3
556.461	555.7
556.865	564
557.268	551.8
557.694	562.1
558.098	564.9
558.502	566.2
558.927	555.7
559.332	556
559.736	559.7
560.162	568.5
560.566	560.8
560.992	564.8
561.396	566.7
561.801	561.1
562.227	564.5
562.631	560.9
563.036	564.9
563.462	569.4
563.867	560.6
564.272	554
564.698	564.2
565.103	551.8
565.508	578.5
565.935	561.5
566.34	564.2
566.745	569.3
567.172	561.2
567.577	579.2
567.982	574.5
568.409	566.7
568.815	556
569.22	561.7
569.626	570.4
570.053	546.9
570.459	567.4
570.865	565.8
571.292	566.7
571.698	568.4
572.104	549.7
572.531	555.9
572.937	568
573.343	564.1
573.75	555.7
574.177	564.9
574.583	566.7
574.99	557
575.396	565.6
575.824	556.7
576.231	570
576.637	553.1
577.065	579.6
577.472	550.6
577.879	559.3
578.286	573
578.714	550.6
579.121	557.8
579.528	561.7
579.935	569
580.364	558.1
580.771	547.4
581.178	552.2
581.585	570.4
582.014	565.5
582.421	554.7
582.829	559
583.236	564.1
583.644	554.7
584.073	560.2
584.481	559
584.889	556.7
585.296	565.5
585.726	566.6
586.134	553.6
586.542	553.5
586.95	579.4
587.358	550.7
587.787	555.8
588.196	550.2
588.604	562.8
589.012	556.9
589.421	553.6
589.851	550.8
590.259	565.3
590.668	556.7
591.076	592.3
591.485	557.4
591.894	555.9
592.324	574.4
592.733	570.7
593.142	558.2
593.551	553.6
593.96	592.3
594.369	548.4
594.8	551.5
595.209	554.7
595.618	545.8
596.028	556.9
596.437	548.2
596.847	557.4
597.256	568.9
597.687	558.8
598.097	557.9
598.507	553.1
598.917	559.4
599.327	570.5
599.736	560.1
600.146	568.9
600.556	561.1
600.988	570.4
601.398	559.4
601.808	571.4
602.219	549
602.629	556.2
603.039	563.5
603.45	580.1
603.86	558.4
604.271	574.4
604.703	559.7
605.114	560.9
605.525	561.7
605.935	562
606.346	581.4
606.757	561.4
607.168	554.9
607.579	555.1
607.99	569.4
608.402	556.1
608.813	566.2
609.224	558.5
609.636	554.7
610.047	551.9
610.48	560.5
610.892	567.2
611.303	568.2
611.715	559.6
612.127	555.1
612.539	556
612.95	563.9
613.362	545.9
613.774	548.6
614.186	554.7
614.599	556.9
615.011	571.5
615.423	549.3
615.835	556.8
616.248	547.6
616.66	567.5
617.073	548
617.485	553.4
617.898	567
618.311	567.4
618.723	561.9
619.136	582.2
619.549	571.2
619.962	578.8
620.375	554.4
620.788	556.7
621.201	552.6
621.614	559.6
622.028	556.2
622.441	560.7
622.854	572.5
623.268	547
623.681	564.4
624.095	556.9
624.509	564
624.922	565.9
625.336	546.3
625.728	563.1
626.142	567
626.556	577.6
626.97	567.1
627.384	550.2
627.799	554
628.213	568.6
628.627	553.6
629.041	555.1
629.456	557.2
629.87	555.1
630.285	562
630.699	566
631.093	556.9
631.507	563.3
631.922	553.2
632.337	568.6
632.752	550.5
633.167	554.6
633.582	552.7
633.997	552.1
634.412	553.7
634.806	559.6
635.221	547.5
635.637	568.3
636.052	546.7
636.468	558.6
636.883	580.3
637.299	552.4
637.715	546
638.109	560.1
638.525	545.3
638.941	568.9
639.357	561.8
639.773	566.6
640.189	556.5
640.584	551.7
641	559.9
641.416	545.5
641.832	549.9
642.249	552.6
642.665	559
643.06	560
643.477	567.3
643.894	543.1
644.31	551
644.727	553
645.123	558.3
645.54	555.1
645.957	559.3
646.374	559.1
646.77	560.3
647.187	585.4
647.604	559.3
648.021	545.9
648.439	550.1
648.835	559.9
649.252	561.5
649.67	550.7
650.088	558.3
650.484	557.3
650.902	560.1
651.32	562.4
651.738	548.2
652.134	563.4
652.552	574.4
652.971	564.4
653.389	554
653.786	568.6
654.204	553.1
654.622	552.6
655.019	558.9
655.438	561.1
655.857	556.3
656.275	556.1
656.673	548.1
657.091	623.1
657.51	551.1
657.908	562
658.327	567.9
658.746	544.3
659.144	558.4
659.563	572.3
659.982	557.6
660.38	546.4
660.8	556.9
661.219	571.7
661.617	566.2
662.037	556.2
662.457	568.4
662.855	544.4
663.275	590
663.695	559.7
664.094	557.7
664.514	557.8
664.934	553.4
665.333	564.4
665.753	554.7
666.152	544.7
666.572	555.1
666.993	568.8
667.392	548.1
667.812	553.7
668.212	549.1
668.632	569
669.053	550
669.453	562.9
669.874	556.8
670.273	557.6
670.694	545
671.116	567.1
671.515	561.1
671.937	553.4
672.337	552.5
672.758	555
673.158	560.6
673.58	547.4
673.98	557.1
674.402	564.6
674.824	555
675.224	547.6
675.646	546.2
676.047	549
676.469	553.1
676.869	555.2
677.292	561.4
677.693	554.4
678.115	549.5
678.516	557.1
678.939	558.1
679.34	554.3
679.762	564.5
680.164	559.1
680.586	546.3
680.988	557.8
681.411	575.3
681.812	551.2
682.236	549
682.637	551
683.061	542.1
683.462	559.7
683.864	556.9
684.288	561
684.69	548.4
685.114	562.8
685.516	568.5
685.94	545.9
686.342	564.6
686.766	552.3
687.168	546.8
687.571	572
687.995	557.3
688.398	548.2
688.822	549.3
689.225	570
689.628	573.7
690.052	558.4
690.456	559.5
690.88	551.7
691.284	546.1
691.687	559.7
692.112	552
692.515	545.3
692.919	556.3
693.344	553.1
693.747	550.7
694.173	549.7
694.577	561.3
694.98	558
695.406	555.1
695.81	557.2
696.214	554.3
696.64	557.2
697.044	557.1
697.448	561.9
697.874	555.1
698.279	554.6
698.684	544
699.11	550.3
699.514	550.9
699.919	552.3
700.324	549.9
700.75	554.1
701.156	555
701.561	565.9
701.987	560.7
702.393	561.2
702.798	566.4
703.203	555.3
703.63	555.3
704.036	543.9
704.442	557.3
704.847	551.3
705.274	554.8
705.68	557.7
706.086	563.4
706.492	541.2
706.92	555.5
707.326	564.5
707.732	555.8
708.139	547.4
708.545	551.2
708.973	554.7
709.38	549.7
709.786	550.3
710.193	566
710.6	558.1
711.028	547.8
711.435	555.5
711.842	549.3
712.249	550.9
712.656	554.7
713.064	561.2
713.492	544.4
713.9	548.4
714.307	555.8
714.715	555.1
715.123	560.8
715.53	554.9
715.938	560.9
716.367	556.7
716.775	547.4
717.184	543.9
717.592	552
718	562.2
718.408	588.3
718.816	589.2
719.225	562.1
719.633	555.7
720.042	545.6
720.472	549.6
720.881	571.3
721.29	562.9
721.699	548.7
722.108	549.4
722.517	557.3
722.926	554.8
723.335	556.9
723.744	550.7
724.154	553.7
724.563	555.5
724.973	554.7
725.382	553.7
725.792	551.4
726.202	540.2
726.612	560.8
727.022	554.9
727.432	548
779.813	555.6
780.223	599.9
780.634	548.2
781.044	542.7
781.454	556.7
781.865	568.3
782.276	547.9
782.686	564.9
783.097	553.9
783.508	552
783.919	558.2
784.33	568.3
784.741	566.4
785.152	551
785.563	537.6
785.974	547.9
786.386	563.6
786.776	550
787.188	550.8
787.599	545.4
788.011	556.5
788.423	560.6
788.835	541
789.247	544.7
789.659	544.6
790.071	549.1
790.483	590.6
790.874	548.9
791.286	557.7
791.699	551
792.111	550.4
792.524	559
792.937	556.1
793.349	542.4
793.741	551.3
794.154	549.3
794.567	565.9
794.98	552.6
795.393	542.1
795.785	564.7
796.198	545.1
796.612	555.7
797.026	545.3
797.439	531.5
797.831	553.1
798.245	543.4
798.659	544.2
799.073	544.8
799.487	548.2
799.88	552.2
800.294	547.6
800.708	557
801.123	550.5
801.516	570.6
801.93	540
802.345	544.1
802.76	552.2
803.153	560.8
803.568	565.7
803.983	557.7
804.377	555.6
804.792	539.4
805.207	541
805.601	550.6
806.016	585.6
806.432	546.1
806.826	582.5
807.242	564.8
807.658	557.8
808.052	544.4
808.468	551.2
808.884	544
809.279	548.3
809.695	556
810.111	570.1
810.506	556
810.922	567
811.339	544.9
811.734	560.2
812.151	552.2
812.546	547.3
812.963	546.9
813.38	549
813.776	548.7
814.193	565.2
814.589	546
815.006	547.4
815.402	544.8
815.82	547.1
816.237	551.8
816.633	548.8
817.051	546.4
817.448	551.6
817.866	543.4
818.262	572.4
818.68	549.5
819.077	543.3
819.495	551.1
819.892	592.4
820.311	550.9
820.708	545.5
821.127	545.1
821.524	555
821.943	549.7
822.34	568.8
822.759	552.6
823.157	558
823.576	558.8
823.974	558.2
824.393	553.2
824.791	549.4
825.189	543.9
825.609	548.8
826.007	549.7
826.427	536.9
826.826	549.7
827.246	552.8
827.644	536.1
828.043	563.5
828.463	545.5
828.862	557.8
829.261	557.6
829.682	537.4
830.081	561.7
830.502	539.3
830.901	555.5
831.301	547.7
831.722	541.4
832.121	546.7
832.521	544.3
832.943	551.7
833.342	549.1
833.742	544.3
834.164	546.7
834.564	535.5
834.965	553.3
835.386	547.8
835.787	544.6
836.188	549.4
836.588	550.6
837.01	545
837.411	542.9
837.812	555.4
838.213	553.1
838.636	547.2
839.037	614.6
839.438	553.4
839.84	557.4
840.263	558
840.664	551.5
841.066	543.3
841.468	547.6
841.891	546.5
842.293	560.4
842.695	551.7
843.098	558.8
843.5	541.5
843.902	553
844.326	549.9
844.729	551
845.131	562.3
845.534	548.7
845.937	555
846.34	565.6
846.764	542
847.167	552
847.571	546.4
847.974	550.3
848.377	547.3
848.781	594.8
849.184	554.9
