#lambda/nm	C1
208.295	469
208.67	442.5
209.045	398.7
209.419	404.4
209.794	586.3
210.169	567.5
210.544	686.7
210.919	588.1
211.295	576.5
211.67	588
212.045	576.5
212.421	577.3
212.796	610.3
213.172	578.1
213.547	583.8
213.923	577.4
214.299	574.1
214.675	593.3
215.051	586.2
215.427	588.1
215.803	601.1
216.179	586.5
216.555	577
216.932	596.4
217.308	581.2
217.684	576.1
218.061	588.7
218.438	587.4
218.814	582.3
219.191	592.3
219.568	582.3
219.945	582.4
220.322	590.2
220.699	585.9
221.076	588.8
221.453	587.5
221.83	575.3
222.208	580.4
222.585	576.2
222.962	585.8
223.34	588.4
223.717	584.9
224.095	585.7
224.473	581.9
224.851	577.7
225.229	575.5
225.607	596.9
225.985	578.6
226.363	587.1
226.741	583.3
227.119	585
227.497	597.3
227.876	573.3
228.254	592.6
228.633	583.7
229.011	588.5
229.39	588.9
229.769	584.4
230.148	591.4
230.527	596.9
230.905	583.3
231.284	585.9
231.664	582.2
232.043	596
232.422	591.8
232.801	579.6
233.181	585.2
233.56	587.6
233.94	584.5
234.319	573.9
234.699	583.5
235.079	623.4
235.458	619.6
235.838	605.5
236.218	573.7
236.598	573.1
236.978	578.9
237.358	572.5
237.738	577.1
238.119	591
238.499	569.9
238.88	588.5
239.26	600.7
239.641	575.7
240.021	577.9
240.402	581.7
240.783	577.7
241.163	580.1
241.544	585.8
241.925	583.2
242.306	591.3
242.687	576.8
243.069	580.9
243.45	592.4
243.831	578.2
244.212	574.9
244.594	619.7
244.975	592.6
245.357	584.5
245.739	578.3
246.12	581.9
246.502	595.2
246.884	583.1
247.266	582.4
247.648	589.5
248.03	603.5
248.412	583.4
248.794	586.2
249.176	586.4
249.559	593.8
249.941	579.8
250.323	577.4
250.706	576.1
251.089	583.1
251.471	582.6
251.854	583.5
252.237	586.9
252.62	594.1
253.002	584.6
253.385	576.9
253.769	600.2
254.152	590.5
254.535	593
254.918	575.2
255.301	580.6
255.685	583.3
256.068	575.6
256.452	608.6
256.835	593.7
257.219	592.7
257.603	591.1
257.986	571.4
258.37	590.5
258.754	572.1
259.138	592.8
259.522	592.6
259.906	585.1
260.29	586.6
260.675	581.1
261.059	593.9
261.443	575.8
261.828	590.6
262.212	586.1
262.597	569.2
262.981	583.8
263.366	593.7
263.751	586.9
264.136	580
264.521	587.6
264.906	579.7
265.291	594.9
265.676	580.1
266.061	591.7
266.446	598.8
266.831	583.9
267.217	606.8
267.602	593.4
267.987	581.6
268.373	582.8
268.759	586.8
269.144	595.4
269.53	580.6
269.916	582.4
270.302	578
270.688	592.1
271.074	588.3
271.46	596.5
271.846	617.4
272.232	584.2
272.618	578.6
273.004	587.4
273.391	591
273.777	598.6
274.164	587.1
274.55	599.5
274.937	586.3
275.324	577
275.71	592.5
276.097	593.2
276.484	575.4
276.871	589.1
277.258	586.6
277.645	576.8
278.032	588.2
278.419	582.2
278.807	590.1
279.194	570.9
279.581	580.7
279.969	596.4
280.356	591.3
280.744	580.4
281.131	607.1
281.519	595.5
281.907	575.8
282.295	584.9
282.682	591.8
283.07	586.4
283.458	595
283.846	594.9
284.235	589.5
284.623	596.1
285.011	574.7
285.399	590
285.788	584.5
286.176	576.9
286.565	597.8
286.953	575.3
287.342	583.9
287.731	581.4
288.119	576.4
288.508	580.3
288.897	587.7
289.286	574.6
289.675	584.1
290.064	590.9
290.453	586.6
290.821	588.2
291.21	598.6
291.599	578.6
291.989	588.2
292.378	595.8
292.768	607.4
293.157	594.8
293.547	593.4
293.936	584.8
294.326	581.6
294.716	587.4
295.106	583.5
295.496	592.7
295.886	593.7
296.276	581.5
296.666	578.3
297.056	582.5
297.446	572.2
297.836	601.9
298.227	577.4
298.617	590.6
299.008	599.7
299.398	580.9
299.789	578.9
300.179	587.3
300.57	598.7
300.961	575.4
301.352	579.4
301.742	594.2
302.133	582.6
302.524	586.6
302.915	581.4
303.307	574.2
303.698	591.7
304.089	593.1
304.48	584.4
304.872	588.2
305.263	582
305.655	573.1
306.046	587.4
306.438	590.1
306.829	578
307.221	595.4
307.613	590
308.005	592.4
308.397	592.2
308.789	605.9
309.181	607.3
309.573	593.9
309.965	591.8
310.357	583.1
310.749	592.2
311.142	575.8
311.534	583.6
311.926	594.5
312.319	585.7
312.711	578.4
313.104	598.8
313.497	583.3
313.889	624.3
314.282	600.6
314.675	607.8
315.068	590
315.461	588.8
315.854	619.9
316.247	596.7
316.64	590.6
317.033	583.8
317.405	594.5
317.798	589.2
318.192	586
318.585	578.3
318.979	592.1
319.372	585.2
319.766	582.2
320.16	594.8
320.553	602.6
320.947	610.8
321.341	582.3
321.735	587.5
322.129	577.6
322.523	611.5
322.917	578.5
323.311	593.9
323.705	590.5
324.099	588.7
324.494	600.1
324.888	595.1
325.282	584.7
325.677	592.1
326.071	595.8
326.466	593.2
326.861	594.7
327.255	596
327.65	603.1
328.045	599.3
328.44	586.9
328.835	589.9
329.23	581.1
329.625	614.8
330.02	581.1
330.415	606.3
330.81	587.9
331.206	591
331.601	582.1
331.996	603.4
332.37	600.7
332.766	577.1
333.161	608.9
333.557	579.6
333.953	585.6
334.348	973.8
334.744	585.7
335.14	580.7
335.536	583.3
335.932	598
336.328	577.7
336.724	598.2
337.12	581.6
337.516	584.5
337.913	580.9
338.309	598.2
338.705	579.5
339.102	595.4
339.498	577
339.895	599.1
340.291	580.3
340.688	595.2
341.085	579.6
341.481	585.7
341.878	580.7
342.275	607.1
342.672	576.8
343.069	576.4
343.466	573.9
343.842	592
344.239	583.7
344.636	582.4
345.033	578.1
345.431	579.8
345.828	586.2
346.225	574.4
346.623	592.7
347.02	585.9
347.418	594
347.816	596.2
348.213	572.9
348.611	590
349.009	582.2
349.407	594.3
349.805	575.3
350.203	575.2
350.601	593.1
350.999	580.7
351.397	572.2
351.795	587.7
352.193	598.2
352.57	588.4
352.969	594.3
353.367	569.1
353.766	575.6
354.164	580.1
354.563	589.7
354.961	584.6
355.36	575.1
355.759	587.3
356.158	575.4
356.557	577
356.956	577.9
357.355	574.3
357.754	587.8
358.153	589.4
358.552	602.5
358.951	579.9
359.35	593.5
359.75	583.3
360.149	575.2
360.527	570
360.926	569.7
361.326	581.8
361.726	580.4
362.125	573.6
362.525	586.8
362.925	578.7
363.325	579.9
363.724	584
364.124	575.7
364.524	577.1
364.924	579.3
365.324	586.6
365.725	567.9
366.125	583
366.525	578.4
366.904	570.6
367.304	567.3
367.705	595.2
368.105	593
368.506	575.2
368.906	576.7
369.307	581.5
369.708	585.5
370.108	564
370.509	585.3
370.91	568.3
371.311	575.1
371.712	576.2
372.113	570.2
372.514	571.2
372.894	574.5
373.295	570.4
373.696	591.9
374.097	588.3
374.499	610.1
374.9	581.7
375.301	571.2
375.703	578.1
376.105	573.4
376.506	582
376.908	584.9
377.309	587.4
377.711	578.5
378.113	579.2
378.493	578.4
378.895	573.3
379.297	587.1
379.699	564.5
380.102	582.8
380.504	574.3
380.906	576.8
381.308	601.1
381.71	573.2
382.113	577.7
382.515	577.8
382.918	583.1
383.299	576.8
383.701	581.9
384.104	583.7
384.507	562.6
384.909	577
385.312	565.9
385.715	572.4
386.118	571.6
386.521	564.3
386.924	589.7
387.327	571.3
387.709	563.8
388.112	563.4
388.515	574.7
388.918	571.2
389.322	582.4
389.725	568.9
390.129	602.3
390.532	582.2
390.936	574.4
391.339	566
391.743	579.1
392.125	569.4
392.529	587.9
392.933	584.9
393.337	575.3
393.74	573.8
394.144	575.2
394.548	576.9
394.953	568
395.357	580.3
395.761	574.1
396.144	577.1
396.548	573.6
396.952	571.3
397.357	578.1
397.761	568.3
398.166	573.2
398.57	576.4
398.975	566.5
399.379	577.5
399.763	617.4
400.168	576.1
400.572	580.4
400.977	577.5
401.382	596.5
401.787	586.2
402.192	596.3
402.597	590.4
403.002	564.6
403.386	588.3
403.791	593.6
404.197	569.1
404.602	574.7
405.007	573
405.413	567.9
405.818	565.9
406.224	566.6
406.608	574.1
407.014	569.1
407.42	590.6
407.825	569.5
408.231	588.1
408.637	581.5
409.043	596.2
409.449	571.1
409.834	574.7
410.24	576.3
410.646	591.7
411.052	588.2
411.458	573.6
411.865	584
412.271	585.1
412.677	575.5
413.062	587.4
413.469	566.6
413.875	603.8
414.282	591
414.689	585.2
415.095	587.7
415.502	572.5
415.888	577.3
416.294	557.6
416.701	624.2
417.108	575.3
417.515	588.3
417.923	570.9
418.33	597.3
418.715	584.2
419.123	572.1
419.53	574.7
419.937	583.5
420.345	595.5
420.752	574.9
421.16	594.9
421.546	577.7
421.953	586.6
422.361	565.2
422.769	579.3
423.177	566.7
423.585	598.7
423.992	596.3
424.379	588.4
424.787	588.2
425.195	605.9
425.603	578.9
426.011	587.2
426.419	592.6
426.806	575.6
427.214	580
427.623	585.1
428.031	592.3
428.44	582.5
428.848	592.5
429.235	588.8
429.644	575.5
430.053	579.7
430.461	596.4
430.87	606.3
431.279	588.5
431.666	564.3
432.075	580.9
432.484	581.7
432.893	578.5
433.302	599.7
433.711	622.7
434.099	579.3
434.508	574.8
434.918	568.1
435.327	578.7
435.737	582.2
436.125	581.1
436.534	581.7
436.944	579.5
437.353	582.6
437.763	595.2
438.173	573.2
438.561	590.3
438.971	566.8
439.381	578.5
439.791	581
440.201	557.4
440.589	583.9
440.999	590.6
441.409	576.8
441.819	570.9
442.23	582.8
442.619	581.8
443.029	579.7
443.439	581
443.85	587.2
444.26	591.7
444.649	583.2
445.06	579.5
445.471	572.2
445.881	573.2
446.292	588.3
446.682	596.1
447.092	563.8
447.503	621.7
447.914	582.6
448.325	578.6
448.715	578.9
449.126	570.2
449.537	571.8
449.948	576.4
450.338	577.6
450.75	577.2
451.161	576.6
451.572	580.6
451.984	570.1
452.374	559.1
452.786	573
453.197	581.7
453.609	576.3
453.999	560.5
454.411	567.1
454.823	587.6
455.235	577.2
455.647	574.5
456.037	577.3
456.449	558.9
456.862	572.7
457.274	576.5
457.665	567.8
458.077	574.3
458.489	585
458.902	567.4
459.293	575.9
459.705	580.4
460.118	563.6
460.53	575.5
460.921	572.2
461.334	575
461.747	571.5
462.16	582.2
462.551	585.8
462.964	577.8
463.377	564.4
463.79	568.5
464.182	579.6
464.595	568.4
465.008	580.5
465.421	575.8
465.813	569.7
466.226	580.9
466.64	564.6
467.053	616.3
467.445	583.4
467.859	575.6
468.272	571.2
468.686	585.1
469.078	569
469.492	563.4
469.906	573.5
470.298	578.9
470.712	566.4
471.126	604.7
471.54	558.7
471.933	562.8
472.347	563.5
472.761	565.8
473.175	563.4
473.568	571
473.982	555
474.397	575.4
474.79	570.6
475.204	573.6
475.619	565.5
476.033	571.7
476.426	570.7
476.841	563.2
477.256	592.1
477.649	564.8
478.064	562.3
478.479	567.6
478.872	561.4
479.287	556.4
479.702	560
480.118	568.9
480.511	573.2
480.927	554.7
481.342	561.6
481.736	570.5
482.151	561.4
482.566	574.9
482.96	569.2
483.376	570.3
483.792	558.6
484.186	575.2
484.602	559.5
485.017	568.2
485.412	574.3
485.827	575.4
486.243	565.9
486.638	588.6
487.054	578.2
487.47	586
487.865	565.7
488.281	567.6
488.697	565.3
489.092	568.9
489.508	561.8
489.925	579
490.32	562.3
490.736	576
491.153	574.1
491.548	575.3
491.964	571.9
492.381	554.9
492.776	569.5
493.193	569.3
493.61	572.2
494.006	568.2
494.422	575.2
494.84	563.3
495.235	578.1
495.652	564.6
496.069	569.2
496.465	559.1
496.883	564.1
497.3	585.1
497.696	562.5
498.113	572.5
498.509	553.4
498.927	552.2
499.344	558
499.741	562.4
500.158	568
500.576	571.3
500.973	568.1
501.39	562.2
501.787	555.3
502.205	568.7
502.623	565.6
503.02	554.4
503.438	561.9
503.856	569.8
504.253	573.8
504.671	565.9
505.068	563.8
505.486	559.2
505.905	584.1
506.302	569.2
506.72	578.4
507.118	563.4
507.536	566.9
507.955	569.4
508.352	569.8
508.771	574.9
509.169	568.2
509.587	563.3
510.006	566.4
510.404	556.9
510.823	564.6
511.221	567.7
511.64	564.1
512.038	580
512.457	568.1
512.877	560.1
513.275	563.7
513.694	564.3
514.092	563.9
514.512	568.5
514.91	562.7
515.33	563.2
515.749	562.7
516.148	570.5
516.568	562
516.966	564.9
517.386	557.5
517.785	567.5
518.205	567.5
518.603	566.2
519.024	553
519.444	565.6
519.843	573.7
520.263	568.2
520.662	575.5
521.082	559.1
521.481	567.6
521.902	564.9
522.301	566.8
522.722	563.4
523.121	561.2
523.542	556.6
523.963	564
524.362	563.4
524.783	568.4
525.183	560
525.604	569.5
526.003	553.7
526.425	557.9
526.824	569.9
527.246	572.8
527.646	573.6
528.067	566.5
528.467	567.5
528.888	571.2
529.289	564.5
529.71	563.9
530.11	560.5
530.532	558.9
530.932	554.2
531.354	554.8
531.755	592.7
532.176	574
532.577	565.5
532.999	562.1
533.4	562.2
533.822	575.4
534.223	570.8
534.645	566.7
535.046	563.4
535.468	567.1
535.869	578.7
536.292	562.9
536.693	558.2
537.115	570.7
537.516	554
537.939	561.3
538.34	577.5
538.742	581.5
539.165	565.5
539.566	564.6
539.989	557.5
540.391	557.4
540.814	563.3
541.216	557
541.639	568.2
542.041	574.5
542.464	561.3
542.866	559.8
543.268	554.7
543.691	566
544.093	567.6
544.517	582.4
544.919	556
545.343	584
545.745	554.3
546.147	568.2
546.571	564.3
546.974	556.2
547.398	561.5
547.8	579.2
548.224	562.1
548.627	558.3
549.03	576.5
549.454	558.5
549.857	550.9
550.281	556.9
550.684	554.1
551.087	572.2
551.512	566.3
551.915	567.5
552.34	561.6
552.743	555.2
553.146	567.8
553.571	567
553.975	579.7
554.399	551.1
554.803	602.2
555.207	560.8
555.632	554.6
556.036	565.4
556.461	551.8
556.865	563.7
557.268	551.5
557.694	560.8
558.098	564.1
558.502	566
558.927	560.6
559.332	563.1
559.736	554.9
560.162	562.5
560.566	559.2
560.992	567
561.396	560.5
561.801	560.9
562.227	562.6
562.631	562.6
563.036	557.8
563.462	568.1
563.867	566.3
564.272	551.2
564.698	561.9
565.103	552.9
565.508	577.5
565.935	559.4
566.34	557.1
566.745	571
567.172	556.5
567.577	581
567.982	576.9
568.409	564.2
568.815	553.3
569.22	561.1
569.626	565.5
570.053	547.3
570.459	564.2
570.865	561.6
571.292	568.4
571.698	560.2
572.104	548.6
572.531	556.4
572.937	570.1
573.343	562.3
573.75	552.2
574.177	560.3
574.583	566.8
574.99	559.7
575.396	564.2
575.824	559.2
576.231	563.7
576.637	554.2
577.065	586.5
577.472	553.2
577.879	559.7
578.286	578.5
578.714	551.1
579.121	558.3
579.528	562.7
579.935	561.9
580.364	564.1
580.771	546.8
581.178	550.7
581.585	569.3
582.014	561
582.421	554
582.829	554.4
583.236	564.2
583.644	554.3
584.073	561.9
584.481	560.1
584.889	553.2
585.296	564.4
585.726	568
586.134	546
586.542	557.9
586.95	573.9
587.358	550.2
587.787	558.2
588.196	546.8
588.604	554.4
589.012	557.1
589.421	550
589.851	553.3
590.259	558.4
590.668	556.7
591.076	593.2
591.485	552.1
591.894	559.8
592.324	571.5
592.733	571.6
593.142	547.2
593.551	560.5
593.96	562.4
594.369	553
594.8	554.2
595.209	552.6
595.618	547
596.028	552.9
596.437	550.5
596.847	558.9
597.256	568
597.687	557.4
598.097	560.8
598.507	551
598.917	563
599.327	563.1
599.736	560.3
600.146	565.9
600.556	564.1
600.988	571.1
601.398	561
601.808	563.9
602.219	547.8
602.629	561
603.039	562.3
603.45	587.5
603.86	562.9
604.271	571.8
604.703	562.3
605.114	557.9
605.525	565.3
605.935	568.7
606.346	580.9
606.757	567.9
607.168	563.2
607.579	555.7
607.99	568.8
608.402	558.6
608.813	563.2
609.224	561
609.636	546.1
610.047	551.3
610.48	561.9
610.892	569.2
611.303	567
611.715	558.2
612.127	553
612.539	553.5
612.95	561.5
613.362	552.1
613.774	546.7
614.186	557.2
614.599	555.5
615.011	569.1
615.423	550.2
615.835	554.3
616.248	551.4
616.66	563.7
617.073	554.3
617.485	553.9
617.898	564.7
618.311	562.7
618.723	554.3
619.136	590.4
619.549	569.5
619.962	577.1
620.375	553
620.788	557.6
621.201	551.1
621.614	560.8
622.028	560.4
622.441	557.8
622.854	569.9
623.268	554.1
623.681	564.8
624.095	562.3
624.509	565.5
624.922	562.5
625.336	543.6
625.728	557.7
626.142	565.7
626.556	577.5
626.97	567.1
627.384	554.2
627.799	549.1
628.213	563.7
628.627	553.9
629.041	560.1
629.456	552.1
629.87	563.8
630.285	565.9
630.699	567.8
631.093	560.9
631.507	559.5
631.922	561.5
632.337	575.2
632.752	551.7
633.167	558.5
633.582	557.9
633.997	551.4
634.412	547.9
634.806	556.4
635.221	550.8
635.637	564.7
636.052	546.5
636.468	561.1
636.883	570.5
637.299	554.3
637.715	548.7
638.109	561.7
638.525	546.8
638.941	570.7
639.357	557.9
639.773	563.6
640.189	548.2
640.584	561.5
641	558.3
641.416	546.4
641.832	553.6
642.249	553.9
642.665	562
643.06	555.8
643.477	562
643.894	545.8
644.31	560.7
644.727	552
645.123	562.7
645.54	546.7
645.957	558.9
646.374	562
646.77	554.6
647.187	589.4
647.604	559.1
648.021	545.9
648.439	553.8
648.835	560.5
649.252	555.1
649.67	558
650.088	558.2
650.484	560.6
650.902	565.8
651.32	562.2
651.738	554.3
652.134	557
652.552	575.6
652.971	563.4
653.389	553
653.786	570.2
654.204	560.3
654.622	550.6
655.019	557
655.438	560.7
655.857	554.9
656.275	561.6
656.673	553.3
657.091	630.4
657.51	551.5
657.908	563.3
658.327	573
658.746	546
659.144	560.2
659.563	566.4
659.982	554.8
660.38	552.2
660.8	554.9
661.219	565.4
661.617	563.5
662.037	554.3
662.457	570.9
662.855	546.5
663.275	583.7
663.695	555.9
664.094	559.8
664.514	561
664.934	550.1
665.333	568.9
665.753	553.1
666.152	550.1
666.572	553.6
666.993	564.6
667.392	554.4
667.812	555.6
668.212	547.7
668.632	567.1
669.053	552.7
669.453	558.7
669.874	559
670.273	554.6
670.694	552.3
671.116	565.6
671.515	562.4
671.937	552.9
672.337	550.6
672.758	554.2
673.158	564
673.58	543.5
673.98	560.5
674.402	569.7
674.824	561.7
675.224	549.1
675.646	548.5
676.047	550.5
676.469	563.1
676.869	563.2
677.292	564.6
677.693	550.7
678.115	550.9
678.516	562.1
678.939	555.7
679.34	550.4
679.762	564
680.164	562.1
680.586	553.9
680.988	559.6
681.411	578.2
681.812	552.6
682.236	544.6
682.637	546.2
683.061	543.5
683.462	555.4
683.864	544.2
684.288	557.5
684.69	549.1
685.114	565.7
685.516	567.4
685.94	544.3
686.342	559.9
686.766	547.1
687.168	550.9
687.571	571.9
687.995	551.6
688.398	544.2
688.822	551.8
689.225	561.4
689.628	573.2
690.052	556
690.456	558.2
690.88	556
691.284	548.9
691.687	561.8
692.112	546.4
692.515	551.2
692.919	557.3
693.344	560.4
693.747	556.2
694.173	546.8
694.577	567.7
694.98	551.1
695.406	558
695.81	554.9
696.214	561.2
696.64	557.1
697.044	560.9
697.448	563.3
697.874	553.2
698.279	551.8
698.684	546.9
699.11	549.7
699.514	557.8
699.919	547.7
700.324	542
700.75	556.2
701.156	562.2
701.561	567
701.987	562.3
702.393	571.3
702.798	563
703.203	554.9
703.63	549.7
704.036	551.3
704.442	559
704.847	548.4
705.274	553.2
705.68	560.6
706.086	565.3
706.492	548.7
706.92	559.1
707.326	557.9
707.732	554.9
708.139	552.3
708.545	547.2
708.973	548.4
709.38	560.1
709.786	543.7
710.193	569.2
710.6	550.9
711.028	551.9
711.435	550.1
711.842	556.6
712.249	548.7
712.656	552.2
713.064	559.5
713.492	543.6
713.9	547.5
714.307	556.8
714.715	547
715.123	560
715.53	559.7
715.938	559.4
716.367	554.4
716.775	552.2
717.184	535.8
717.592	550.9
718	563.9
718.408	588.6
718.816	597.5
719.225	558.6
719.633	552.8
720.042	547.4
720.472	549.9
720.881	577.4
721.29	558.9
721.699	548.9
722.108	556.5
722.517	555.3
722.926	551.7
723.335	560.7
723.744	555
724.154	560.2
724.563	556.4
724.973	556.3
725.382	556.7
725.792	550.3
726.202	550.9
726.612	565.7
727.022	551.3
727.432	551.3
779.813	552.7
780.223	599
780.634	548.1
781.044	544.4
781.454	552.5
781.865	568.1
782.276	546
782.686	565.5
783.097	553.9
783.508	548.6
783.919	551.9
784.33	570.7
784.741	563.9
785.152	545.3
785.563	539.1
785.974	548.5
786.386	561.8
786.776	554.8
787.188	554
787.599	541.7
788.011	562.8
788.423	557.2
788.835	551
789.247	546.9
789.659	546.9
790.071	545
790.483	588.2
790.874	555.6
791.286	560.6
791.699	549.5
792.111	551.2
792.524	551.4
792.937	555.5
793.349	542.6
793.741	543.5
794.154	550.1
794.567	568
794.98	554.1
795.393	544.5
795.785	567.1
796.198	550.2
796.612	550.4
797.026	546.6
797.439	538.1
797.831	548.9
798.245	541.9
798.659	546.8
799.073	545.5
799.487	543.7
799.88	553.1
800.294	555.1
800.708	553.9
801.123	553.5
801.516	567
801.93	535.5
802.345	538.5
802.76	549.6
803.153	567.8
803.568	565.3
803.983	557.7
804.377	551.3
804.792	539.7
805.207	536.4
805.601	557.8
806.016	583.4
806.432	546
806.826	578.3
807.242	564.5
807.658	551.7
808.052	544.8
808.468	554.2
808.884	545
809.279	552
809.695	565.6
810.111	572.5
810.506	553.2
810.922	564.2
811.339	550.4
811.734	564.9
812.151	545.4
812.546	548.9
812.963	550.1
813.38	554.6
813.776	553.3
814.193	571.6
814.589	548.2
815.006	551.7
815.402	550.1
815.82	548.2
816.237	554.6
816.633	557.5
817.051	543.4
817.448	549.9
817.866	542.3
818.262	574.3
818.68	550.9
819.077	546.1
819.495	551.8
819.892	588.8
820.311	546.2
820.708	550.6
821.127	547.7
821.524	558.9
821.943	553
822.34	567.4
822.759	553.3
823.157	551
823.576	560.3
823.974	556.8
824.393	556.7
824.791	550
825.189	546.5
825.609	544.2
826.007	547.5
826.427	535.5
826.826	545.5
827.246	548.1
827.644	538.5
828.043	554.8
828.463	546.8
828.862	555
829.261	553.2
829.682	536.3
830.081	557.3
830.502	545.7
830.901	555.1
831.301	543.3
831.722	541.1
832.121	545.2
832.521	543.9
832.943	550.5
833.342	545.7
833.742	542.8
834.164	546.7
834.564	538.4
834.965	546.3
835.386	544.7
835.787	549.9
836.188	549.3
836.588	549.5
837.01	546.4
837.411	544.5
837.812	557.3
838.213	554.4
838.636	547.1
839.037	612.8
839.438	549.6
839.84	549.8
840.263	551.8
840.664	553.9
841.066	547
841.468	550.2
841.891	544.3
842.293	563
842.695	557.4
843.098	555.4
843.5	547.1
843.902	555.6
844.326	551.4
844.729	552.6
845.131	560.4
845.534	550.4
845.937	566.3
846.34	567.9
846.764	550.7
