#lambda/nm	C1
208.295	473.2
208.67	439.1
209.045	401
209.419	406.6
209.794	581.2
210.169	564.8
210.544	682.2
210.919	581.3
211.295	568.7
211.67	575.5
212.045	574.7
212.421	575.1
212.796	612.1
213.172	568.5
213.547	567.6
213.923	574.9
214.299	574.2
214.675	581.4
215.051	579.2
215.427	581.7
215.803	594
216.179	579.7
216.555	568.6
216.932	584.5
217.308	571.5
217.684	578.3
218.061	584.5
218.438	578.1
218.814	577.4
219.191	582.1
219.568	565.7
219.945	566.7
220.322	582
220.699	581.5
221.076	583.1
221.453	579.3
221.83	569.4
222.208	575.2
222.585	572
222.962	581.7
223.34	577.1
223.717	575.6
224.095	574.9
224.473	583.8
224.851	576.6
225.229	571.4
225.607	592.6
225.985	569.3
226.363	577.6
226.741	582.6
227.119	572.3
227.497	590
227.876	563.6
228.254	585.6
228.633	585.9
229.011	574
229.39	581.8
229.769	579.4
230.148	584.7
230.527	594.4
230.905	574.8
231.284	584.6
231.664	570.6
232.043	587.5
232.422	585.3
232.801	572.9
233.181	587
233.56	572.5
233.94	573.9
234.319	563.8
234.699	571.7
235.079	614.8
235.458	617.7
235.838	595.4
236.218	567.4
236.598	569.5
236.978	568.8
237.358	571.5
237.738	573
238.119	574.5
238.499	567.8
238.88	578.3
239.26	591.7
239.641	559.9
240.021	576.4
240.402	576.8
240.783	573.4
241.163	572.7
241.544	577.2
241.925	580.6
242.306	587
242.687	568.3
243.069	577.3
243.45	583.8
243.831	574.6
244.212	566.4
244.594	612.4
244.975	578.6
245.357	582.1
245.739	568.3
246.12	579
246.502	585.8
246.884	576.2
247.266	571.5
247.648	576.3
248.03	596.2
248.412	574.3
248.794	580.2
249.176	576.1
249.559	584.9
249.941	572.2
250.323	566.2
250.706	569.9
251.089	572.5
251.471	581.7
251.854	574.8
252.237	571.4
252.62	585.8
253.002	573.3
253.385	574.8
253.769	589.5
254.152	581.7
254.535	581.2
254.918	569
255.301	566.8
255.685	576.8
256.068	567.7
256.452	601
256.835	581.1
257.219	585.2
257.603	586.6
257.986	564.1
258.37	577
258.754	563.9
259.138	582.5
259.522	589.1
259.906	575
260.29	579.6
260.675	571.9
261.059	583.6
261.443	571.7
261.828	579
262.212	584.3
262.597	563.1
262.981	570.2
263.366	586.4
263.751	575.8
264.136	576.6
264.521	571.6
264.906	571.3
265.291	587.3
265.676	576.4
266.061	585.3
266.446	591.4
266.831	581.7
267.217	594.8
267.602	579.4
267.987	576.1
268.373	568.3
268.759	584.8
269.144	579.2
269.53	576.8
269.916	573.3
270.302	575.5
270.688	578.6
271.074	584.6
271.46	588.1
271.846	604.4
272.232	574.4
272.618	574.8
273.004	579.6
273.391	584.9
273.777	586.5
274.164	579.4
274.55	591.4
274.937	579
275.324	574.3
275.71	585.3
276.097	585.8
276.484	571.1
276.871	581.4
277.258	585.4
277.645	565.7
278.032	574.4
278.419	579.3
278.807	579.9
279.194	569
279.581	568.1
279.969	580.7
280.356	578.4
280.744	581.9
281.131	602
281.519	586.8
281.907	570.7
282.295	573.1
282.682	590.9
283.07	587
283.458	592.1
283.846	589.5
284.235	586.2
284.623	585
285.011	566.3
285.399	579.7
285.788	577
286.176	567.1
286.565	584.2
286.953	569.5
287.342	573.7
287.731	569.6
288.119	576.6
288.508	574.3
288.897	573.5
289.286	560.4
289.675	577.9
290.064	585.3
290.453	574.1
290.821	577
291.21	594.3
291.599	573.5
291.989	576.7
292.378	587.2
292.768	599.6
293.157	579.2
293.547	585.8
293.936	572.6
294.326	573.4
294.716	584.7
295.106	579.1
295.496	588.5
295.886	588.1
296.276	577.3
296.666	570.8
297.056	578.9
297.446	571.7
297.836	593.3
298.227	574.8
298.617	584.4
299.008	585.9
299.398	573.8
299.789	569.3
300.179	576.2
300.57	589.2
300.961	568.2
301.352	573.3
301.742	586.8
302.133	579.4
302.524	576
302.915	575.8
303.307	569.7
303.698	588.5
304.089	581.7
304.48	580.1
304.872	585.5
305.263	579.2
305.655	570.2
306.046	582.7
306.438	581.3
306.829	577.1
307.221	586.4
307.613	584.1
308.005	586.1
308.397	593.3
308.789	600.9
309.181	604.6
309.573	592.2
309.965	591.1
310.357	576.1
310.749	584.2
311.142	568.6
311.534	572.3
311.926	587.7
312.319	579
312.711	572
313.104	588.8
313.497	575.2
313.889	612.3
314.282	597.8
314.675	600.6
315.068	580.2
315.461	586.3
315.854	611.4
316.247	585.5
316.64	579.6
317.033	582
317.405	588.9
317.798	580.1
318.192	586.4
318.585	577.7
318.979	580.9
319.372	578
319.766	578.6
320.16	584.4
320.553	593.4
320.947	599.2
321.341	573.3
321.735	581.6
322.129	565.7
322.523	600.2
322.917	573.9
323.311	585.3
323.705	582.9
324.099	586.1
324.494	596.2
324.888	589.6
325.282	583.7
325.677	583.1
326.071	583.4
326.466	587.8
326.861	584.4
327.255	594.1
327.65	596.8
328.045	600.3
328.44	582.3
328.835	585.4
329.23	571.5
329.625	596.2
330.02	578.6
330.415	597.7
330.81	578.7
331.206	582.3
331.601	575.9
331.996	588.1
332.37	592.1
332.766	568.8
333.161	600.3
333.557	571.9
333.953	575.5
334.348	940.2
334.744	576.1
335.14	571.1
335.536	569.3
335.932	587.5
336.328	575.5
336.724	580.2
337.12	574.3
337.516	586
337.913	584.1
338.309	596.2
338.705	579.4
339.102	582.9
339.498	571.3
339.895	598.1
340.291	569.6
340.688	588.4
341.085	569.6
341.481	580.2
341.878	574.4
342.275	595.3
342.672	570.1
343.069	566.2
343.466	568
343.842	587.2
344.239	568.9
344.636	574.6
345.033	572
345.431	576.2
345.828	586.3
346.225	572.3
346.623	580.3
347.02	578.1
347.418	589.4
347.816	593.4
348.213	571.2
348.611	581.3
349.009	570.4
349.407	588.8
349.805	563.1
350.203	562.7
350.601	587.2
350.999	574.6
351.397	568.6
351.795	576.8
352.193	586.1
352.57	588.6
352.969	585.2
353.367	575.6
353.766	570.1
354.164	571.9
354.563	585.1
354.961	573
355.36	571.9
355.759	579.2
356.158	569.6
356.557	569
356.956	561.2
357.355	567.8
357.754	580.3
358.153	583
358.552	601.8
358.951	570.7
359.35	586
359.75	570.9
360.149	568.5
360.527	563.4
360.926	568.6
361.326	568.5
361.726	573.1
362.125	565.5
362.525	581.3
362.925	564.6
363.325	573.3
363.724	573.8
364.124	570.8
364.524	564
364.924	570.2
365.324	580.6
365.725	556.5
366.125	570.8
366.525	568.2
366.904	564
367.304	556.8
367.705	584.5
368.105	588.3
368.506	570.2
368.906	574.4
369.307	571.2
369.708	571.5
370.108	562.7
370.509	571.2
370.91	563.7
371.311	578.4
371.712	572.6
372.113	568.1
372.514	563.7
372.894	568.7
373.295	565.9
373.696	580.7
374.097	579.9
374.499	597.5
374.9	570.5
375.301	562.9
375.703	574.5
376.105	565.7
376.506	571.5
376.908	575.3
377.309	568.4
377.711	570.6
378.113	569.3
378.493	573.1
378.895	567.1
379.297	575.8
379.699	559.3
380.102	574.3
380.504	568.2
380.906	562.9
381.308	592
381.71	570.1
382.113	577.4
382.515	571
382.918	582.7
383.299	570.8
383.701	583.2
384.104	572.7
384.507	555
384.909	570.4
385.312	560
385.715	561
386.118	571
386.521	557.3
386.924	581.7
387.327	562.3
387.709	557.8
388.112	557.9
388.515	570.9
388.918	564
389.322	580.2
389.725	568
390.129	596.1
390.532	576.8
390.936	572.1
391.339	566
391.743	573.4
392.125	560.8
392.529	578.8
392.933	576.9
393.337	569.9
393.74	571.8
394.144	575
394.548	559.1
394.953	563.7
395.357	576.1
395.761	564.9
396.144	565.8
396.548	561
396.952	569.2
397.357	565.7
397.761	560.2
398.166	566
398.57	564.9
398.975	560.2
399.379	573.9
399.763	611.5
400.168	569
400.572	571.2
400.977	567.5
401.382	588.6
401.787	581.6
402.192	583.7
402.597	586.4
403.002	560.7
403.386	584.6
403.791	583.4
404.197	569.3
404.602	572.5
405.007	568.3
405.413	565.8
405.818	567.5
406.224	562.4
406.608	568.1
407.014	564.2
407.42	587.7
407.825	570.2
408.231	576.3
408.637	571
409.043	583
409.449	562.9
409.834	567.8
410.24	571
410.646	575.4
411.052	582.6
411.458	573.5
411.865	576.4
412.271	581.5
412.677	571.1
413.062	575.4
413.469	562.2
413.875	600.8
414.282	580.6
414.689	572.6
415.095	576.1
415.502	567.6
415.888	572.3
416.294	558.6
416.701	614.1
417.108	563.8
417.515	579
417.923	568.4
418.33	585.6
418.715	579.9
419.123	568.8
419.53	569.4
419.937	573.6
420.345	585.5
420.752	572.1
421.16	585.7
421.546	571.9
421.953	573.6
422.361	565.8
422.769	571.1
423.177	569.5
423.585	599.3
423.992	590.1
424.379	583
424.787	577.8
425.195	587.3
425.603	568.6
426.011	576.9
426.419	583.3
426.806	573.5
427.214	578.6
427.623	585.6
428.031	587.7
428.44	576.2
428.848	577.8
429.235	588.2
429.644	571.7
430.053	570.3
430.461	583.6
430.87	594.7
431.279	579.8
431.666	565.6
432.075	574.8
432.484	575.3
432.893	572.2
433.302	593.6
433.711	614.3
434.099	573
434.508	565.8
434.918	559.7
435.327	575.2
435.737	574.3
436.125	569.2
436.534	568.3
436.944	578.3
437.353	576.2
437.763	588.8
438.173	565.6
438.561	584.9
438.971	551.4
439.381	570.8
439.791	573.5
440.201	550.4
440.589	570.5
440.999	575.4
441.409	571.5
441.819	557.2
442.23	579.2
442.619	574.7
443.029	566.5
443.439	571.5
443.85	579.4
444.26	581
444.649	577.7
445.06	574.3
445.471	565.2
445.881	570.7
446.292	585
446.682	594
447.092	556.5
447.503	614.4
447.914	571.7
448.325	572.5
448.715	567.4
449.126	562.7
449.537	563
449.948	567.6
450.338	567.2
450.75	570.2
451.161	573.8
451.572	573.2
451.984	560.1
452.374	552.1
452.786	567.9
453.197	571.1
453.609	573
453.999	552.5
454.411	563.2
454.823	576.8
455.235	568.4
455.647	564.5
456.037	568.5
456.449	557
456.862	569.3
457.274	571
457.665	551.6
458.077	574.1
458.489	572.4
458.902	563.8
459.293	567.9
459.705	566.4
460.118	554.2
460.53	566.6
460.921	566.1
461.334	571.2
461.747	564.1
462.16	584.7
462.551	584.5
462.964	581.1
463.377	549.6
463.79	563.6
464.182	574
464.595	558.4
465.008	570.5
465.421	569.3
465.813	565
466.226	567.5
466.64	560.7
467.053	602
467.445	574.5
467.859	567.8
468.272	566.5
468.686	569.5
469.078	566.1
469.492	547.9
469.906	570.1
470.298	571.7
470.712	557.6
471.126	596.9
471.54	558.2
471.933	559.1
472.347	561.8
472.761	555.8
473.175	552.5
473.568	563
473.982	554.5
474.397	561.3
474.79	568.5
475.204	572.3
475.619	561.1
476.033	567.4
476.426	569.3
476.841	559
477.256	589.1
477.649	558.4
478.064	556
478.479	555.6
478.872	554.4
479.287	548.6
479.702	557.6
480.118	564.4
480.511	564.4
480.927	553.5
481.342	562.7
481.736	565.8
482.151	560.3
482.566	567.5
482.96	559.3
483.376	575.1
483.792	559.4
484.186	565.8
484.602	558.2
485.017	561
485.412	564.5
485.827	566.2
486.243	562
486.638	584.6
487.054	572.8
487.47	581.8
487.865	558.4
488.281	556.1
488.697	556.3
489.092	555.7
489.508	552.1
489.925	567.6
490.32	549.5
490.736	560.8
491.153	558.4
491.548	560.3
491.964	570.2
492.381	546.2
492.776	566.4
493.193	557.4
493.61	563.8
494.006	560.6
494.422	560.9
494.84	554
495.235	562.1
495.652	563.8
496.069	557.6
496.465	551.7
496.883	558.6
497.3	586
497.696	555.5
498.113	563.3
498.509	543.7
498.927	551
499.344	554.2
499.741	553.6
500.158	567.5
500.576	572
500.973	564.9
501.39	554.2
501.787	557.4
502.205	563.8
502.623	561.2
503.02	555.5
503.438	553.7
503.856	560.8
504.253	562.6
504.671	558.6
505.068	555.4
505.486	556.2
505.905	580.7
506.302	565
506.72	568.9
507.118	555
507.536	560.9
507.955	557.1
508.352	563.9
508.771	570.1
509.169	564.1
509.587	555.9
510.006	556.4
510.404	550.7
510.823	552.7
511.221	557.7
511.64	552.6
512.038	575.3
512.457	558.2
512.877	562.4
513.275	556.4
513.694	558.4
514.092	558.8
514.512	562.9
514.91	552.7
515.33	557.6
515.749	562.4
516.148	561.8
516.568	562.7
516.966	560.2
517.386	553.6
517.785	559.1
518.205	558.3
518.603	552.4
519.024	551.2
519.444	556.4
519.843	567.8
520.263	565.1
520.662	565.8
521.082	561.6
521.481	561.4
521.902	557.8
522.301	559
522.722	565.1
523.121	554.6
523.542	561.4
523.963	555.4
524.362	560.8
524.783	559.2
525.183	553.7
525.604	560.4
526.003	546.3
526.425	551.6
526.824	561.1
527.246	566.2
527.646	568.5
528.067	556.1
528.467	557.6
528.888	564.3
529.289	559.8
529.71	555
530.11	551.7
530.532	550.3
530.932	551.7
531.354	552.2
531.755	585.2
532.176	565.3
532.577	559.7
532.999	558.3
533.4	549.8
533.822	562.2
534.223	559.1
534.645	561
535.046	556
535.468	562
535.869	567.6
536.292	549.9
536.693	550.2
537.115	554.2
537.516	557.9
537.939	553.2
538.34	573.7
538.742	571.9
539.165	559.8
539.566	555.3
539.989	551.9
540.391	555.8
540.814	555.1
541.216	562.7
541.639	555.7
542.041	563.8
542.464	551.2
542.866	545.9
543.268	550.6
543.691	558.5
544.093	561.7
544.517	578.5
544.919	547.6
545.343	584
545.745	548.4
546.147	556.4
546.571	555.6
546.974	553.4
547.398	552.5
547.8	574.2
548.224	550.9
548.627	548.9
549.03	565.6
549.454	553.1
549.857	552.7
550.281	551.2
550.684	551.3
551.087	564
551.512	567
551.915	555.2
552.34	557.7
552.743	547.5
553.146	556.5
553.571	553.5
553.975	574.8
554.399	560.3
554.803	606.5
555.207	546.2
555.632	555.9
556.036	557.8
556.461	548.4
556.865	553.1
557.268	549
557.694	550.2
558.098	558.5
558.502	557.1
558.927	550.1
559.332	552
559.736	552.2
560.162	555.3
560.566	555.3
560.992	558.2
561.396	556.7
561.801	553.3
562.227	558.6
562.631	555.4
563.036	557.3
563.462	558.9
563.867	562
564.272	542.3
564.698	561.3
565.103	548.1
565.508	570.5
565.935	560.1
566.34	556.3
566.745	568.6
567.172	556.4
567.577	574.5
567.982	568.6
568.409	557.5
568.815	544.6
569.22	552.2
569.626	560.2
570.053	542.7
570.459	560.7
570.865	562.6
571.292	561.6
571.698	559
572.104	542.7
572.531	555.7
572.937	566.3
573.343	552.1
573.75	556.4
574.177	561.9
574.583	566.2
574.99	553.9
575.396	563.8
575.824	553.3
576.231	563.5
576.637	550.7
577.065	580.6
577.472	549.4
577.879	558.4
578.286	566.5
578.714	545.4
579.121	555.1
579.528	557.7
579.935	567.8
580.364	554
580.771	542.6
581.178	546.2
581.585	559.5
582.014	558.5
582.421	553.1
582.829	553.1
583.236	561.6
583.644	548.5
584.073	549.5
584.481	553.6
584.889	553.2
585.296	558.3
585.726	551.3
586.134	543.8
586.542	549.2
586.95	567.8
587.358	539
587.787	554.6
588.196	545.6
588.604	552.9
589.012	547.1
589.421	547.1
589.851	551.5
590.259	553.4
590.668	553.7
591.076	584.7
591.485	551.4
591.894	551
592.324	570.6
592.733	566.6
593.142	537.2
593.551	552.1
593.96	582.5
594.369	541.6
594.8	540.3
595.209	551.4
595.618	542.6
596.028	547.1
596.437	548.2
596.847	557.2
597.256	553.7
597.687	549.3
598.097	556.2
598.507	542.7
598.917	554
599.327	559.3
599.736	555.6
600.146	566.1
600.556	556.1
600.988	561.6
601.398	549.1
601.808	568.1
602.219	544.9
602.629	555.1
603.039	558.2
603.45	578.1
603.86	553.8
604.271	566.2
604.703	558.4
605.114	553.5
605.525	556.8
605.935	561.3
606.346	572.3
606.757	559.3
607.168	553.2
607.579	548.2
607.99	564
608.402	557.7
608.813	561.9
609.224	550.9
609.636	544.2
610.047	544.3
610.48	553.6
610.892	564
611.303	562.4
611.715	547.5
612.127	548.8
612.539	557.2
612.95	547.2
613.362	545.1
613.774	545.8
614.186	548.4
614.599	549
615.011	555
615.423	543.5
615.835	548.1
616.248	542
616.66	560.5
617.073	546.1
617.485	543.7
617.898	560
618.311	551.5
618.723	546.6
619.136	575
619.549	562.1
619.962	579.9
620.375	545
620.788	555
621.201	545.4
621.614	557.8
622.028	545.9
622.441	553.4
622.854	564.4
623.268	544
623.681	550.8
624.095	550.4
624.509	554.5
624.922	562.3
625.336	541.8
625.728	552.6
626.142	560.6
626.556	562
626.97	558.2
627.384	544.3
627.799	547.2
628.213	559.4
628.627	547.3
629.041	551.1
629.456	551.7
629.87	554.8
630.285	559.6
630.699	561.4
631.093	551.9
631.507	550.9
631.922	557.9
632.337	567.8
632.752	548.2
633.167	549.8
633.582	547.4
633.997	547.3
634.412	553.3
634.806	549.3
635.221	546.3
635.637	560.9
636.052	543.4
636.468	552.1
636.883	569
637.299	549.9
637.715	537.3
638.109	549.8
638.525	536.8
638.941	567.3
639.357	550.4
639.773	562.4
640.189	546.2
640.584	553.6
641	557
641.416	541.5
641.832	547.7
642.249	553
642.665	551.1
643.06	557.2
643.477	555.8
643.894	542.1
644.31	550.2
644.727	548
645.123	552.9
645.54	547.5
645.957	557.1
646.374	557.7
646.77	548
647.187	574.8
647.604	545.3
648.021	537.5
648.439	542.9
648.835	549.4
649.252	551.5
649.67	541.6
650.088	548.1
650.484	555.6
650.902	547
651.32	559.1
651.738	545.7
652.134	550.2
652.552	562.8
652.971	563.1
653.389	548.2
653.786	566.9
654.204	552.8
654.622	541.1
655.019	547.2
655.438	548.1
655.857	549.7
656.275	551.6
656.673	544.7
657.091	614.1
657.51	546.2
657.908	560.1
658.327	559
658.746	542.4
659.144	548.7
659.563	564.6
659.982	549.1
660.38	547.3
660.8	552.6
661.219	554
661.617	554.9
662.037	546.8
662.457	564.1
662.855	541.4
663.275	574.5
663.695	554.2
664.094	551.9
664.514	551.5
664.934	548.7
665.333	554.9
665.753	546
666.152	543.8
666.572	539.3
666.993	557.4
667.392	545.8
667.812	548
668.212	542.7
668.632	556.7
669.053	545.1
669.453	558.6
669.874	550.2
670.273	549
670.694	539.7
671.116	562.7
671.515	566.8
671.937	546.6
672.337	541
672.758	544.5
673.158	562
673.58	543.8
673.98	552.1
674.402	568.1
674.824	548.2
675.224	549.8
675.646	544.8
676.047	547.6
676.469	556.1
676.869	558.5
677.292	552.3
677.693	544.3
678.115	545.8
678.516	553.8
678.939	556.5
679.34	550
679.762	558.4
680.164	554.1
680.586	542.2
680.988	549.3
681.411	570.4
681.812	544.8
682.236	543.2
682.637	533.3
683.061	539.5
683.462	548.6
683.864	551
684.288	550.9
684.69	537.9
685.114	554.9
685.516	561.2
685.94	540.3
686.342	553.4
686.766	546.7
687.168	543.1
687.571	564
687.995	548
688.398	541.1
688.822	546.7
689.225	568.7
689.628	563.1
690.052	547.7
690.456	560.7
690.88	548.7
691.284	536.3
691.687	552.1
692.112	544.3
692.515	540.8
692.919	551.9
693.344	554.2
693.747	547.2
694.173	540.9
694.577	559.9
694.98	549.8
695.406	547.3
695.81	550.4
696.214	555.7
696.64	552.4
697.044	556
697.448	560.5
697.874	547.2
698.279	554.1
698.684	539.4
699.11	543.8
699.514	548.1
699.919	550.9
700.324	544.4
700.75	550.9
701.156	549.1
701.561	558.4
701.987	557.9
702.393	560.4
702.798	561.2
703.203	549.6
703.63	547.1
704.036	547.8
704.442	553.8
704.847	543.5
705.274	549.4
705.68	552.3
706.086	557.8
706.492	542.7
706.92	541
707.326	558.1
707.732	544.7
708.139	545.3
708.545	542
708.973	539.9
709.38	551.7
709.786	537.2
710.193	565.1
710.6	543.2
711.028	543.8
711.435	549.3
711.842	546.8
712.249	544.5
712.656	550.3
713.064	550
713.492	538.2
713.9	547.5
714.307	552.2
714.715	546.7
715.123	549.2
715.53	553.1
715.938	551.5
716.367	548.5
716.775	543.8
717.184	539.4
717.592	544.8
718	556.8
718.408	580.5
718.816	587.8
719.225	549.3
719.633	546.2
720.042	542.6
720.472	544.8
720.881	565
721.29	551.2
721.699	539.4
722.108	546.5
722.517	551.9
722.926	543.2
723.335	556.5
723.744	546.4
724.154	548
724.563	545.7
724.973	545.3
725.382	550.2
725.792	543.5
726.202	546
726.612	558.9
727.022	543.1
727.432	540.1
779.813	543.5
780.223	588.3
780.634	539.9
781.044	542.7
781.454	547.3
781.865	555.1
782.276	535.1
782.686	558.7
783.097	547.2
783.508	544.6
783.919	545.2
784.33	555.1
784.741	556.7
785.152	545.8
785.563	534.7
785.974	539.6
786.386	556.8
786.776	547.1
787.188	547.3
787.599	541.6
788.011	554.4
788.423	553.9
788.835	545.8
789.247	531.8
789.659	540.8
790.071	539.4
790.483	580.5
790.874	547.8
791.286	552.4
791.699	544
792.111	552.2
792.524	546.9
792.937	549.5
793.349	535.8
793.741	535.3
794.154	545.7
794.567	559.8
794.98	547.3
795.393	535.5
795.785	557.5
796.198	537.1
796.612	546.7
797.026	546.4
797.439	521.3
797.831	541.7
798.245	534.1
798.659	541.9
799.073	538
799.487	536
799.88	546.9
800.294	545.7
800.708	547.5
801.123	542.4
801.516	566.1
801.93	530.3
802.345	532.8
802.76	546.9
803.153	554.1
803.568	556.3
803.983	555.7
804.377	548.8
804.792	536.5
805.207	533.3
805.601	554.9
806.016	575.5
806.432	535.7
806.826	574.4
807.242	557.4
807.658	550.5
808.052	544.9
808.468	543.3
808.884	538.1
809.279	542.9
809.695	557.4
810.111	561.1
810.506	552.2
810.922	561.3
811.339	541.5
811.734	553.2
812.151	547.6
812.546	536.2
812.963	539.2
813.38	549.4
813.776	550.4
814.193	567.1
814.589	539
815.006	546.6
815.402	541.6
815.82	541.4
816.237	548.7
816.633	543.7
817.051	534.4
817.448	548.6
817.866	535.8
818.262	563.7
818.68	538.5
819.077	539.4
819.495	548.2
819.892	585
820.311	538.3
820.708	538.7
821.127	540.8
821.524	546.1
821.943	546.9
822.34	557.2
822.759	545.8
823.157	549.7
823.576	558.4
823.974	554.4
824.393	553.2
824.791	540.9
825.189	538
825.609	535.4
826.007	544
826.427	532.4
826.826	542.3
827.246	547.7
827.644	530.2
828.043	547.7
828.463	541
828.862	545.7
829.261	547.3
829.682	529.5
830.081	549.6
830.502	535
830.901	541.9
831.301	539.7
831.722	532.2
832.121	549.4
832.521	541.9
832.943	539.9
833.342	543.1
833.742	537.2
834.164	538.7
834.564	538.3
834.965	543
835.386	543.6
835.787	540.3
836.188	541.3
836.588	544.7
837.01	550.5
837.411	538.4
837.812	547.7
838.213	546.5
838.636	535.2
839.037	598.2
839.438	546.1
839.84	545.2
840.263	548.4
840.664	543.8
841.066	543.5
841.468	548
841.891	535.8
842.293	550.5
842.695	549.9
843.098	554.4
843.5	545.1
843.902	547.3
844.326	547.1
844.729	543.1
845.131	551.1
845.534	546.3
845.937	550.6
846.34	556
846.764	536.4
847.167	546.5
847.571	541
