#lambda/nm	C1
208.295	471.5
208.67	440.5
209.045	402.2
209.419	405.7
209.794	577.7
210.169	557.7
210.544	671.8
210.919	570.9
211.295	563.1
211.67	574
212.045	563
212.421	569.3
212.796	601
213.172	566.1
213.547	566.1
213.923	569.3
214.299	566.9
214.675	577.3
215.051	567.5
215.427	572.2
215.803	584.9
216.179	577.3
216.555	564
216.932	576.7
217.308	562.4
217.684	569.1
218.061	578.2
218.438	572.5
218.814	567.5
219.191	579.1
219.568	561
219.945	567.1
220.322	574
220.699	567.8
221.076	573.6
221.453	572.5
221.83	560.9
222.208	562.4
222.585	562
222.962	570.5
223.34	572.1
223.717	570.2
224.095	569.5
224.473	564.5
224.851	561.6
225.229	557
225.607	580.4
225.985	561.9
226.363	568.7
226.741	569.4
227.119	569.6
227.497	585.2
227.876	560.8
228.254	578.9
228.633	575.5
229.011	568.2
229.39	574
229.769	575.6
230.148	577.4
230.527	588.6
230.905	567.4
231.284	575.5
231.664	564.4
232.043	584.5
232.422	573.4
232.801	570.6
233.181	572.4
233.56	569.4
233.94	568.2
234.319	557
234.699	570.8
235.079	607.5
235.458	606.4
235.838	587.3
236.218	557
236.598	560.6
236.978	563.5
237.358	569.5
237.738	571.4
238.119	573.7
238.499	561.1
238.88	566.4
239.26	583.3
239.641	562.2
240.021	566.2
240.402	566
240.783	568
241.163	563.7
241.544	568.9
241.925	565.9
242.306	583.1
242.687	564
243.069	567
243.45	572.6
243.831	560.3
244.212	566.5
244.594	599.8
244.975	573.8
245.357	570.6
245.739	561.4
246.12	571.3
246.502	580.6
246.884	559.4
247.266	566.4
247.648	573.8
248.03	588.2
248.412	567.6
248.794	576
249.176	567.2
249.559	580.9
249.941	561
250.323	565.1
250.706	566.5
251.089	569.1
251.471	570.3
251.854	572
252.237	566
252.62	575.5
253.002	567.1
253.385	564.9
253.769	580.5
254.152	564.1
254.535	577
254.918	565
255.301	567.7
255.685	571.5
256.068	560.4
256.452	596.1
256.835	577.5
257.219	572.4
257.603	584.7
257.986	559.6
258.37	575.2
258.754	558.2
259.138	575.5
259.522	577
259.906	566.4
260.29	571.9
260.675	567.4
261.059	574.7
261.443	559.9
261.828	574.7
262.212	577
262.597	555.4
262.981	573.3
263.366	575.6
263.751	569.9
264.136	567.9
264.521	570.6
264.906	559.3
265.291	580.5
265.676	569.9
266.061	580.6
266.446	584.7
266.831	572.8
267.217	592.1
267.602	575.3
267.987	568.9
268.373	568.8
268.759	578.1
269.144	577.6
269.53	566.4
269.916	568.5
270.302	568.8
270.688	574.1
271.074	572.3
271.46	580.4
271.846	599.1
272.232	561.2
272.618	568.3
273.004	570.6
273.391	578.1
273.777	577.9
274.164	571.4
274.55	582.3
274.937	574.9
275.324	569.8
275.71	571.5
276.097	579.4
276.484	563.3
276.871	570
277.258	579.1
277.645	559.1
278.032	572.1
278.419	567.6
278.807	576.2
279.194	565
279.581	570.1
279.969	576.5
280.356	576.7
280.744	569.3
281.131	591.4
281.519	575.9
281.907	566.6
282.295	564.6
282.682	581.1
283.07	569.8
283.458	575.4
283.846	577.2
284.235	586.9
284.623	577.2
285.011	565.1
285.399	570.6
285.788	570.2
286.176	560.2
286.565	581.3
286.953	566.8
287.342	570.3
287.731	565.9
288.119	563.2
288.508	566.7
288.897	570.7
289.286	557.2
289.675	575.6
290.064	582.9
290.453	571.4
290.821	568.9
291.21	586.7
291.599	562.6
291.989	570.6
292.378	576.9
292.768	584.2
293.157	577.1
293.547	576
293.936	579
294.326	570.1
294.716	579.5
295.106	569.8
295.496	579.8
295.886	580.4
296.276	566.3
296.666	568.2
297.056	566
297.446	556.5
297.836	584.8
298.227	561.8
298.617	571.6
299.008	578.1
299.398	569.9
299.789	565.6
300.179	573.7
300.57	582.1
300.961	569.9
301.352	566.5
301.742	577
302.133	572.8
302.524	574.2
302.915	574.8
303.307	566.8
303.698	580.9
304.089	572.7
304.48	568.8
304.872	572.9
305.263	569.4
305.655	567.9
306.046	575.7
306.438	577.6
306.829	571
307.221	584
307.613	576.6
308.005	582.6
308.397	579.6
308.789	593.9
309.181	591.1
309.573	589
309.965	579.1
310.357	568.7
310.749	571.8
311.142	563.6
311.534	568.3
311.926	579.1
312.319	575.9
312.711	559.9
313.104	580.9
313.497	568.2
313.889	606.7
314.282	582.4
314.675	593.7
315.068	573.7
315.461	580.7
315.854	601.5
316.247	578.4
316.64	575.4
317.033	568
317.405	577.1
317.798	570.4
318.192	572.9
318.585	562.9
318.979	576.4
319.372	562.7
319.766	573.1
320.16	579.5
320.553	583.3
320.947	585.6
321.341	569.2
321.735	570.9
322.129	565.6
322.523	594.1
322.917	564
323.311	583.2
323.705	571.1
324.099	572.9
324.494	590
324.888	583.5
325.282	575.6
325.677	576.2
326.071	575.5
326.466	581
326.861	577.3
327.255	585.7
327.65	584.7
328.045	580
328.44	572.2
328.835	575
329.23	570
329.625	590.9
330.02	567.2
330.415	594.1
330.81	576.6
331.206	574.5
331.601	569.1
331.996	581.3
332.37	581
332.766	565.4
333.161	590.6
333.557	568.5
333.953	576.5
334.348	862.3
334.744	565.5
335.14	567.8
335.536	566.1
335.932	576.3
336.328	570
336.724	578.6
337.12	568.6
337.516	574.8
337.913	573.3
338.309	581.5
338.705	567.4
339.102	583.6
339.498	565.2
339.895	574.8
340.291	562.4
340.688	572
341.085	561.6
341.481	565.6
341.878	566.5
342.275	587.8
342.672	563.3
343.069	563.2
343.466	560.1
343.842	579.6
344.239	554.1
344.636	571
345.033	559
345.431	562.6
345.828	574.2
346.225	564
346.623	575.7
347.02	577.3
347.418	574.5
347.816	578.6
348.213	558
348.611	574.2
349.009	568.7
349.407	574.6
349.805	559.4
350.203	554.3
350.601	579.3
350.999	566
351.397	558.7
351.795	572.4
352.193	575.7
352.57	574.9
352.969	580.6
353.367	558.8
353.766	559.7
354.164	569.7
354.563	577.8
354.961	562.2
355.36	561.7
355.759	564.4
356.158	564.4
356.557	562.8
356.956	556.7
357.355	559.7
357.754	570.9
358.153	571.3
358.552	585.6
358.951	565
359.35	576.2
359.75	560.5
360.149	558.9
360.527	562.7
360.926	557.4
361.326	567.4
361.726	572
362.125	564.8
362.525	574.1
362.925	565.3
363.325	570.6
363.724	564.6
364.124	559.9
364.524	555.5
364.924	563.8
365.324	575
365.725	552.9
366.125	568.1
366.525	569.2
366.904	558.8
367.304	547.1
367.705	585.5
368.105	574
368.506	567.3
368.906	565.4
369.307	563.8
369.708	568.7
370.108	554.6
370.509	568.7
370.91	551.6
371.311	568.8
371.712	563.4
372.113	563.7
372.514	557.2
372.894	563
373.295	559.8
373.696	577.6
374.097	578.2
374.499	593
374.9	567.2
375.301	555.5
375.703	562.6
376.105	557
376.506	570.2
376.908	566.2
377.309	563.9
377.711	564
378.113	555.8
378.493	566.1
378.895	557.8
379.297	572.1
379.699	556
380.102	567.1
380.504	559
380.906	556.5
381.308	587.9
381.71	561.6
382.113	571.1
382.515	559.1
382.918	572.8
383.299	559.4
383.701	570.4
384.104	564.7
384.507	547.2
384.909	564.8
385.312	555.6
385.715	552.5
386.118	558.1
386.521	554.6
386.924	573.8
387.327	553.1
387.709	555.5
388.112	544.9
388.515	559.3
388.918	558.5
389.322	570.1
389.725	562.7
390.129	579.2
390.532	568.6
390.936	560.7
391.339	558.8
391.743	566.8
392.125	554.1
392.529	573.3
392.933	574.8
393.337	560
393.74	555.9
394.144	563.2
394.548	559.9
394.953	559.8
395.357	566.8
395.761	558.4
396.144	562.5
396.548	557.4
396.952	559.4
397.357	564.6
397.761	564.1
398.166	559.7
398.57	566.2
398.975	555.5
399.379	567.1
399.763	609.7
400.168	563.6
400.572	562.6
400.977	560.9
401.382	579.1
401.787	572.9
402.192	574.8
402.597	573.3
403.002	549
403.386	573.4
403.791	580.5
404.197	554.4
404.602	559.2
405.007	559.3
405.413	555.8
405.818	558.6
406.224	555.5
406.608	557.5
407.014	553.3
407.42	584.3
407.825	559.8
408.231	578
408.637	565.1
409.043	573.5
409.449	561.5
409.834	560
410.24	567.3
410.646	578.9
411.052	568.5
411.458	564.5
411.865	567
412.271	569.2
412.677	567.6
413.062	571.5
413.469	554
413.875	589.6
414.282	578.3
414.689	566.5
415.095	565.2
415.502	558.8
415.888	563.7
416.294	551.9
416.701	594.1
417.108	561.5
417.515	572.5
417.923	561.6
418.33	577.5
418.715	570.8
419.123	565
419.53	562.9
419.937	565.7
420.345	574.2
420.752	565.7
421.16	578.7
421.546	568.1
421.953	571.5
422.361	558.9
422.769	566.6
423.177	561.2
423.585	583.6
423.992	586
424.379	575
424.787	576.2
425.195	579.9
425.603	562.1
426.011	583.9
426.419	577
426.806	569.6
427.214	568.2
427.623	577.9
428.031	576.6
428.44	565.8
428.848	580.6
429.235	582.2
429.644	572.3
430.053	564.2
430.461	573.9
430.87	584.8
431.279	574.5
431.666	559.3
432.075	563.7
432.484	566.9
432.893	564.7
433.302	586.2
433.711	603.6
434.099	572
434.508	562.5
434.918	556.2
435.327	569.1
435.737	562.9
436.125	559.2
436.534	565.1
436.944	563.4
437.353	562.4
437.763	584.5
438.173	559.2
438.561	570.3
438.971	545.3
439.381	556
439.791	570.1
440.201	545
440.589	563.6
440.999	570.5
441.409	564.4
441.819	553.7
442.23	568
442.619	570.1
443.029	563.5
443.439	561.9
443.85	573.1
444.26	577.9
444.649	567.7
445.06	560.1
445.471	556.5
445.881	558.8
446.292	566.7
446.682	580.3
447.092	546.9
447.503	601.2
447.914	564.7
448.325	561.6
448.715	564.9
449.126	550.8
449.537	558.3
449.948	559.2
450.338	565.4
450.75	569.3
451.161	559.3
451.572	573.6
451.984	553.4
452.374	543.5
452.786	555.4
453.197	557.6
453.609	566.1
453.999	545.2
454.411	552.1
454.823	566.3
455.235	562.4
455.647	552.1
456.037	566.1
456.449	542.2
456.862	568
457.274	560.4
457.665	550.1
458.077	567.6
458.489	569.6
458.902	555.9
459.293	563
459.705	559.9
460.118	555.8
460.53	563.7
460.921	561.6
461.334	564.7
461.747	561.6
462.16	570.8
462.551	572.3
462.964	566.4
463.377	546.6
463.79	557.8
464.182	569.6
464.595	549.2
465.008	564.2
465.421	564.4
465.813	554.3
466.226	562.2
466.64	555.6
467.053	597.1
467.445	562
467.859	559.5
468.272	561.9
468.686	569.6
469.078	559.1
469.492	544.6
469.906	556
470.298	568.8
470.712	557.4
471.126	584.4
471.54	541.1
471.933	550.2
472.347	550.4
472.761	553.5
473.175	549.4
473.568	553.8
473.982	543.6
474.397	550.1
474.79	556.7
475.204	562.5
475.619	553
476.033	561.3
476.426	555.6
476.841	549.6
477.256	576.9
477.649	554.2
478.064	549.5
478.479	553.3
478.872	551.3
479.287	537
479.702	549.8
480.118	554
480.511	558.3
480.927	548.3
481.342	549.7
481.736	558
482.151	549.9
482.566	565.3
482.96	556.3
483.376	564
483.792	554.6
484.186	558.7
484.602	554
485.017	558.2
485.412	555.3
485.827	558
486.243	557.6
486.638	578.7
487.054	561
487.47	573.2
487.865	553.3
488.281	549.7
488.697	547.2
489.092	549.1
489.508	550.1
489.925	562.6
490.32	544
490.736	558.5
491.153	554.9
491.548	559.6
491.964	567.2
492.381	539.4
492.776	560.4
493.193	556
493.61	563.3
494.006	560
494.422	561.5
494.84	545.6
495.235	564.5
495.652	556.7
496.069	557.8
496.465	545
496.883	556.4
497.3	569.2
497.696	552.4
498.113	555.8
498.509	540.4
498.927	542.3
499.344	548
499.741	540.8
500.158	565.8
500.576	558.9
500.973	555.3
501.39	546.9
501.787	544.1
502.205	557.8
502.623	547
503.02	542.9
503.438	550.8
503.856	554.2
504.253	558.5
504.671	546.6
505.068	548.6
505.486	552.7
505.905	574.7
506.302	554.1
506.72	558.2
507.118	547.9
507.536	552.8
507.955	547.1
508.352	555.7
508.771	556.1
509.169	556.6
509.587	547.1
510.006	554.1
510.404	543.7
510.823	552.9
511.221	548
511.64	545
512.038	562.4
512.457	553.8
512.877	557.2
513.275	547.3
513.694	551.6
514.092	546.4
514.512	554.8
514.91	551.6
515.33	552.5
515.749	551.7
516.148	553.9
516.568	556.2
516.966	555.1
517.386	546.6
517.785	549.1
518.205	549
518.603	548.4
519.024	545
519.444	552.6
519.843	556.4
520.263	556.5
520.662	557.6
521.082	552.3
521.481	555.9
521.902	548
522.301	555.8
522.722	555
523.121	547.9
523.542	549.1
523.963	548.2
524.362	555.7
524.783	550.1
525.183	544.1
525.604	554.9
526.003	539
526.425	549.4
526.824	552.5
527.246	554.9
527.646	551.3
528.067	551.6
528.467	551.2
528.888	550.9
529.289	544.8
529.71	547.2
530.11	541.8
530.532	544.5
530.932	541.6
531.354	536.9
531.755	580.1
532.176	552.4
532.577	548
532.999	549.6
533.4	540.6
533.822	560.9
534.223	552
534.645	543.7
535.046	551.4
535.468	551.8
535.869	568.9
536.292	548
536.693	550.4
537.115	556.8
537.516	545.6
537.939	553.5
538.34	566.1
538.742	559
539.165	554.8
539.566	549.6
539.989	542.2
540.391	545.5
540.814	549.4
541.216	554.4
541.639	558.1
542.041	556.9
542.464	543.5
542.866	546.8
543.268	536.2
543.691	553.1
544.093	558
544.517	561.7
544.919	541.2
545.343	569.4
545.745	544.1
546.147	558.4
546.571	543.2
546.974	542.5
547.398	552
547.8	565.5
548.224	546.1
548.627	541
549.03	557.7
549.454	542.6
549.857	536
550.281	541.6
550.684	545.7
551.087	563.6
551.512	552.6
551.915	557
552.34	550.7
552.743	545.7
553.146	552.7
553.571	549.3
553.975	565.5
554.399	544.4
554.803	587.8
555.207	548.7
555.632	539.8
556.036	550.8
556.461	541.8
556.865	548.6
557.268	535.7
557.694	551.4
558.098	553.2
558.502	553.4
558.927	538.2
559.332	545.2
559.736	551.2
560.162	554.5
560.566	550.2
560.992	554.8
561.396	549.9
561.801	545.3
562.227	548.5
562.631	546.3
563.036	553.5
563.462	552.7
563.867	544.1
564.272	542.3
564.698	553.6
565.103	539.8
565.508	566.7
565.935	549.1
566.34	541.1
566.745	560.8
567.172	540.9
567.577	569.4
567.982	560.7
568.409	552.9
568.815	546.5
569.22	549.3
569.626	557.1
570.053	533.5
570.459	545.2
570.865	551.5
571.292	550.8
571.698	550.6
572.104	538.9
572.531	553
572.937	562.9
573.343	549.9
573.75	545.1
574.177	550.4
574.583	554
574.99	543.6
575.396	550.2
575.824	545.1
576.231	556.5
576.637	547.3
577.065	574.1
577.472	547.8
577.879	540.8
578.286	560.5
578.714	540.9
579.121	550.4
579.528	555.3
579.935	553.3
580.364	545.8
580.771	539.3
581.178	545.1
581.585	546.7
582.014	551.7
582.421	537.4
582.829	542.3
583.236	558
583.644	541.9
584.073	545.5
584.481	547.9
584.889	545.3
585.296	551.5
585.726	545.5
586.134	539
586.542	545.7
586.95	561.2
587.358	536.1
587.787	548.4
588.196	538
588.604	546.4
589.012	546.3
589.421	541.6
589.851	541.7
590.259	550.3
590.668	544.5
591.076	579.7
591.485	540
591.894	540.2
592.324	555.7
592.733	559.6
593.142	541.1
593.551	544.3
593.96	552.2
594.369	536.2
594.8	540.5
595.209	540.3
595.618	533.8
596.028	536.8
596.437	537.5
596.847	547.2
597.256	544.5
597.687	551
598.097	546
598.507	539.4
598.917	549.6
599.327	547.8
599.736	545.8
600.146	554.2
600.556	542.8
600.988	558.2
601.398	549.9
601.808	549.5
602.219	541.1
602.629	539.5
603.039	546
603.45	567.9
603.86	545.3
604.271	562.4
604.703	549.7
605.114	550.3
605.525	547.5
605.935	545.1
606.346	565.3
606.757	553.7
607.168	553
607.579	541.6
607.99	555
608.402	546.7
608.813	551.1
609.224	546.6
609.636	536.1
610.047	542.9
610.48	549.3
610.892	550.9
611.303	548.7
611.715	550.6
612.127	535.7
612.539	545
612.95	548
613.362	540.9
613.774	539.5
614.186	544.1
614.599	542.5
615.011	556.2
615.423	536
615.835	540.3
616.248	534.8
616.66	544
617.073	536.5
617.485	542.7
617.898	549.8
618.311	545.9
618.723	542.5
619.136	576.6
619.549	559.7
619.962	566.5
620.375	546.2
620.788	551
621.201	540.2
621.614	548.2
622.028	541.9
622.441	545.4
622.854	560.1
623.268	539.1
623.681	549.2
624.095	542.9
624.509	552.4
624.922	547.6
625.336	533.8
625.728	537.9
626.142	549.1
626.556	561.4
626.97	550.5
627.384	538.4
627.799	539.2
628.213	545.9
628.627	544.9
629.041	545.1
629.456	538.8
629.87	544.4
630.285	552.2
630.699	553.6
631.093	547.1
631.507	549
631.922	553
632.337	555.5
632.752	535.4
633.167	542.9
633.582	540.6
633.997	534.5
634.412	542
634.806	551.3
635.221	536.8
635.637	550.5
636.052	521.7
636.468	551.5
636.883	562.4
637.299	541.8
637.715	530.1
638.109	538.6
638.525	535.9
638.941	549.1
639.357	547.3
639.773	552.5
640.189	537.8
640.584	545.4
641	546.7
641.416	531.4
641.832	538.9
642.249	535
642.665	540.7
643.06	549.1
643.477	551.9
643.894	537.3
644.31	543.5
644.727	548.1
645.123	544.8
645.54	533.6
645.957	545.7
646.374	547.4
646.77	541.4
647.187	572.5
647.604	542.9
648.021	532.8
648.439	535.7
648.835	542.5
649.252	540.4
649.67	543.4
650.088	548.7
650.484	548
650.902	547.7
651.32	550.8
651.738	543.9
652.134	547.4
652.552	561.6
652.971	550
653.389	545.4
653.786	553.6
654.204	547.8
654.622	539.2
655.019	546.4
655.438	546.8
655.857	546.3
656.275	544.9
656.673	540.4
657.091	611.8
657.51	540.8
657.908	554.2
658.327	556.6
658.746	536.4
659.144	542.8
659.563	544.9
659.982	546.5
660.38	537.6
660.8	542.7
661.219	550.5
661.617	548.8
662.037	543.8
662.457	554.5
662.855	532.8
663.275	569.1
663.695	544.6
664.094	537.2
664.514	540.3
664.934	532.1
665.333	546.7
665.753	540.1
666.152	530.1
666.572	533
666.993	556.5
667.392	545.8
667.812	541.4
668.212	543
668.632	553
669.053	541.9
669.453	545.9
669.874	550
670.273	543.4
670.694	535.9
671.116	553.5
671.515	548.2
671.937	541.5
672.337	536.6
672.758	542.6
673.158	549.1
673.58	538.5
673.98	546.9
674.402	558.8
674.824	537.3
675.224	539.4
675.646	543.5
676.047	540
676.469	536.5
676.869	548.8
677.292	546.5
677.693	538.3
678.115	538.1
678.516	547.9
678.939	543.5
679.34	540.2
679.762	549.8
680.164	544
680.586	541.3
680.988	541.9
681.411	567
681.812	538.5
682.236	535.8
682.637	537.8
683.061	533.6
683.462	547.7
683.864	537.9
684.288	545.2
684.69	534.3
685.114	554.5
685.516	545.7
685.94	533.6
686.342	549.4
686.766	537.1
687.168	529.1
687.571	556.4
687.995	532.2
688.398	535.1
688.822	541.1
689.225	556.5
689.628	556.1
690.052	535.2
690.456	541.1
690.88	546.2
691.284	533.5
691.687	550.1
692.112	537
692.515	531.8
692.919	542.6
693.344	540.5
693.747	542
694.173	531.4
694.577	545.5
694.98	542.6
695.406	533.3
695.81	543.9
696.214	542.5
696.64	543.7
697.044	542.7
697.448	548.5
697.874	542.9
698.279	536.1
698.684	533.6
699.11	537.3
699.514	543.5
699.919	538.3
700.324	534.2
700.75	539.1
701.156	543.2
701.561	552.5
701.987	544.1
702.393	549.1
702.798	550.3
703.203	542.4
703.63	541.1
704.036	537.2
704.442	545.6
704.847	536.5
705.274	540
705.68	545.8
706.086	549.6
706.492	533
706.92	542.3
707.326	551
707.732	539.4
708.139	535.2
708.545	530.9
708.973	537.5
709.38	540.3
709.786	529.3
710.193	554.7
710.6	535.6
711.028	531.2
711.435	542.7
711.842	545.8
712.249	534.2
712.656	538.9
713.064	554.3
713.492	536.2
713.9	541.8
714.307	539.5
714.715	542.5
715.123	543.4
715.53	543.4
715.938	543.4
716.367	537.1
716.775	541.7
717.184	533.7
717.592	537.7
718	543.6
718.408	567.6
718.816	574.5
719.225	540.1
719.633	538.3
720.042	528.6
720.472	537.3
720.881	553.5
721.29	544.5
721.699	534.1
722.108	538.4
722.517	536.9
722.926	533.5
723.335	548.5
723.744	541.9
724.154	538.6
724.563	540.6
724.973	542.5
725.382	539.7
725.792	539.7
726.202	533.7
726.612	545.9
727.022	542.5
727.432	538.8
779.813	536.7
780.223	579.7
780.634	533.9
781.044	533.5
781.454	545.9
781.865	547.2
782.276	527
782.686	548.3
783.097	538.3
783.508	541.6
783.919	543.4
784.33	543.8
784.741	549.8
785.152	529.2
785.563	530.6
785.974	530.3
786.386	545.8
786.776	535.3
787.188	538.4
787.599	530.8
788.011	544.3
788.423	540.2
788.835	534.3
789.247	529.9
789.659	534
790.071	532.8
790.483	579
790.874	535.8
791.286	540.9
791.699	537.4
792.111	532.4
792.524	542
792.937	536.7
793.349	529.5
793.741	529.8
794.154	536.3
794.567	554.6
794.98	538.3
795.393	526.2
795.785	556.5
796.198	532
796.612	542.8
797.026	535.1
797.439	523.2
797.831	536.7
798.245	532.3
798.659	534.3
799.073	534.8
799.487	536.7
799.88	539.3
800.294	537.4
800.708	542.3
801.123	541.1
801.516	550.8
801.93	529.6
802.345	528.6
802.76	538.8
803.153	549.5
803.568	550
803.983	547.8
804.377	540.3
804.792	526.7
805.207	531.1
805.601	538.3
806.016	570
806.432	531
806.826	562.3
807.242	551.7
807.658	535.7
808.052	538.5
808.468	534.5
808.884	534
809.279	538.7
809.695	549.7
810.111	556.6
810.506	538
810.922	552.4
811.339	534.8
811.734	548.3
812.151	534.4
812.546	532.7
812.963	530.8
813.38	541.9
813.776	534.2
814.193	552.9
814.589	533.7
815.006	538.8
815.402	530.9
815.82	529.8
816.237	539.2
816.633	539.6
817.051	531.3
817.448	543.1
817.866	522.9
818.262	551.3
818.68	530.1
819.077	538.5
819.495	534.7
819.892	577.8
820.311	532.4
820.708	532.9
821.127	532.4
821.524	553.7
821.943	539.6
822.34	558.6
822.759	545.8
823.157	536.6
823.576	545.6
823.974	544.1
824.393	547.7
824.791	529.8
825.189	538.8
825.609	532.9
826.007	536.2
826.427	521
826.826	538.1
827.246	547.2
827.644	527.3
828.043	544.8
828.463	533.7
828.862	548.9
829.261	542.4
829.682	524.2
830.081	540.2
830.502	535.8
830.901	541.5
831.301	532.4
831.722	529
832.121	534.9
832.521	531.4
832.943	537.6
833.342	533
833.742	526.4
834.164	535.3
834.564	534.6
834.965	529.8
835.386	528.1
835.787	533.6
836.188	537.6
836.588	536
837.01	535.4
837.411	531.3
837.812	540.6
838.213	539.5
838.636	532.6
839.037	599
839.438	541.6
839.84	542.1
840.263	543
840.664	539.8
841.066	538.2
841.468	534
841.891	540
842.293	539.2
842.695	543.9
843.098	547.1
843.5	529.1
843.902	540.1
844.326	543.2
844.729	540.8
845.131	546.4
845.534	539.3
845.937	543.5
846.34	551.7
846.764	527.4
847.167	532.7
847.571	530
847.974	538.4
848.377	534.9
848.781	580.6
