#lambda/nm	C1
208.295	469.1
208.67	436.2
209.045	397.3
209.419	401.3
209.794	574.8
210.169	560.9
210.544	672.1
210.919	575.1
211.295	563.4
211.67	574.9
212.045	573.6
212.421	564.7
212.796	608.8
213.172	565.2
213.547	569
213.923	572.2
214.299	566.5
214.675	575.6
215.051	570.6
215.427	572.7
215.803	588.3
216.179	578.2
216.555	560.2
216.932	579.8
217.308	570.5
217.684	566.2
218.061	580.7
218.438	577.9
218.814	571
219.191	582.5
219.568	564.7
219.945	568
220.322	573.5
220.699	574.4
221.076	580.1
221.453	579.8
221.83	563.1
222.208	570.3
222.585	567.7
222.962	571.4
223.34	578.1
223.717	571.6
224.095	565.3
224.473	567.5
224.851	568.1
225.229	560.4
225.607	589.2
225.985	562.8
226.363	576.6
226.741	574.9
227.119	569.6
227.497	582.7
227.876	563.6
228.254	579.3
228.633	579.2
229.011	574.7
229.39	579
229.769	574.3
230.148	576.7
230.527	595.3
230.905	572.9
231.284	581.2
231.664	571.1
232.043	588.7
232.422	580
232.801	567.5
233.181	576.1
233.56	574.7
233.94	572.3
234.319	559.3
234.699	573.1
235.079	607.9
235.458	610.4
235.838	589.8
236.218	564.9
236.598	561.8
236.978	563.8
237.358	571.9
237.738	566.8
238.119	577.7
238.499	564.1
238.88	571.1
239.26	592.3
239.641	567.3
240.021	569.6
240.402	569.6
240.783	567.8
241.163	573
241.544	581.5
241.925	575.2
242.306	582.8
242.687	568.1
243.069	576.5
243.45	580.7
243.831	568.5
244.212	573.5
244.594	609.3
244.975	582.7
245.357	578.9
245.739	565
246.12	580.9
246.502	583.5
246.884	570.1
247.266	572.5
247.648	580.6
248.03	596.8
248.412	577
248.794	577.6
249.176	565
249.559	580.3
249.941	568.8
250.323	565.8
250.706	563.6
251.089	571.9
251.471	572.6
251.854	570.9
252.237	565.8
252.62	579.2
253.002	574
253.385	569.5
253.769	580
254.152	572.4
254.535	573.3
254.918	564.1
255.301	566.9
255.685	566.4
256.068	561.5
256.452	595.7
256.835	577.1
257.219	570.8
257.603	591.4
257.986	564.7
258.37	578.4
258.754	564.5
259.138	587.1
259.522	585.8
259.906	568.6
260.29	572.1
260.675	575.4
261.059	577.9
261.443	567.7
261.828	587.8
262.212	575.2
262.597	563.7
262.981	567.9
263.366	574.1
263.751	573.5
264.136	571.6
264.521	571.9
264.906	566.9
265.291	586.2
265.676	571.5
266.061	580.5
266.446	591
266.831	573.4
267.217	591
267.602	576.9
267.987	574.2
268.373	569.5
268.759	581.3
269.144	580.3
269.53	565.9
269.916	568.8
270.302	564.5
270.688	574.1
271.074	572.8
271.46	583.8
271.846	605.1
272.232	575
272.618	563.4
273.004	574.3
273.391	575.2
273.777	584
274.164	576.2
274.55	589.1
274.937	580.9
275.324	566.4
275.71	576.9
276.097	577.3
276.484	561.9
276.871	573.8
277.258	578.7
277.645	560.2
278.032	567.7
278.419	570
278.807	573
279.194	564.2
279.581	568.2
279.969	579.6
280.356	570.6
280.744	577.7
281.131	594.6
281.519	584.8
281.907	567.9
282.295	569.9
282.682	577.9
283.07	573.7
283.458	581.3
283.846	583.8
284.235	585.4
284.623	579.7
285.011	570.9
285.399	571.3
285.788	569.1
286.176	565.8
286.565	587.8
286.953	574.8
287.342	569
287.731	562.1
288.119	567.9
288.508	573.3
288.897	570
289.286	562.3
289.675	578.2
290.064	580.9
290.453	569.1
290.821	572.7
291.21	587.3
291.599	566.3
291.989	573.6
292.378	582.7
292.768	596.4
293.157	582
293.547	583.3
293.936	573.2
294.326	568.5
294.716	577.4
295.106	568.6
295.496	579.7
295.886	574.8
296.276	570
296.666	566.1
297.056	568.4
297.446	560.3
297.836	586.3
298.227	571.4
298.617	570.4
299.008	581.9
299.398	567.6
299.789	563.3
300.179	570.5
300.57	580.5
300.961	568.6
301.352	569.6
301.742	584.9
302.133	574
302.524	568.3
302.915	574.5
303.307	563.6
303.698	583.1
304.089	576.3
304.48	571.9
304.872	577.2
305.263	571.8
305.655	569.9
306.046	577
306.438	577.5
306.829	572.2
307.221	580.8
307.613	579.2
308.005	582
308.397	586.5
308.789	600
309.181	598.9
309.573	593.4
309.965	585.1
310.357	566.9
310.749	581.3
311.142	572.2
311.534	569.4
311.926	584
312.319	582.1
312.711	565.9
313.104	582.6
313.497	572.8
313.889	611.6
314.282	584.9
314.675	596.4
315.068	571.7
315.461	576.5
315.854	601.3
316.247	581.2
316.64	574.8
317.033	576.4
317.405	585
317.798	573.7
318.192	581.7
318.585	564.4
318.979	578.4
319.372	568.6
319.766	576.8
320.16	584.1
320.553	591.1
320.947	592.3
321.341	574
321.735	572.6
322.129	559.5
322.523	599.5
322.917	563.2
323.311	583.4
323.705	575.5
324.099	573.7
324.494	588.7
324.888	583.8
325.282	576.5
325.677	583.2
326.071	576.3
326.466	588
326.861	577.3
327.255	582.6
327.65	589.3
328.045	590.2
328.44	576.4
328.835	576.5
329.23	570.6
329.625	599.8
330.02	578.7
330.415	604.6
330.81	580.2
331.206	575.7
331.601	573.5
331.996	584.5
332.37	581.8
332.766	565.9
333.161	592.9
333.557	573
333.953	575.4
334.348	937.1
334.744	576.6
335.14	570.9
335.536	579.8
335.932	585.6
336.328	576
336.724	584.5
337.12	577.9
337.516	576.9
337.913	572
338.309	591.3
338.705	569.5
339.102	585.2
339.498	571.3
339.895	590.6
340.291	573.8
340.688	583.2
341.085	571
341.481	575
341.878	575.6
342.275	595.9
342.672	569.6
343.069	567
343.466	563.6
343.842	587.9
344.239	570.1
344.636	571.9
345.033	564.9
345.431	566.8
345.828	580
346.225	565.8
346.623	579.1
347.02	569.4
347.418	582
347.816	584.7
348.213	565.7
348.611	574.3
349.009	563.1
349.407	582.9
349.805	562.5
350.203	556.3
350.601	583.8
350.999	568
351.397	566.7
351.795	570.3
352.193	580.1
352.57	577.5
352.969	582.9
353.367	565.5
353.766	560.7
354.164	571.5
354.563	580.7
354.961	564.3
355.36	564.8
355.759	569.5
356.158	558.7
356.557	559.8
356.956	565.8
357.355	558.8
357.754	580
358.153	573.8
358.552	589.8
358.951	572.9
359.35	577.3
359.75	562.7
360.149	562.4
360.527	556.8
360.926	561.2
361.326	568.8
361.726	569.6
362.125	560.1
362.525	578.7
362.925	567.6
363.325	569.9
363.724	574.1
364.124	562.9
364.524	560.8
364.924	564.6
365.324	578.1
365.725	547.4
366.125	568.2
366.525	563.2
366.904	559.1
367.304	556.5
367.705	579.7
368.105	579
368.506	565.2
368.906	574.7
369.307	566.9
369.708	577.8
370.108	557.1
370.509	575.9
370.91	564.2
371.311	567.5
371.712	573.2
372.113	560.8
372.514	556
372.894	561.5
373.295	563.2
373.696	574
374.097	575.9
374.499	592.7
374.9	567.5
375.301	564.3
375.703	566.1
376.105	560.2
376.506	572.2
376.908	572.7
377.309	573.8
377.711	562.9
378.113	560.2
378.493	566.8
378.895	562.7
379.297	576.9
379.699	559.5
380.102	573.8
380.504	565.8
380.906	564.8
381.308	588.5
381.71	561.1
382.113	571.6
382.515	568
382.918	568.4
383.299	566.3
383.701	577.5
384.104	568.7
384.507	547.3
384.909	568.7
385.312	555.9
385.715	560.3
386.118	564.1
386.521	558.1
386.924	575.4
387.327	561.9
387.709	556.2
388.112	549.6
388.515	565.2
388.918	565.3
389.322	570.2
389.725	564.4
390.129	577.3
390.532	565
390.936	561.6
391.339	563.9
391.743	571.7
392.125	561.1
392.529	570
392.933	577.6
393.337	563
393.74	563.2
394.144	564.5
394.548	562.9
394.953	557
395.357	571.2
395.761	560.7
396.144	559
396.548	559.9
396.952	562.5
397.357	566.4
397.761	559.5
398.166	558.5
398.57	566.6
398.975	561.1
399.379	571
399.763	606.9
400.168	563.8
400.572	563.7
400.977	560.9
401.382	577
401.787	579.3
402.192	580.3
402.597	577.8
403.002	555
403.386	577.5
403.791	578.1
404.197	558.2
404.602	566.3
405.007	568.2
405.413	565
405.818	553.5
406.224	554.3
406.608	557.2
407.014	557.9
407.42	578.9
407.825	558.3
408.231	572.1
408.637	569.4
409.043	580.6
409.449	558.4
409.834	557.3
410.24	570.2
410.646	571.3
411.052	570.7
411.458	574.4
411.865	571.6
412.271	574.3
412.677	569.1
413.062	573.7
413.469	556.8
413.875	586.1
414.282	582.7
414.689	564.9
415.095	571.1
415.502	562.4
415.888	569.8
416.294	552.5
416.701	599.9
417.108	560.1
417.515	572.4
417.923	564.3
418.33	586.6
418.715	577.5
419.123	563
419.53	563.1
419.937	566.7
420.345	577.6
420.752	569.4
421.16	582
421.546	569.9
421.953	573.9
422.361	563.7
422.769	568.5
423.177	566
423.585	589.3
423.992	586.4
424.379	578.1
424.787	576
425.195	588.1
425.603	568.1
426.011	578.7
426.419	581.8
426.806	567
427.214	574.1
427.623	575.7
428.031	583.2
428.44	573
428.848	577
429.235	582.6
429.644	574.9
430.053	570.2
430.461	586.1
430.87	592.1
431.279	581.7
431.666	564.8
432.075	574.7
432.484	574.6
432.893	570.4
433.302	588.7
433.711	601.3
434.099	572.1
434.508	565.9
434.918	557.6
435.327	575.6
435.737	575.3
436.125	574.3
436.534	567.4
436.944	569.9
437.353	568.2
437.763	592.4
438.173	560
438.561	577.9
438.971	552.6
439.381	574
439.791	568.4
440.201	556
440.589	567.8
440.999	574.9
441.409	566.6
441.819	553.4
442.23	569.2
442.619	566.3
443.029	564.4
443.439	566
443.85	573.2
444.26	572.5
444.649	570.6
445.06	564.1
445.471	555.2
445.881	560.9
446.292	580.9
446.682	583
447.092	548.9
447.503	611.9
447.914	565.6
448.325	565.2
448.715	561.7
449.126	559.1
449.537	562.3
449.948	568.4
450.338	562.9
450.75	566
451.161	568.4
451.572	569
451.984	556
452.374	550.5
452.786	558
453.197	568
453.609	568.2
453.999	552.9
454.411	554.4
454.823	571.9
455.235	566.3
455.647	562.7
456.037	569.8
456.449	550.7
456.862	560.5
457.274	559.7
457.665	556
458.077	565.5
458.489	577.7
458.902	560.8
459.293	561.4
459.705	559.3
460.118	555
460.53	560
460.921	561.3
461.334	562.9
461.747	565.3
462.16	576.2
462.551	566.6
462.964	567.6
463.377	552.1
463.79	560.4
464.182	569.7
464.595	551.5
465.008	559.8
465.421	567.8
465.813	562
466.226	569.1
466.64	554.3
467.053	605.6
467.445	570
467.859	559.6
468.272	558.1
468.686	575.9
469.078	560.1
469.492	546.7
469.906	560.9
470.298	570.9
470.712	555.4
471.126	587
471.54	544.8
471.933	553.4
472.347	558
472.761	554.5
473.175	553.6
473.568	559.5
473.982	548.7
474.397	559.8
474.79	559.8
475.204	569.2
475.619	560.6
476.033	563.7
476.426	562.8
476.841	551.1
477.256	581.3
477.649	552.7
478.064	552.3
478.479	552.5
478.872	552.7
479.287	544.9
479.702	548.9
480.118	564.5
480.511	558.1
480.927	550.7
481.342	552.6
481.736	560.4
482.151	554.2
482.566	571.7
482.96	560.7
483.376	567.7
483.792	555.4
484.186	567.2
484.602	560.6
485.017	557.4
485.412	563.7
485.827	562.2
486.243	561.6
486.638	581.3
487.054	567.6
487.47	570.4
487.865	553.1
488.281	556.3
488.697	549.3
489.092	559.4
489.508	547.4
489.925	563.5
490.32	549.1
490.736	556.8
491.153	558.2
491.548	557.4
491.964	562.2
492.381	543.1
492.776	561.2
493.193	559.8
493.61	555.9
494.006	553.3
494.422	562.3
494.84	550.3
495.235	563.2
495.652	565.2
496.069	562.3
496.465	548.2
496.883	551.3
497.3	581
497.696	548.2
498.113	564.8
498.509	545.8
498.927	544.8
499.344	551.7
499.741	554
500.158	564.3
500.576	565.4
500.973	553.8
501.39	551.7
501.787	551
502.205	556.1
502.623	552.5
503.02	550.8
503.438	549
503.856	555.9
504.253	558.4
504.671	555.1
505.068	556
505.486	553.2
505.905	575.2
506.302	552.2
506.72	570.9
507.118	553.6
507.536	554.9
507.955	560.3
508.352	559.3
508.771	566.5
509.169	558.7
509.587	550.5
510.006	554.5
510.404	551.2
510.823	551.7
511.221	552.1
511.64	549.9
512.038	565.5
512.457	556.8
512.877	552.1
513.275	551.4
513.694	553
514.092	553.9
514.512	556.9
514.91	548.4
515.33	559.3
515.749	561.4
516.148	557.5
516.568	556.1
516.966	556
517.386	557
517.785	554.3
518.205	552.9
518.603	553.6
519.024	545
519.444	555.1
519.843	565.6
520.263	553.3
520.662	562.5
521.082	547.8
521.481	555.5
521.902	553.5
522.301	560.3
522.722	557
523.121	548.7
523.542	554
523.963	546.8
524.362	555.4
524.783	555.4
525.183	555.6
525.604	559
526.003	546.2
526.425	546.6
526.824	563.4
527.246	561.8
527.646	564.4
528.067	550.6
528.467	557.7
528.888	557.4
529.289	556.8
529.71	555.6
530.11	556.1
530.532	554.3
530.932	549.4
531.354	544.9
531.755	586.5
532.176	562.8
532.577	552.5
532.999	557.7
533.4	555.7
533.822	560.4
534.223	555.7
534.645	559.5
535.046	552.2
535.468	558.6
535.869	565.4
536.292	550
536.693	554.7
537.115	554.2
537.516	541.7
537.939	550.3
538.34	562
538.742	558.2
539.165	549.1
539.566	553
539.989	547.2
540.391	544.8
540.814	550.5
541.216	558.1
541.639	549.5
542.041	559
542.464	547.1
542.866	544.5
543.268	544.5
543.691	556.3
544.093	554.3
544.517	573.2
544.919	543.9
545.343	569
545.745	549.1
546.147	554.9
546.571	554.5
546.974	543.3
547.398	558.7
547.8	567.5
548.224	551.6
548.627	547.4
549.03	557.5
549.454	547.9
549.857	542.3
550.281	547.3
550.684	551.4
551.087	562.6
551.512	551.4
551.915	562
552.34	551.9
552.743	555.6
553.146	552.4
553.571	552.7
553.975	567.7
554.399	542.5
554.803	597.9
555.207	544.1
555.632	543.7
556.036	556.7
556.461	543.4
556.865	552.4
557.268	540.6
557.694	547.8
558.098	551.2
558.502	554
558.927	539.8
559.332	547.1
559.736	553.8
560.162	554.2
560.566	549.3
560.992	559.7
561.396	551
561.801	544.6
562.227	549.2
562.631	549.6
563.036	551.5
563.462	554.9
563.867	552.1
564.272	541.5
564.698	553.8
565.103	540.2
565.508	565.6
565.935	554.2
566.34	550.5
566.745	560.3
567.172	550
567.577	574.6
567.982	563.9
568.409	553.8
568.815	543.1
569.22	552.7
569.626	554.4
570.053	540.7
570.459	551.2
570.865	558.1
571.292	556
571.698	557.3
572.104	539
572.531	547
572.937	559.3
573.343	552.3
573.75	552.6
574.177	549.8
574.583	558.1
574.99	549.8
575.396	561
575.824	545.6
576.231	558.1
576.637	542.9
577.065	569.9
577.472	544.6
577.879	542.7
578.286	572.1
578.714	541.6
579.121	551.9
579.528	553.3
579.935	554.7
580.364	547
580.771	541.6
581.178	548.9
581.585	554.7
582.014	554.8
582.421	547
582.829	550.1
583.236	560
583.644	549.9
584.073	549.2
584.481	546.5
584.889	543.6
585.296	546.3
585.726	547.5
586.134	543.1
586.542	544.3
586.95	562
587.358	539
587.787	548.1
588.196	538.7
588.604	544.7
589.012	546.1
589.421	545.6
589.851	542.7
590.259	553.6
590.668	546.9
591.076	579.8
591.485	540.4
591.894	541.1
592.324	560.4
592.733	563.3
593.142	542.2
593.551	547
593.96	579.9
594.369	539.4
594.8	537.3
595.209	541.6
595.618	537.8
596.028	544
596.437	540.7
596.847	549.4
597.256	550.6
597.687	550.4
598.097	544.9
598.507	536.6
598.917	551.4
599.327	553.3
599.736	550.6
600.146	555.2
600.556	550.2
600.988	558.9
601.398	546.5
601.808	560.9
602.219	542.1
602.629	550.6
603.039	552.4
603.45	570.8
603.86	545.9
604.271	565
604.703	549.9
605.114	548.5
605.525	550.5
605.935	551
606.346	577
606.757	552.3
607.168	547.8
607.579	538.5
607.99	561.7
608.402	553.7
608.813	551.8
609.224	546
609.636	547.6
610.047	538.8
610.48	546.6
610.892	557.2
611.303	554.8
611.715	549
612.127	544.7
612.539	551.7
612.95	548.5
613.362	535.7
613.774	543.9
614.186	541.5
614.599	544.6
615.011	559.9
615.423	535.1
615.835	543.2
616.248	539.6
616.66	558.2
617.073	542.6
617.485	542.4
617.898	554.9
618.311	557.4
618.723	546.6
619.136	572.5
619.549	563.1
619.962	571.2
620.375	544.8
620.788	550.4
621.201	538.9
621.614	551.8
622.028	550.7
622.441	550.9
622.854	558.3
623.268	546.8
623.681	549.1
624.095	546.5
624.509	557.5
624.922	554.4
625.336	541.5
625.728	553.1
626.142	563
626.556	562.6
626.97	552.1
627.384	544.4
627.799	549
628.213	555.7
628.627	543.2
629.041	545.9
629.456	549
629.87	551.3
630.285	561
630.699	557.5
631.093	547.1
631.507	549.5
631.922	550.4
632.337	559.6
632.752	540.9
633.167	544.4
633.582	538.2
633.997	541.5
634.412	541.6
634.806	546
635.221	536.5
635.637	556.6
636.052	535.1
636.468	549.8
636.883	561.7
637.299	546.1
637.715	537.3
638.109	538.5
638.525	530.3
638.941	561.7
639.357	553.3
639.773	556.3
640.189	544.8
640.584	545.4
641	548.1
641.416	535.7
641.832	547.6
642.249	538.9
642.665	546
643.06	552.5
643.477	555.6
643.894	535.3
644.31	548.3
644.727	549
645.123	548.2
645.54	550.1
645.957	552.5
646.374	553.1
646.77	550.3
647.187	575.6
647.604	549.8
648.021	535.3
648.439	538.9
648.835	542.1
649.252	543.6
649.67	540.9
650.088	547.7
650.484	548.1
650.902	548.5
651.32	554.7
651.738	545.8
652.134	549.2
652.552	562.2
652.971	549.6
653.389	549.2
653.786	557.8
654.204	551.2
654.622	538
655.019	545.5
655.438	548.6
655.857	544.3
656.275	552.4
656.673	541.9
657.091	612.8
657.51	541.8
657.908	558.7
658.327	559
658.746	534.8
659.144	549
659.563	561.9
659.982	552.2
660.38	538.6
660.8	548.8
661.219	555.7
661.617	549.5
662.037	548
662.457	560.7
662.855	533.9
663.275	576.2
663.695	547
664.094	546.9
664.514	548.8
664.934	538.2
665.333	550.9
665.753	541.6
666.152	537.4
666.572	543.4
666.993	561.4
667.392	542.4
667.812	548.8
668.212	547.1
668.632	555.6
669.053	543.4
669.453	552.3
669.874	547.6
670.273	546.1
670.694	537.2
671.116	559.1
671.515	550.4
671.937	540.7
672.337	541.3
672.758	546.7
673.158	549.8
673.58	529.7
673.98	546.8
674.402	564
674.824	550.5
675.224	541.1
675.646	543.2
676.047	548.6
676.469	541.6
676.869	549.2
677.292	552.6
677.693	542.4
678.115	540.7
678.516	548.9
678.939	547.7
679.34	545.9
679.762	557.2
680.164	546.3
680.586	541.6
680.988	549.9
681.411	568.3
681.812	544.8
682.236	539.4
682.637	539.8
683.061	537.5
683.462	546.8
683.864	543.8
684.288	547.4
684.69	536.3
685.114	553.4
685.516	551.2
685.94	535
686.342	545.6
686.766	537.9
687.168	541.1
687.571	556.7
687.995	546.1
688.398	538.8
688.822	545.8
689.225	556.4
689.628	559.1
690.052	541.4
690.456	552.3
690.88	548.9
691.284	536.7
691.687	542.7
692.112	537
692.515	537.8
692.919	547.8
693.344	548.9
693.747	542.7
694.173	537.2
694.577	555.4
694.98	547.9
695.406	541.1
695.81	551.8
696.214	546.3
696.64	549.3
697.044	546.8
697.448	548.2
697.874	541.3
698.279	541.8
698.684	537.2
699.11	541.8
699.514	541.6
699.919	548
700.324	533.3
700.75	542.4
701.156	541.8
701.561	550.6
701.987	545.3
702.393	557.1
702.798	554.3
703.203	547.5
703.63	543.7
704.036	536.8
704.442	545.7
704.847	532
705.274	543.8
705.68	554
706.086	547.6
706.492	538.1
706.92	543.4
707.326	551.8
707.732	542.3
708.139	532.4
708.545	539
708.973	546.6
709.38	543.9
709.786	537.3
710.193	555.8
710.6	546.2
711.028	537.6
711.435	540
711.842	544.6
712.249	541.2
712.656	542
713.064	553.2
713.492	535.3
713.9	542.8
714.307	554.6
714.715	544.1
715.123	547.2
715.53	549.7
715.938	548.2
716.367	545.4
716.775	541.2
717.184	536.8
717.592	538.9
718	549.4
718.408	581.6
718.816	587.2
719.225	542.4
719.633	544.5
720.042	535.6
720.472	539.4
720.881	564.3
721.29	546.3
721.699	538.3
722.108	548.9
722.517	542.5
722.926	542.1
723.335	551
723.744	545.3
724.154	546.9
724.563	541.8
724.973	546.3
725.382	537.1
725.792	542.6
726.202	542.7
726.612	548.4
727.022	543.3
727.432	540.9
779.813	538.1
780.223	583.6
780.634	537.1
781.044	539.3
781.454	547.3
781.865	552.2
782.276	536.1
782.686	547.9
783.097	543.7
783.508	531.3
783.919	541.9
784.33	549
784.741	558.4
785.152	537.5
785.563	533.5
785.974	533
786.386	553.2
786.776	537.5
787.188	542.2
787.599	535
788.011	547.3
788.423	546.9
788.835	540.2
789.247	531.3
789.659	538.8
790.071	540.5
790.483	578.8
790.874	544.6
791.286	545.8
791.699	539.1
792.111	550.5
792.524	547.6
792.937	541.4
793.349	531.6
793.741	535.5
794.154	533.2
794.567	562.3
794.98	539.6
795.393	532.8
795.785	557.5
796.198	535.8
796.612	540
797.026	538.9
797.439	524.9
797.831	539.3
798.245	535.1
798.659	540.1
799.073	540.7
799.487	536
799.88	543.6
800.294	535.3
800.708	542.9
801.123	545.2
801.516	554.7
801.93	524.7
802.345	531.8
802.76	540.6
803.153	547.7
803.568	552.5
803.983	552.2
804.377	548.5
804.792	530.2
805.207	528.2
805.601	542.2
806.016	571.2
806.432	534.6
806.826	571.7
807.242	556.8
807.658	542.8
808.052	540
808.468	536.1
808.884	533.2
809.279	548.2
809.695	547.9
810.111	561.4
810.506	543.3
810.922	556.6
811.339	534.9
811.734	549.1
812.151	540.3
812.546	534.5
812.963	540.5
813.38	541.6
813.776	545.8
814.193	555.9
814.589	534.7
815.006	542.6
815.402	538
815.82	535.9
816.237	540.2
816.633	548.3
817.051	529.1
817.448	543.9
817.866	534.6
818.262	561.7
818.68	538.4
819.077	537
819.495	544.3
819.892	584.8
820.311	537.5
820.708	537.9
821.127	539
821.524	551.1
821.943	544.1
822.34	562.1
822.759	541
823.157	542.9
823.576	548.5
823.974	545.9
824.393	552
824.791	536.2
825.189	532.3
825.609	536.9
826.007	542.8
826.427	527.8
826.826	528.5
827.246	547.1
827.644	526.7
828.043	545.7
828.463	535.2
828.862	541.6
829.261	540.6
829.682	528.2
830.081	547.2
830.502	537.2
830.901	541.3
831.301	539.4
831.722	528.2
832.121	539.8
832.521	534.1
832.943	540.1
833.342	538.1
833.742	529.4
834.164	537.3
834.564	535.8
834.965	540.9
835.386	533.7
835.787	536.7
836.188	537.5
836.588	542.7
837.01	536.9
837.411	527.3
837.812	546.3
838.213	538.6
838.636	537.4
839.037	599.7
839.438	540.1
839.84	545.1
840.263	546.5
840.664	539.3
841.066	542.1
841.468	542.9
841.891	536
842.293	549.6
842.695	542.2
843.098	546
843.5	541.6
843.902	540
844.326	545
844.729	537.5
845.131	544.5
845.534	542
845.937	550.3
846.34	554.2
846.764	531.1
847.167	541.6
847.571	533.5
847.974	530.4
848.377	536.2
