#lambda/nm	C1
208.295	471.4
208.67	436.8
209.045	403.9
209.419	409.4
209.794	580.2
210.169	555.4
210.544	679.8
210.919	576.9
211.295	568.6
211.67	576.9
212.045	572.5
212.421	575.2
212.796	611.2
213.172	569.6
213.547	575.8
213.923	572.9
214.299	569.8
214.675	578
215.051	580
215.427	581.7
215.803	596.9
216.179	582.9
216.555	564.6
216.932	578.3
217.308	570.2
217.684	574.7
218.061	575.6
218.438	582.1
218.814	569.1
219.191	581.6
219.568	567.9
219.945	574.5
220.322	577.9
220.699	572
221.076	581.1
221.453	578.4
221.83	570.2
222.208	573.1
222.585	568.1
222.962	574.2
223.34	575.9
223.717	574.7
224.095	568.3
224.473	577
224.851	567.2
225.229	568.2
225.607	585.4
225.985	563.7
226.363	576.5
226.741	578.6
227.119	579.7
227.497	590.1
227.876	562.4
228.254	580.3
228.633	585
229.011	570.1
229.39	581.1
229.769	573.4
230.148	576.6
230.527	587.5
230.905	567
231.284	572.9
231.664	569
232.043	583.1
232.422	580.2
232.801	569.3
233.181	576.9
233.56	567.7
233.94	568
234.319	559.6
234.699	572.8
235.079	609.1
235.458	606.9
235.838	593.1
236.218	565.1
236.598	565.4
236.978	563.8
237.358	568
237.738	569.6
238.119	578.4
238.499	567.8
238.88	571.8
239.26	587.2
239.641	564.6
240.021	571
240.402	573.3
240.783	572.7
241.163	569.9
241.544	578.1
241.925	571.9
242.306	585.4
242.687	569.4
243.069	576.2
243.45	583.3
243.831	569
244.212	569
244.594	609.8
244.975	575.9
245.357	574.7
245.739	573
246.12	577.5
246.502	586.3
246.884	569.9
247.266	574
247.648	580.2
248.03	599.9
248.412	572.4
248.794	579.8
249.176	568.1
249.559	580.8
249.941	568.2
250.323	567
250.706	567.8
251.089	572.5
251.471	580.8
251.854	575.1
252.237	580.4
252.62	587.3
253.002	573.7
253.385	576.4
253.769	587.7
254.152	574.1
254.535	581.5
254.918	567.8
255.301	572.5
255.685	570
256.068	565.6
256.452	597.4
256.835	577.4
257.219	579.5
257.603	586.3
257.986	571
258.37	578.5
258.754	564.7
259.138	575.1
259.522	589.2
259.906	573.4
260.29	579.7
260.675	569.5
261.059	573.8
261.443	567.1
261.828	576
262.212	583.6
262.597	568.3
262.981	573.5
263.366	574.1
263.751	574.7
264.136	566.5
264.521	572.2
264.906	573.5
265.291	582.4
265.676	576.2
266.061	584.4
266.446	596.7
266.831	573.8
267.217	593.6
267.602	579.7
267.987	579.6
268.373	564.9
268.759	587.4
269.144	582
269.53	573.3
269.916	573
270.302	567.4
270.688	578.6
271.074	580.1
271.46	589
271.846	600.4
272.232	575.8
272.618	570.3
273.004	572
273.391	583.5
273.777	586.5
274.164	578.1
274.55	585.9
274.937	577.2
275.324	571.4
275.71	582
276.097	583.1
276.484	572.6
276.871	574
277.258	581.6
277.645	570.1
278.032	577.5
278.419	573.8
278.807	582.5
279.194	567.9
279.581	566.7
279.969	575
280.356	580.1
280.744	577.8
281.131	601.8
281.519	590
281.907	573.8
282.295	574.7
282.682	592.7
283.07	578.7
283.458	582.3
283.846	589.5
284.235	583.4
284.623	585.2
285.011	570
285.399	576.5
285.788	570.8
286.176	565.2
286.565	590.1
286.953	565.2
287.342	572.2
287.731	568
288.119	565.4
288.508	575.1
288.897	569.5
289.286	563.8
289.675	579.4
290.064	586.3
290.453	570.4
290.821	571.9
291.21	589.1
291.599	570.1
291.989	579.3
292.378	584.2
292.768	597.2
293.157	582.2
293.547	583.3
293.936	575.7
294.326	570.1
294.716	583.8
295.106	577.6
295.496	585.4
295.886	589.2
296.276	575.2
296.666	567.9
297.056	569.2
297.446	565.8
297.836	590.1
298.227	574.4
298.617	576.6
299.008	590.2
299.398	572.7
299.789	573.8
300.179	579.7
300.57	589.8
300.961	572.7
301.352	573.5
301.742	583.9
302.133	576.4
302.524	575.2
302.915	576.5
303.307	566.1
303.698	584.2
304.089	577.3
304.48	579.8
304.872	580
305.263	583.4
305.655	568.4
306.046	577.8
306.438	582.7
306.829	572.7
307.221	587.3
307.613	585.8
308.005	584.3
308.397	586.4
308.789	602.5
309.181	601.3
309.573	594.9
309.965	586.2
310.357	572.5
310.749	581
311.142	568.6
311.534	571.8
311.926	580.6
312.319	576
312.711	569.8
313.104	586.9
313.497	574.7
313.889	608.8
314.282	592.2
314.675	599.2
315.068	575.9
315.461	586.8
315.854	602.1
316.247	580.4
316.64	576.3
317.033	579.6
317.405	585.6
317.798	575.3
318.192	581
318.585	570.3
318.979	582.2
319.372	570.5
319.766	574.8
320.16	580.2
320.553	590.9
320.947	599.8
321.341	573.4
321.735	575.1
322.129	560.5
322.523	603.8
322.917	565.5
323.311	581.2
323.705	575.9
324.099	581.7
324.494	589.9
324.888	586.7
325.282	571.7
325.677	582.2
326.071	582.5
326.466	577
326.861	575.1
327.255	585.9
327.65	584
328.045	582.9
328.44	575.2
328.835	571
329.23	570.4
329.625	601.9
330.02	571.6
330.415	594.4
330.81	573.3
331.206	579.6
331.601	566.7
331.996	587.2
332.37	588.4
332.766	565.6
333.161	593.2
333.557	568.7
333.953	577.4
334.348	946.7
334.744	577
335.14	570.8
335.536	571
335.932	591.2
336.328	574.2
336.724	582.7
337.12	575.1
337.516	580.1
337.913	578.5
338.309	589.9
338.705	578
339.102	583.7
339.498	570.9
339.895	586.8
340.291	567.9
340.688	584.1
341.085	567.6
341.481	576.6
341.878	575.5
342.275	591.5
342.672	570.8
343.069	576.8
343.466	567.8
343.842	583.4
344.239	573.7
344.636	575.3
345.033	562.1
345.431	570.3
345.828	573
346.225	571.1
346.623	577.6
347.02	573.5
347.418	579.6
347.816	589.4
348.213	561.7
348.611	580.5
349.009	566.6
349.407	585.4
349.805	566.2
350.203	561.7
350.601	588.8
350.999	568.4
351.397	560.2
351.795	578.5
352.193	581
352.57	578.3
352.969	579.1
353.367	560.9
353.766	568.8
354.164	573.4
354.563	584.2
354.961	570.4
355.36	570.7
355.759	571.3
356.158	565.3
356.557	564.8
356.956	569.2
357.355	559.5
357.754	580
358.153	577.5
358.552	598.4
358.951	571
359.35	585.5
359.75	571.1
360.149	565.2
360.527	560.7
360.926	563.3
361.326	577
361.726	572.4
362.125	570.4
362.525	574.5
362.925	572.7
363.325	570.3
363.724	567.5
364.124	570.4
364.524	562
364.924	572.6
365.324	577.2
365.725	555.9
366.125	572.5
366.525	572.9
366.904	563.1
367.304	548.5
367.705	587.3
368.105	576.1
368.506	567.7
368.906	572
369.307	569.6
369.708	574.8
370.108	560.1
370.509	572.7
370.91	560.2
371.311	571.8
371.712	579.1
372.113	571
372.514	558.4
372.894	565.9
373.295	565.9
373.696	583.2
374.097	581.2
374.499	597.6
374.9	571.3
375.301	561.4
375.703	566.7
376.105	557.2
376.506	572.4
376.908	577
377.309	571.5
377.711	567
378.113	562.9
378.493	566.3
378.895	565.9
379.297	577.3
379.699	557.1
380.102	571
380.504	573.2
380.906	566
381.308	596
381.71	566.8
382.113	577.1
382.515	565.5
382.918	567.9
383.299	566.9
383.701	578.6
384.104	574.9
384.507	548.8
384.909	564.1
385.312	557.3
385.715	554.8
386.118	564.3
386.521	569.2
386.924	581
387.327	561.1
387.709	558.5
388.112	550.1
388.515	566.4
388.918	567.5
389.322	570.5
389.725	561.8
390.129	589.6
390.532	574.3
390.936	564
391.339	563.3
391.743	574.5
392.125	556.9
392.529	584.5
392.933	577.6
393.337	566.6
393.74	570.2
394.144	568
394.548	564.4
394.953	567.4
395.357	576.5
395.761	563.7
396.144	573.2
396.548	566.5
396.952	567.4
397.357	573.8
397.761	564.9
398.166	567.3
398.57	570.3
398.975	560.3
399.379	568.5
399.763	613.1
400.168	565.8
400.572	567.2
400.977	569.5
401.382	587.1
401.787	574.8
402.192	581.3
402.597	581.8
403.002	557.2
403.386	579.5
403.791	588.6
404.197	561.4
404.602	563
405.007	566.3
405.413	565.9
405.818	560.6
406.224	557.6
406.608	565
407.014	560.3
407.42	584.4
407.825	565.2
408.231	580.8
408.637	572.5
409.043	584.3
409.449	558.2
409.834	563.7
410.24	572.1
410.646	576.5
411.052	572.8
411.458	572.7
411.865	572.9
412.271	578.9
412.677	576.6
413.062	572.6
413.469	565.9
413.875	594.3
414.282	581.1
414.689	574.7
415.095	574.2
415.502	562.8
415.888	569.9
416.294	552.6
416.701	605.8
417.108	561
417.515	582.9
417.923	562.1
418.33	589.4
418.715	576.7
419.123	570.1
419.53	566.7
419.937	572
420.345	585.4
420.752	563.6
421.16	585.8
421.546	568.4
421.953	570.8
422.361	556.9
422.769	562.3
423.177	560.2
423.585	585.6
423.992	583.1
424.379	572.4
424.787	573.4
425.195	583.5
425.603	566.3
426.011	577.5
426.419	578.4
426.806	569.9
427.214	569.6
427.623	575.4
428.031	583.2
428.44	568.8
428.848	578.1
429.235	582.5
429.644	575.4
430.053	569.9
430.461	583.8
430.87	592.1
431.279	580.3
431.666	569.1
432.075	571.5
432.484	569.4
432.893	568.7
433.302	587.1
433.711	605.7
434.099	578
434.508	566.5
434.918	562.1
435.327	573.4
435.737	572.3
436.125	568.7
436.534	571.2
436.944	574.9
437.353	575
437.763	592.9
438.173	559.2
438.561	580.8
438.971	550.8
439.381	562.7
439.791	570.9
440.201	548.6
440.589	571.7
440.999	577.5
441.409	567
441.819	559.6
442.23	570.8
442.619	575.8
443.029	569
443.439	569.7
443.85	581.3
444.26	581.9
444.649	577
445.06	566.2
445.471	560.5
445.881	568.2
446.292	577.2
446.682	589
447.092	554.9
447.503	609.9
447.914	566.3
448.325	567.7
448.715	567.9
449.126	560.1
449.537	564.1
449.948	563.4
450.338	562.2
450.75	574.8
451.161	563.9
451.572	575.9
451.984	564.8
452.374	548
452.786	561.6
453.197	570.8
453.609	575.4
453.999	552.3
454.411	559.7
454.823	579.7
455.235	563.2
455.647	562.2
456.037	570.1
456.449	557.9
456.862	568.4
457.274	568.9
457.665	553.4
458.077	568.9
458.489	574.2
458.902	560.3
459.293	568
459.705	563.3
460.118	556.4
460.53	563.5
460.921	565.3
461.334	567.8
461.747	564.4
462.16	578.1
462.551	577.1
462.964	566.2
463.377	552.9
463.79	563.4
464.182	571.9
464.595	557.8
465.008	564.8
465.421	567.2
465.813	561.2
466.226	571.1
466.64	561.6
467.053	603.7
467.445	573.6
467.859	563.3
468.272	561.5
468.686	577.1
469.078	561.9
469.492	549.4
469.906	567.2
470.298	570.5
470.712	561.7
471.126	591
471.54	553.8
471.933	557.6
472.347	559.5
472.761	560.4
473.175	550.5
473.568	555.6
473.982	559.4
474.397	555.9
474.79	561.8
475.204	570.8
475.619	560.7
476.033	565.3
476.426	561.3
476.841	558.1
477.256	583.3
477.649	551.8
478.064	555.4
478.479	555
478.872	554.9
479.287	545.9
479.702	554.8
480.118	559
480.511	557.9
480.927	555.9
481.342	555.5
481.736	563
482.151	556.5
482.566	569.3
482.96	560.3
483.376	566.2
483.792	548.6
484.186	562.1
484.602	558.4
485.017	561.1
485.412	564.7
485.827	566.9
486.243	560.2
486.638	582.3
487.054	567.2
487.47	577.9
487.865	549.9
488.281	554.4
488.697	559
489.092	558.8
489.508	556
489.925	566.9
490.32	552.1
490.736	562.1
491.153	566.7
491.548	563.9
491.964	569.5
492.381	548.8
492.776	562
493.193	557.5
493.61	567.7
494.006	560.6
494.422	566.1
494.84	558.2
495.235	571
495.652	566.1
496.069	556.1
496.465	548.3
496.883	559.6
497.3	587.2
497.696	556.8
498.113	565.2
498.509	550.6
498.927	546.7
499.344	558.5
499.741	548.9
500.158	566
500.576	567.7
500.973	560.9
501.39	551.8
501.787	549.6
502.205	557.1
502.623	551.7
503.02	551.4
503.438	550.4
503.856	555.3
504.253	559
504.671	558.5
505.068	552.8
505.486	554.6
505.905	578.1
506.302	564.2
506.72	570.9
507.118	555
507.536	554.3
507.955	552.4
508.352	562.4
508.771	563.4
509.169	564.2
509.587	550.5
510.006	560
510.404	548.4
510.823	556.4
511.221	552.1
511.64	545.6
512.038	571.4
512.457	558
512.877	554.5
513.275	553.1
513.694	557.3
514.092	548.2
514.512	558.4
514.91	552.5
515.33	557
515.749	558.8
516.148	557.8
516.568	562.3
516.966	550.7
517.386	550
517.785	551.2
518.205	548.5
518.603	547.9
519.024	549.3
519.444	556.8
519.843	560.4
520.263	559
520.662	562.1
521.082	552.5
521.481	552.6
521.902	552.2
522.301	556
522.722	557.7
523.121	546.8
523.542	553.9
523.963	550.7
524.362	559.5
524.783	549.9
525.183	548.9
525.604	560.8
526.003	549.8
526.425	548.3
526.824	558.1
527.246	560.5
527.646	563.6
528.067	559.1
528.467	553.6
528.888	556.2
529.289	553.3
529.71	559.5
530.11	553.5
530.532	554.1
530.932	544.8
531.354	547.4
531.755	585.5
532.176	562
532.577	553.5
532.999	553.8
533.4	551.1
533.822	566.5
534.223	556.4
534.645	556.9
535.046	558.9
535.468	560.4
535.869	568.3
536.292	545.3
536.693	559.1
537.115	555.9
537.516	551.5
537.939	552.3
538.34	571
538.742	565.7
539.165	554.2
539.566	557.4
539.989	545.9
540.391	549.8
540.814	557.4
541.216	558.2
541.639	556.8
542.041	564.8
542.464	548.5
542.866	547.4
543.268	549.2
543.691	560.1
544.093	556.4
544.517	572.8
544.919	547.5
545.343	583.9
545.745	551.7
546.147	558.3
546.571	551.3
546.974	544.4
547.398	551.2
547.8	561.6
548.224	550.1
548.627	552.2
549.03	562.2
549.454	547.3
549.857	545.5
550.281	551.4
550.684	555.2
551.087	562.2
551.512	559
551.915	564.2
552.34	550.2
552.743	550.3
553.146	558.4
553.571	553.5
553.975	570.4
554.399	545
554.803	607.1
555.207	555
555.632	547.6
556.036	557.3
556.461	546
556.865	552.4
557.268	543.1
557.694	554.8
558.098	552.9
558.502	555.6
558.927	553
559.332	546.9
559.736	557.3
560.162	558.9
560.566	552.4
560.992	560.2
561.396	552.3
561.801	552
562.227	557
562.631	551.3
563.036	549.2
563.462	558.6
563.867	555.6
564.272	540.9
564.698	557.7
565.103	542.3
565.508	567.4
565.935	555.5
566.34	554.6
566.745	563
567.172	551.3
567.577	571
567.982	565.1
568.409	561.3
568.815	548.4
569.22	554.8
569.626	565.3
570.053	543.3
570.459	562.2
570.865	559.8
571.292	556.8
571.698	557.9
572.104	545.7
572.531	551
572.937	560.5
573.343	554.5
573.75	549.9
574.177	559.8
574.583	561.8
574.99	553.4
575.396	556.4
575.824	548.2
576.231	559.8
576.637	553.2
577.065	577.7
577.472	551.5
577.879	549.9
578.286	567.9
578.714	549.2
579.121	551.9
579.528	558.4
579.935	559.1
580.364	552.5
580.771	541.3
581.178	542.1
581.585	556.3
582.014	554.6
582.421	548.9
582.829	548.6
583.236	561.2
583.644	545.6
584.073	549.1
584.481	555.7
584.889	551.3
585.296	559.3
585.726	555.1
586.134	542.9
586.542	545.1
586.95	568.2
587.358	543.6
587.787	549.2
588.196	540.4
588.604	549.4
589.012	552.5
589.421	543.1
589.851	547.9
590.259	557.4
590.668	546.2
591.076	588
591.485	543.2
591.894	549.5
592.324	568.7
592.733	561.9
593.142	545.8
593.551	546.4
593.96	558.6
594.369	544
594.8	544
595.209	546.2
595.618	533.8
596.028	548.4
596.437	547.7
596.847	551.8
597.256	556.7
597.687	555.7
598.097	549.7
598.507	537.9
598.917	552.4
599.327	555.3
599.736	554.3
600.146	561.6
600.556	549.8
600.988	560.5
601.398	548
601.808	557.1
602.219	544.6
602.629	554.5
603.039	556.7
603.45	574.9
603.86	550.9
604.271	567.9
604.703	552.8
605.114	551.3
605.525	550.9
605.935	558.7
606.346	568.9
606.757	557.7
607.168	550.4
607.579	546.9
607.99	564
608.402	553.1
608.813	554.7
609.224	551.2
609.636	536.4
610.047	547.1
610.48	549.2
610.892	558.2
611.303	553.8
611.715	546.9
612.127	543.1
612.539	547.5
612.95	547.4
613.362	538.2
613.774	537.1
614.186	537.8
614.599	536.7
615.011	556.5
615.423	534.5
615.835	546.1
616.248	537.1
616.66	555.4
617.073	542.3
617.485	543.6
617.898	552.2
618.311	550.1
618.723	546.2
619.136	576.1
619.549	562.9
619.962	569.3
620.375	549.5
620.788	557.2
621.201	541.7
621.614	553.6
622.028	546.3
622.441	551
622.854	563.2
623.268	546.5
623.681	553.3
624.095	554.1
624.509	555.4
624.922	554.3
625.336	536.9
625.728	554.9
626.142	556.8
626.556	563
626.97	558.3
627.384	547.4
627.799	551.9
628.213	559.8
628.627	549.8
629.041	545
629.456	547.2
629.87	549.3
630.285	560.7
630.699	556.9
631.093	545.5
631.507	551.9
631.922	552.7
632.337	556.6
632.752	538.7
633.167	551.2
633.582	546.3
633.997	545.5
634.412	545.8
634.806	555.2
635.221	537
635.637	554.5
636.052	537.9
636.468	549.1
636.883	564.8
637.299	544
637.715	539.4
638.109	551
638.525	540.3
638.941	559.4
639.357	558.9
639.773	557.3
640.189	542.6
640.584	544.6
641	553.7
641.416	537
641.832	547.2
642.249	543.5
642.665	547.9
643.06	554.6
643.477	560.1
643.894	542.6
644.31	548.4
644.727	553.5
645.123	558.3
645.54	545.1
645.957	548.2
646.374	552.7
646.77	545
647.187	576.1
647.604	549.7
648.021	535.1
648.439	542.2
648.835	550.8
649.252	549.2
649.67	546.6
650.088	549.9
650.484	552
650.902	557.6
651.32	554.6
651.738	544.1
652.134	549
652.552	564.1
652.971	558.5
653.389	549.5
653.786	559
654.204	549.7
654.622	539.7
655.019	548.7
655.438	550.8
655.857	554.6
656.275	549.1
656.673	540.8
657.091	613.2
657.51	546.9
657.908	557.3
658.327	566.9
658.746	537
659.144	544.7
659.563	559.8
659.982	551.2
660.38	543.5
660.8	554.3
661.219	558.8
661.617	548.1
662.037	546.4
662.457	562.3
662.855	538.9
663.275	570.7
663.695	546.7
664.094	545.7
664.514	547.9
664.934	535.9
665.333	561.7
665.753	540.6
666.152	542.1
666.572	545.2
666.993	560.6
667.392	544.1
667.812	546.2
668.212	547.4
668.632	553.8
669.053	540.5
669.453	552.8
669.874	551.3
670.273	550.6
670.694	539.7
671.116	558.2
671.515	555.4
671.937	545.1
672.337	546.8
672.758	544.2
673.158	559.2
673.58	538.4
673.98	550.1
674.402	556.5
674.824	546.7
675.224	545.8
675.646	539.4
676.047	541.3
676.469	548.5
676.869	561.8
677.292	549.2
677.693	541.9
678.115	546.7
678.516	556.3
678.939	551.2
679.34	543.1
679.762	557.8
680.164	553.5
680.586	540.2
680.988	549.1
681.411	572.8
681.812	540.5
682.236	541.7
682.637	543.8
683.061	536.9
683.462	547.7
683.864	542.9
684.288	554.2
684.69	540.8
685.114	553
685.516	557.3
685.94	541.2
686.342	554.9
686.766	544.4
687.168	542
687.571	559.6
687.995	541.1
688.398	534.5
688.822	546.2
689.225	565.1
689.628	562.9
690.052	545
690.456	558.7
690.88	546.9
691.284	540
691.687	553.1
692.112	540.4
692.515	538.8
692.919	546.9
693.344	546.5
693.747	544.7
694.173	540.2
694.577	551.6
694.98	544.1
695.406	543.2
695.81	548.4
696.214	551.5
696.64	550.6
697.044	551.6
697.448	555.1
697.874	547.4
698.279	547.1
698.684	536.4
699.11	541.2
699.514	543.1
699.919	540.7
700.324	540.8
700.75	540.9
701.156	546.3
701.561	550.6
701.987	552.4
702.393	553.9
702.798	561.5
703.203	545
703.63	545.9
704.036	536
704.442	548.7
704.847	542.6
705.274	541.4
705.68	554
706.086	553.4
706.492	540
706.92	541.5
707.326	554.3
707.732	539.8
708.139	533.3
708.545	536.6
708.973	536.8
709.38	538.9
709.786	536.2
710.193	552.1
710.6	545.9
711.028	533.8
711.435	539.2
711.842	541
712.249	537.1
712.656	543.1
713.064	545.9
713.492	538.7
713.9	543.4
714.307	546
714.715	545.7
715.123	545.8
715.53	549.8
715.938	550.2
716.367	544.6
716.775	536.4
717.184	537.3
717.592	537.9
718	554.3
718.408	576.1
718.816	586.6
719.225	550.2
719.633	541
720.042	533.3
720.472	537.3
720.881	564
721.29	554.6
721.699	539.4
722.108	543
722.517	544.9
722.926	544.8
723.335	555.6
723.744	546.4
724.154	543.4
724.563	546.1
724.973	556.4
725.382	546.6
725.792	541.3
726.202	534.7
726.612	558.6
727.022	541.1
727.432	541.1
779.813	543.9
780.223	589.2
780.634	546.1
781.044	537
781.454	539
781.865	553.1
782.276	533.5
782.686	551.2
783.097	543
783.508	540.9
783.919	549.6
784.33	553.6
784.741	556.2
785.152	541.4
785.563	537.2
785.974	538.1
786.386	554.1
786.776	543.2
787.188	547
787.599	533.7
788.011	550.7
788.423	544.7
788.835	538.9
789.247	536.5
789.659	538.8
790.071	534.7
790.483	580.8
790.874	541.7
791.286	551.5
791.699	546.6
792.111	540.3
792.524	545.8
792.937	546.7
793.349	539
793.741	539.8
794.154	538.5
794.567	555.8
794.98	543.3
795.393	531.2
795.785	557.1
796.198	534.8
796.612	549
797.026	545.9
797.439	529.9
797.831	539.4
798.245	534
798.659	543.6
799.073	537.4
799.487	539.1
799.88	550.2
800.294	543.5
800.708	546
801.123	546.6
801.516	563.4
801.93	532.9
802.345	531.3
802.76	546.9
803.153	555.4
803.568	558.6
803.983	555.4
804.377	549.4
804.792	528.7
805.207	531
805.601	541.3
806.016	575.7
806.432	538.9
806.826	573.2
807.242	555.7
807.658	546.7
808.052	537
808.468	535.4
808.884	536.5
809.279	543.4
809.695	556.1
810.111	565.6
810.506	550.5
810.922	550
811.339	539.3
811.734	551.4
812.151	540.3
812.546	535.1
812.963	539.1
813.38	545.1
813.776	543.7
814.193	559.9
814.589	533.5
815.006	539.4
815.402	539.2
815.82	536.5
816.237	548.3
816.633	540.9
817.051	535.9
817.448	544
817.866	533.5
818.262	560.4
818.68	540.7
819.077	537.8
819.495	539.4
819.892	584.2
820.311	537.2
820.708	540.4
821.127	540.4
821.524	553.7
821.943	549.8
822.34	559.1
822.759	545.6
823.157	540.7
823.576	559.6
823.974	553.2
824.393	558.7
824.791	536
825.189	535.4
825.609	541
826.007	541.6
826.427	527.8
826.826	548.7
827.246	541.6
827.644	524.6
828.043	553.1
828.463	539.5
828.862	546.3
829.261	547.1
829.682	537.6
830.081	549.2
830.502	536.1
830.901	542.9
831.301	537
831.722	528.2
832.121	546.5
832.521	535.1
832.943	541.7
833.342	542.8
833.742	532.8
834.164	544.4
834.564	533.3
834.965	544
835.386	534
835.787	539.4
836.188	541.5
836.588	547.9
837.01	545.3
837.411	531.8
837.812	550.7
838.213	542.6
838.636	537.4
839.037	608.6
839.438	550.8
839.84	547
840.263	547.7
840.664	542.1
841.066	539.2
841.468	538.3
841.891	536.6
842.293	550
842.695	547.7
843.098	548.2
843.5	535.7
843.902	544.3
844.326	546.9
844.729	537.5
845.131	555
845.534	542.3
845.937	551.9
846.34	558.5
846.764	534.5
847.167	548
847.571	539.1
847.974	537.4
