#lambda/nm	C1
208.295	471.9
208.67	437.8
209.045	398.2
209.419	405.9
209.794	566.8
210.169	550.3
210.544	655.8
210.919	560.1
211.295	553.7
211.67	566.6
212.045	561.2
212.421	557.4
212.796	584.5
213.172	557.1
213.547	553.9
213.923	554.9
214.299	553.9
214.675	568.9
215.051	562.2
215.427	565.2
215.803	576.5
216.179	564.1
216.555	553.5
216.932	566.6
217.308	559.3
217.684	559.4
218.061	565.4
218.438	558.7
218.814	554.2
219.191	566.1
219.568	547.8
219.945	551.9
220.322	567.1
220.699	562.4
221.076	566.2
221.453	564.2
221.83	547.1
222.208	557.2
222.585	552.9
222.962	562.1
223.34	560.4
223.717	558
224.095	556.9
224.473	564.2
224.851	554.2
225.229	553.2
225.607	573.8
225.985	551.8
226.363	560.3
226.741	560.1
227.119	559
227.497	571.7
227.876	549
228.254	564.9
228.633	562.8
229.011	564.5
229.39	561.8
229.769	565.5
230.148	561.5
230.527	578.4
230.905	559.2
231.284	560.6
231.664	555.4
232.043	566.7
232.422	564.5
232.801	555
233.181	566.3
233.56	557.4
233.94	556
234.319	552
234.699	560.3
235.079	601.4
235.458	594.3
235.838	576.8
236.218	554.8
236.598	547.9
236.978	556.2
237.358	558.1
237.738	558.6
238.119	567.9
238.499	548
238.88	560.6
239.26	574.1
239.641	552.5
240.021	557.8
240.402	559.3
240.783	560.5
241.163	557.1
241.544	557.2
241.925	559.3
242.306	571
242.687	551.3
243.069	564.2
243.45	569.1
243.831	556.3
244.212	558.5
244.594	595.1
244.975	569
245.357	562.3
245.739	556.6
246.12	563.9
246.502	575.6
246.884	559.2
247.266	559.3
247.648	555.9
248.03	576.7
248.412	565.8
248.794	569.2
249.176	559.2
249.559	567.8
249.941	549
250.323	551.1
250.706	552.3
251.089	558.1
251.471	558.5
251.854	563.9
252.237	563.9
252.62	567.9
253.002	563.8
253.385	563.9
253.769	573.1
254.152	564.4
254.535	570.6
254.918	554
255.301	561.7
255.685	554.8
256.068	553.9
256.452	581.2
256.835	566.2
257.219	571.6
257.603	568.8
257.986	550.1
258.37	564.2
258.754	548.2
259.138	566
259.522	572.4
259.906	556.5
260.29	561.2
260.675	553.3
261.059	563.2
261.443	554.7
261.828	561.2
262.212	562.2
262.597	552.1
262.981	549.5
263.366	566.3
263.751	561.7
264.136	555.2
264.521	556.1
264.906	550.8
265.291	571.8
265.676	556.7
266.061	565.1
266.446	577.5
266.831	562.4
267.217	581.1
267.602	566.4
267.987	560.9
268.373	558.1
268.759	566.8
269.144	569.2
269.53	560.1
269.916	556.6
270.302	557.6
270.688	564.9
271.074	559.5
271.46	572.2
271.846	587.9
272.232	556.8
272.618	553.4
273.004	560.7
273.391	561.4
273.777	570.2
274.164	558.9
274.55	569.9
274.937	559.1
275.324	556
275.71	559.8
276.097	560
276.484	555.1
276.871	565.6
277.258	566.2
277.645	556.1
278.032	561.9
278.419	559
278.807	564.7
279.194	554.5
279.581	554.5
279.969	569.2
280.356	564.6
280.744	565.4
281.131	578.8
281.519	574.7
281.907	559.2
282.295	557.7
282.682	568.6
283.07	563.2
283.458	571.3
283.846	571.4
284.235	570.8
284.623	571.9
285.011	556.7
285.399	560.6
285.788	559.6
286.176	549.8
286.565	567.4
286.953	559.1
287.342	563.7
287.731	555.6
288.119	552.1
288.508	560.6
288.897	559.7
289.286	550.1
289.675	565.8
290.064	573.8
290.453	560.8
290.821	559.8
291.21	571.5
291.599	561
291.989	560.8
292.378	565.6
292.768	580.3
293.157	564.9
293.547	570.4
293.936	559.2
294.326	553.1
294.716	563.4
295.106	557.5
295.496	571
295.886	568.1
296.276	560.2
296.666	555
297.056	559
297.446	554.9
297.836	579.2
298.227	554
298.617	561.6
299.008	574.4
299.398	561
299.789	555.3
300.179	564.6
300.57	577.7
300.961	556.8
301.352	562.9
301.742	571
302.133	555.3
302.524	565.1
302.915	562.3
303.307	554.6
303.698	567.8
304.089	567.1
304.48	557.7
304.872	561.9
305.263	562.7
305.655	550.1
306.046	569.5
306.438	568.6
306.829	555.2
307.221	576.1
307.613	566.1
308.005	572
308.397	574
308.789	584
309.181	583.6
309.573	580.6
309.965	565.2
310.357	559.9
310.749	562.7
311.142	552.3
311.534	552.8
311.926	566.6
312.319	565.6
312.711	563.3
313.104	569.6
313.497	559.6
313.889	592.7
314.282	574.3
314.675	577.1
315.068	559.1
315.461	566.4
315.854	587.9
316.247	567.9
316.64	557.6
317.033	563.3
317.405	570.8
317.798	559
318.192	565.2
318.585	552.4
318.979	562.7
319.372	554.8
319.766	560.7
320.16	572.1
320.553	572.4
320.947	581.2
321.341	564.4
321.735	566.4
322.129	543.4
322.523	579.1
322.917	564.3
323.311	568.6
323.705	564.8
324.099	570.6
324.494	574.6
324.888	572
325.282	561
325.677	567.8
326.071	569.1
326.466	571.7
326.861	568.2
327.255	573.3
327.65	579.1
328.045	577.9
328.44	569.9
328.835	563.9
329.23	556.6
329.625	586.4
330.02	556
330.415	579.5
330.81	564.5
331.206	558.1
331.601	559.3
331.996	570.6
332.37	574.6
332.766	552.8
333.161	582.6
333.557	556.6
333.953	566.7
334.348	917.8
334.744	563.4
335.14	557.9
335.536	561.1
335.932	571.4
336.328	562.8
336.724	571.4
337.12	560.5
337.516	563.3
337.913	567.3
338.309	573
338.705	561.9
339.102	576
339.498	559.8
339.895	574
340.291	560
340.688	571.6
341.085	552.8
341.481	559.7
341.878	559.6
342.275	576.7
342.672	549.7
343.069	555.8
343.466	551.6
343.842	571.7
344.239	553.4
344.636	555.1
345.033	554.9
345.431	550.5
345.828	563.6
346.225	554.7
346.623	574.3
347.02	560.7
347.418	570
347.816	569.7
348.213	555.8
348.611	562.2
349.009	554.2
349.407	570.1
349.805	549.8
350.203	547.8
350.601	572.5
350.999	554.8
351.397	548.7
351.795	563.9
352.193	567.2
352.57	570.2
352.969	569.7
353.367	556.5
353.766	553.2
354.164	554.2
354.563	571.3
354.961	563.3
355.36	557.1
355.759	555.4
356.158	548.2
356.557	550.8
356.956	552.2
357.355	547.7
357.754	558.4
358.153	561.4
358.552	579.2
358.951	560.8
359.35	564.5
359.75	549.5
360.149	549.2
360.527	543.5
360.926	549.4
361.326	558.5
361.726	556.6
362.125	550.5
362.525	559.7
362.925	553.7
363.325	560.9
363.724	558.8
364.124	550.9
364.524	554.7
364.924	554.7
365.324	568.7
365.725	548.3
366.125	565.9
366.525	559.3
366.904	552.4
367.304	539.1
367.705	571.2
368.105	561.7
368.506	544.3
368.906	551.8
369.307	551.4
369.708	554.5
370.108	545.4
370.509	562.7
370.91	548.6
371.311	553.6
371.712	560.1
372.113	555.2
372.514	540.5
372.894	552.4
373.295	550.6
373.696	565.8
374.097	562.2
374.499	578.8
374.9	565
375.301	547
375.703	556.7
376.105	544.6
376.506	552.7
376.908	561.3
377.309	555.9
377.711	553.9
378.113	551.9
378.493	550.7
378.895	548.9
379.297	558.9
379.699	548
380.102	563.7
380.504	554.7
380.906	548.3
381.308	572.9
381.71	553.8
382.113	560.1
382.515	554.6
382.918	553.5
383.299	551.5
383.701	560.5
384.104	559.3
384.507	537.6
384.909	555.3
385.312	541.9
385.715	543.1
386.118	552.2
386.521	548.8
386.924	564.6
387.327	549
387.709	544.2
388.112	542
388.515	551.9
388.918	549.3
389.322	557
389.725	548.9
390.129	572.3
390.532	557.6
390.936	541.8
391.339	543.4
391.743	556.6
392.125	547
392.529	561.6
392.933	565.1
393.337	554.2
393.74	546.8
394.144	547.8
394.548	545.8
394.953	552.3
395.357	554.9
395.761	546.7
396.144	555.3
396.548	550.6
396.952	554.3
397.357	549.6
397.761	547.5
398.166	550.3
398.57	556.9
398.975	540.7
399.379	554.2
399.763	594
400.168	554.2
400.572	549.3
400.977	550.2
401.382	564.8
401.787	564
402.192	570.5
402.597	563.1
403.002	537.6
403.386	567.2
403.791	569.1
404.197	547.4
404.602	556.5
405.007	553.1
405.413	550.2
405.818	544.6
406.224	546.2
406.608	551.4
407.014	545.4
407.42	565.4
407.825	551.3
408.231	564.7
408.637	553.7
409.043	566.5
409.449	552.9
409.834	547.6
410.24	555
410.646	567.3
411.052	560.7
411.458	554.9
411.865	564.7
412.271	562.4
412.677	556.9
413.062	558.4
413.469	541.4
413.875	577.4
414.282	563.2
414.689	555.9
415.095	558.9
415.502	550.6
415.888	551.8
416.294	535.3
416.701	590.6
417.108	545.3
417.515	564.9
417.923	550.4
418.33	574.3
418.715	562.3
419.123	551.4
419.53	549
419.937	559.4
420.345	568.7
420.752	547.2
421.16	562.4
421.546	550
421.953	563.6
422.361	548.5
422.769	550.9
423.177	549.6
423.585	579.2
423.992	573.4
424.379	566.1
424.787	563.2
425.195	572.8
425.603	555.2
426.011	567.3
426.419	570
426.806	552.9
427.214	559.1
427.623	567.7
428.031	572.4
428.44	558.9
428.848	568
429.235	574.1
429.644	557.5
430.053	556
430.461	573.4
430.87	585
431.279	565.8
431.666	551.1
432.075	554.2
432.484	562.1
432.893	551.6
433.302	576.4
433.711	593.4
434.099	557.8
434.508	555.8
434.918	542
435.327	560
435.737	553.4
436.125	555.7
436.534	554.3
436.944	556
437.353	554.2
437.763	574
438.173	547.5
438.561	565.4
438.971	537.7
439.381	552.1
439.791	557.5
440.201	531.4
440.589	558
440.999	560.7
441.409	559.2
441.819	542.8
442.23	564.3
442.619	560.3
443.029	550.7
443.439	555.4
443.85	560.6
444.26	567.5
444.649	557.8
445.06	550.4
445.471	546.9
445.881	555.7
446.292	565.3
446.682	571.9
447.092	540
447.503	598.2
447.914	557.5
448.325	549.8
448.715	556.4
449.126	546.1
449.537	547.7
449.948	550.8
450.338	550.9
450.75	551.5
451.161	556.4
451.572	559.9
451.984	550.4
452.374	538.6
452.786	549.3
453.197	549.3
453.609	555
453.999	541.4
454.411	540
454.823	559.3
455.235	555.5
455.647	551.9
456.037	551.2
456.449	540.7
456.862	554
457.274	551.4
457.665	542.4
458.077	555.5
458.489	559.8
458.902	553.8
459.293	551.2
459.705	552.4
460.118	546.8
460.53	551.4
460.921	554.2
461.334	554.5
461.747	555.9
462.16	562.4
462.551	557.4
462.964	560.2
463.377	541.4
463.79	549.1
464.182	555.9
464.595	544
465.008	555.1
465.421	554.2
465.813	540.7
466.226	555.5
466.64	542.4
467.053	584.6
467.445	559.8
467.859	545.9
468.272	549.7
468.686	561.3
469.078	545.4
469.492	540.4
469.906	549.8
470.298	552.3
470.712	541
471.126	577.4
471.54	537.7
471.933	544.9
472.347	546.2
472.761	544.3
473.175	542.8
473.568	543.7
473.982	535.4
474.397	542.6
474.79	545.9
475.204	552.4
475.619	543.9
476.033	548.6
476.426	542.7
476.841	540.7
477.256	562
477.649	541.5
478.064	540.2
478.479	537.8
478.872	538.2
479.287	535.8
479.702	538.7
480.118	543.5
480.511	544.4
480.927	536.8
481.342	543.7
481.736	549.3
482.151	542
482.566	555.1
482.96	539.9
483.376	554.8
483.792	539.9
484.186	545.5
484.602	547.8
485.017	544.2
485.412	539.4
485.827	550.8
486.243	545.5
486.638	569.9
487.054	553.3
487.47	557.4
487.865	544.4
488.281	542.5
488.697	535.2
489.092	543.9
489.508	536.8
489.925	552
490.32	537.7
490.736	552.1
491.153	541.5
491.548	546.8
491.964	551.2
492.381	534.1
492.776	541.9
493.193	546.8
493.61	549.1
494.006	550.2
494.422	555.2
494.84	540.4
495.235	554.2
495.652	545.1
496.069	549.6
496.465	532.6
496.883	546.7
497.3	564.2
497.696	540.7
498.113	550.9
498.509	535.9
498.927	535.9
499.344	536.2
499.741	538.4
500.158	553.2
500.576	551.9
500.973	548.4
501.39	538.5
501.787	534.1
502.205	541.3
502.623	540
503.02	533.1
503.438	538.7
503.856	539.2
504.253	537.9
504.671	542.4
505.068	541.3
505.486	537.8
505.905	555.7
506.302	538.5
506.72	554.8
507.118	534.6
507.536	544.7
507.955	539.7
508.352	544.9
508.771	545.6
509.169	549.5
509.587	537.6
510.006	541.9
510.404	533.7
510.823	538.1
511.221	538.6
511.64	540.4
512.038	555.5
512.457	549
512.877	542.7
513.275	542.6
513.694	537.9
514.092	539.2
514.512	544.8
514.91	542.7
515.33	540.2
515.749	534.9
516.148	548.3
516.568	543.1
516.966	545.1
517.386	540.5
517.785	543.3
518.205	538.1
518.603	534.3
519.024	534.5
519.444	543.8
519.843	550.9
520.263	549.7
520.662	546.7
521.082	548.5
521.481	543.4
521.902	539.9
522.301	540.9
522.722	543.4
523.121	538.6
523.542	536.4
523.963	545.8
524.362	545.6
524.783	549.8
525.183	539.2
525.604	550.3
526.003	539.5
526.425	533.6
526.824	545.3
527.246	547.5
527.646	550.8
528.067	548.9
528.467	537.6
528.888	546.6
529.289	539.1
529.71	543.5
530.11	540.1
530.532	542.5
530.932	535.4
531.354	531
531.755	570.3
532.176	547.9
532.577	535.7
532.999	544.9
533.4	536.1
533.822	549.3
534.223	535.9
534.645	538.8
535.046	537.4
535.468	542.2
535.869	554.7
536.292	544.9
536.693	539.2
537.115	543.3
537.516	534.5
537.939	533.8
538.34	559.4
538.742	554.1
539.165	542.7
539.566	541.6
539.989	535.6
540.391	534.3
540.814	544.7
541.216	540.8
541.639	544.2
542.041	548.1
542.464	541.6
542.866	536.9
543.268	532.1
543.691	540.4
544.093	545.4
544.517	558.2
544.919	535.3
545.343	561.1
545.745	531.2
546.147	545.4
546.571	535.5
546.974	532.4
547.398	539.3
547.8	551.8
548.224	537
548.627	528.8
549.03	542.7
549.454	535.9
549.857	535.3
550.281	532.1
550.684	535.1
551.087	550.7
551.512	542.1
551.915	545.9
552.34	540.5
552.743	531.1
553.146	541.3
553.571	538.3
553.975	560.3
554.399	533.8
554.803	586.3
555.207	538.1
555.632	539.4
556.036	544.1
556.461	534.6
556.865	538.5
557.268	534.1
557.694	535.6
558.098	541.8
558.502	539
558.927	534.9
559.332	535
559.736	534.8
560.162	548.1
560.566	539.2
560.992	541.1
561.396	540.3
561.801	532
562.227	537.9
562.631	529.7
563.036	534.5
563.462	543.3
563.867	542.9
564.272	534.3
564.698	542.4
565.103	532.6
565.508	558.9
565.935	539
566.34	538.4
566.745	553.9
567.172	538.1
567.577	553.6
567.982	556.9
568.409	543.1
568.815	534
569.22	541.6
569.626	545
570.053	526.5
570.459	544
570.865	543.1
571.292	543.3
571.698	545.1
572.104	526.9
572.531	530.1
572.937	552
573.343	534.8
573.75	535.2
574.177	539.9
574.583	545.3
574.99	536.8
575.396	544.8
575.824	534.7
576.231	537.9
576.637	536
577.065	559.5
577.472	530
577.879	538.1
578.286	549.3
578.714	527.7
579.121	534.9
579.528	542.6
579.935	545
580.364	539.2
580.771	524.8
581.178	530.7
581.585	541.5
582.014	545.3
582.421	530.9
582.829	534.1
583.236	549.3
583.644	531.7
584.073	534
584.481	537.8
584.889	531.3
585.296	539.1
585.726	543.2
586.134	534.9
586.542	539.2
586.95	550.6
587.358	530.6
587.787	538.7
588.196	529.8
588.604	535.8
589.012	539.3
589.421	527.5
589.851	533.6
590.259	543.5
590.668	535.7
591.076	573.8
591.485	529.9
591.894	533.6
592.324	546.8
592.733	554.2
593.142	527
593.551	537.2
593.96	564.8
594.369	526.1
594.8	529.8
595.209	532.3
595.618	518.5
596.028	536.7
596.437	526.4
596.847	535.4
597.256	537.6
597.687	540.5
598.097	535.4
598.507	526.4
598.917	531.7
599.327	537.7
599.736	537.8
600.146	547
600.556	538
600.988	545.2
601.398	531
601.808	540.8
602.219	525.5
602.629	535.4
603.039	537
603.45	560.6
603.86	539.4
604.271	551.1
604.703	537.8
605.114	541.6
605.525	536.7
605.935	538.5
606.346	553.3
606.757	541.8
607.168	538.4
607.579	533.6
607.99	543.9
608.402	538.8
608.813	540.7
609.224	534.9
609.636	527.4
610.047	530.1
610.48	539.1
610.892	546.8
611.303	543.8
611.715	533.7
612.127	532.7
612.539	530.5
612.95	537.5
613.362	530.7
613.774	525.7
614.186	529.8
614.599	527.4
615.011	543.1
615.423	530.8
615.835	531.6
616.248	532.3
616.66	541.7
617.073	526.1
617.485	532.9
617.898	541.8
618.311	542.1
618.723	530
619.136	560.9
619.549	548
619.962	558.5
620.375	535.9
620.788	543
621.201	528.8
621.614	540.8
622.028	535.7
622.441	541.5
622.854	548.2
623.268	530.2
623.681	539.7
624.095	534.8
624.509	536.1
624.922	539.5
625.336	527.8
625.728	538.2
626.142	548.5
626.556	550.3
626.97	536.5
627.384	528.5
627.799	536.2
628.213	543.1
628.627	539.3
629.041	535.6
629.456	532.6
629.87	536.9
630.285	544.3
630.699	546.4
631.093	530.5
631.507	535.6
631.922	539.1
632.337	554
632.752	530.5
633.167	537.4
633.582	534.1
633.997	530.9
634.412	529.5
634.806	536.8
635.221	528.3
635.637	545.7
636.052	520.5
636.468	538.8
636.883	548
637.299	539.1
637.715	523.8
638.109	529.6
638.525	526
638.941	545.5
639.357	539.5
639.773	550.5
640.189	532.1
640.584	536.6
641	534.9
641.416	525.8
641.832	534.5
642.249	529.8
642.665	534.3
643.06	539.3
643.477	536.1
643.894	523.5
644.31	528.6
644.727	536.8
645.123	531.1
645.54	529.1
645.957	536
646.374	538.2
646.77	537.2
647.187	563
647.604	538.1
648.021	521.9
648.439	532.4
648.835	541.7
649.252	536.2
649.67	530.7
650.088	536.2
650.484	537
650.902	545
651.32	537.8
651.738	535
652.134	541.6
652.552	545.9
652.971	543.8
653.389	529.8
653.786	544.3
654.204	535.8
654.622	531.6
655.019	533.9
655.438	536.7
655.857	528.5
656.275	533.8
656.673	529
657.091	595.4
657.51	523.7
657.908	539.6
658.327	549.3
658.746	530
659.144	534.4
659.563	542
659.982	539
660.38	526.1
660.8	532.6
661.219	538.8
661.617	538.5
662.037	529.1
662.457	549
662.855	528.4
663.275	563.4
663.695	535
664.094	534.6
664.514	538.6
664.934	527.1
665.333	534.8
665.753	530.3
666.152	525.2
666.572	524.8
666.993	542.7
667.392	529.8
667.812	533.8
668.212	535.8
668.632	541.8
669.053	529.6
669.453	542
669.874	536.7
670.273	531.5
670.694	529.3
671.116	543.8
671.515	539.5
671.937	534
672.337	526.5
672.758	528.9
673.158	537.3
673.58	525.5
673.98	534.2
674.402	539.3
674.824	528.8
675.224	524.5
675.646	529.2
676.047	528.3
676.469	533.1
676.869	540.2
677.292	542.6
677.693	530.2
678.115	525.1
678.516	535
678.939	536.4
679.34	531
679.762	540.1
680.164	535.4
680.586	528.1
680.988	540.2
681.411	553.3
681.812	532
682.236	526.7
682.637	525.4
683.061	523.2
683.462	538.4
683.864	528.8
684.288	543.3
684.69	525.3
685.114	541.5
685.516	542.1
685.94	524.8
686.342	540.3
686.766	525.9
687.168	524.7
687.571	548.8
687.995	525.1
688.398	528.7
688.822	527.9
689.225	546.6
689.628	544.4
690.052	529.1
690.456	539.1
690.88	527.6
691.284	519.6
691.687	540.7
692.112	519.7
692.515	528.9
692.919	531.4
693.344	532.7
693.747	525.9
694.173	523.3
694.577	544.4
694.98	526.6
695.406	532.5
695.81	534
696.214	534.4
696.64	528.5
697.044	534.6
697.448	538.9
697.874	524.7
698.279	524.4
698.684	528.2
699.11	528.3
699.514	534.2
699.919	531.2
700.324	524.7
700.75	534.3
701.156	532.3
701.561	537.8
701.987	530
702.393	540.9
702.798	541.4
703.203	534.6
703.63	528.7
704.036	534.8
704.442	539.1
704.847	526.1
705.274	532.5
705.68	539.5
706.086	535.5
706.492	526.7
706.92	530.3
707.326	541.4
707.732	531.7
708.139	532.1
708.545	521.4
708.973	529
709.38	532.3
709.786	526.4
710.193	541.6
710.6	531.7
711.028	525
711.435	531.7
711.842	530.6
712.249	529.2
712.656	525.1
713.064	541.8
713.492	520.1
713.9	526.9
714.307	534.9
714.715	532.3
715.123	533.3
715.53	538
715.938	540.4
716.367	535.7
716.775	528.8
717.184	524.9
717.592	534.4
718	539.3
718.408	562.7
718.816	572
719.225	535.6
719.633	535.4
720.042	522.2
720.472	532
720.881	549.2
721.29	532.3
721.699	523
722.108	534.8
722.517	527
722.926	529.2
723.335	537.9
723.744	530.2
724.154	530.7
724.563	528.9
724.973	531.8
725.382	531.2
725.792	529.7
726.202	521.3
726.612	545.8
727.022	532.7
727.432	527.1
779.813	528
780.223	566.4
780.634	531.2
781.044	525.7
781.454	526.4
781.865	542.5
782.276	523.7
782.686	534.4
783.097	535.9
783.508	528.7
783.919	529.9
784.33	539.9
784.741	544.3
785.152	522.8
785.563	519.6
785.974	529.4
786.386	539.5
786.776	529.2
787.188	528.2
787.599	522.7
788.011	534
788.423	532.9
788.835	527.6
789.247	525.2
789.659	525.9
790.071	522
790.483	566.8
790.874	519.6
791.286	540
791.699	522.1
792.111	527.2
792.524	530
792.937	525.5
793.349	515.5
793.741	528.8
794.154	525.7
794.567	548
794.98	525.2
795.393	516.2
795.785	541.8
796.198	524.6
796.612	532.1
797.026	527.5
797.439	516.1
797.831	532.5
798.245	524.1
798.659	526.7
799.073	525.3
799.487	529.5
799.88	530.8
800.294	526.2
800.708	535.1
801.123	524.7
801.516	545.7
801.93	519
802.345	516
802.76	524.9
803.153	540.6
803.568	540.7
803.983	536.6
804.377	529.5
804.792	521.2
805.207	514.6
805.601	528.5
806.016	559.6
806.432	518.2
806.826	557.3
807.242	541.1
807.658	525.4
808.052	526.3
808.468	525
808.884	526.5
809.279	532.4
809.695	540
810.111	547.2
810.506	536.4
810.922	541.4
811.339	528.7
811.734	537.6
812.151	529.4
812.546	525.6
812.963	523.3
813.38	534.3
813.776	531.9
814.193	549
814.589	523.1
815.006	528.1
815.402	521.4
815.82	528
816.237	525.9
816.633	528.3
817.051	520.2
817.448	528.8
817.866	521.2
818.262	542.7
818.68	524.7
819.077	528.5
819.495	530.1
819.892	562.5
820.311	521.4
820.708	524.8
821.127	521.4
821.524	541.3
821.943	531.5
822.34	541.5
822.759	528.9
823.157	526.4
823.576	538.2
823.974	532.9
824.393	537.9
824.791	522.6
825.189	524.7
825.609	523.2
826.007	527.2
826.427	516.8
826.826	524.4
827.246	531.3
827.644	513.5
828.043	540.6
828.463	521.9
828.862	534.5
829.261	531.4
829.682	515.9
830.081	530.1
830.502	527
830.901	529.4
831.301	523.3
831.722	518.9
832.121	525.8
832.521	520.7
832.943	525.7
833.342	525.5
833.742	524.3
834.164	524.6
834.564	518.1
834.965	527.2
835.386	525.2
835.787	526.7
836.188	525.1
836.588	531.6
837.01	528.8
837.411	520
837.812	535.7
838.213	532.2
838.636	527.8
839.037	589.4
839.438	527.6
839.84	528.4
840.263	529.5
840.664	527.3
841.066	528.3
841.468	528
841.891	526.4
842.293	533.4
842.695	532
843.098	534.9
843.5	521.5
843.902	524.6
844.326	529.5
844.729	529.8
845.131	532.7
845.534	528.2
845.937	535.1
846.34	535.5
846.764	520.6
847.167	530.4
