#lambda/nm	C1
208.295	474
208.67	437.6
209.045	401.6
209.419	403.5
209.794	583.7
210.169	559.7
210.544	681.9
210.919	583.3
211.295	571
211.67	580.5
212.045	574.2
212.421	576.4
212.796	607.4
213.172	574.5
213.547	570.5
213.923	576
214.299	574.5
214.675	584.6
215.051	578.5
215.427	584.3
215.803	594.2
216.179	582
216.555	573.5
216.932	580.9
217.308	581.2
217.684	582.7
218.061	581.3
218.438	580
218.814	571.9
219.191	581.8
219.568	571.3
219.945	573
220.322	582
220.699	578.7
221.076	581.5
221.453	579.7
221.83	572.7
222.208	576.7
222.585	573
222.962	580.1
223.34	579
223.717	578.9
224.095	577.6
224.473	577.7
224.851	569.1
225.229	571.3
225.607	594.5
225.985	565.6
226.363	578.1
226.741	581
227.119	577.9
227.497	592
227.876	566.9
228.254	591.5
228.633	583.8
229.011	581.8
229.39	580.6
229.769	582
230.148	582.1
230.527	596.8
230.905	574.6
231.284	582.8
231.664	579.9
232.043	586.7
232.422	583.2
232.801	573.3
233.181	578.8
233.56	576.2
233.94	575.9
234.319	566.4
234.699	571.6
235.079	616.4
235.458	611
235.838	596.6
236.218	563.4
236.598	565.9
236.978	569.5
237.358	576
237.738	571
238.119	578.9
238.499	565.8
238.88	583.3
239.26	593.1
239.641	568.9
240.021	575.4
240.402	575.9
240.783	571.6
241.163	576.1
241.544	585.5
241.925	577
242.306	587.3
242.687	573.5
243.069	574.5
243.45	582.2
243.831	572.9
244.212	576.5
244.594	616.3
244.975	583.7
245.357	575.4
245.739	571.3
246.12	577.4
246.502	593.1
246.884	574.4
247.266	572
247.648	577.7
248.03	601.3
248.412	576.3
248.794	581.3
249.176	573.7
249.559	587.9
249.941	569.4
250.323	565.5
250.706	565.9
251.089	575.4
251.471	583.3
251.854	575.3
252.237	578
252.62	585.5
253.002	573.1
253.385	581.7
253.769	593.6
254.152	578.5
254.535	585.4
254.918	572.9
255.301	572.4
255.685	581
256.068	571.4
256.452	599.3
256.835	584.7
257.219	581.1
257.603	593.7
257.986	571.1
258.37	578.4
258.754	565.7
259.138	585
259.522	587.7
259.906	573
260.29	581.4
260.675	576.5
261.059	577
261.443	575.8
261.828	585.4
262.212	583.1
262.597	567.7
262.981	574.2
263.366	582.4
263.751	580.1
264.136	573.2
264.521	580.3
264.906	574.2
265.291	590
265.676	573.6
266.061	584.9
266.446	596.6
266.831	577.6
267.217	602.5
267.602	577.2
267.987	580.5
268.373	578.8
268.759	589.2
269.144	585.9
269.53	579.8
269.916	577.5
270.302	577.4
270.688	580.8
271.074	578.5
271.46	586.3
271.846	607.9
272.232	582.6
272.618	578.8
273.004	582.1
273.391	589.5
273.777	591.6
274.164	586.4
274.55	594.5
274.937	579.8
275.324	577.3
275.71	584.1
276.097	589.4
276.484	571.4
276.871	585.5
277.258	584.8
277.645	569.4
278.032	579.2
278.419	579
278.807	583.1
279.194	566.3
279.581	577.4
279.969	582.1
280.356	582.2
280.744	581.5
281.131	606
281.519	587
281.907	582.4
282.295	575.4
282.682	593.4
283.07	584.9
283.458	587.6
283.846	597.1
284.235	590.1
284.623	591.9
285.011	572.5
285.399	581.8
285.788	581.8
286.176	567.8
286.565	586.3
286.953	574.9
287.342	578.8
287.731	571.1
288.119	573.8
288.508	570.6
288.897	576
289.286	565.9
289.675	576.5
290.064	589.8
290.453	577.1
290.821	579.5
291.21	589.8
291.599	578.2
291.989	585.8
292.378	584.8
292.768	600.5
293.157	579.8
293.547	588.7
293.936	582.8
294.326	577.2
294.716	581.7
295.106	578.5
295.496	587.4
295.886	595
296.276	574.2
296.666	571.6
297.056	575.7
297.446	575.6
297.836	593
298.227	582.3
298.617	582.1
299.008	592.4
299.398	577.2
299.789	576.7
300.179	589.4
300.57	592.3
300.961	577.7
301.352	573
301.742	593.9
302.133	583.9
302.524	579.4
302.915	576.2
303.307	574.7
303.698	588.7
304.089	584
304.48	576
304.872	588.6
305.263	578.1
305.655	576.5
306.046	583.4
306.438	588.1
306.829	578
307.221	593
307.613	585.6
308.005	591.7
308.397	593.8
308.789	603.6
309.181	606.1
309.573	599.8
309.965	594.9
310.357	578.4
310.749	581.4
311.142	583.2
311.534	568.6
311.926	593.7
312.319	583.6
312.711	574.9
313.104	589.8
313.497	577.2
313.889	618.3
314.282	592.7
314.675	610.7
315.068	588.1
315.461	590.2
315.854	608.9
316.247	593.1
316.64	576.9
317.033	572.9
317.405	583.5
317.798	577.1
318.192	587.8
318.585	570.6
318.979	588.3
319.372	574.4
319.766	580.6
320.16	588
320.553	591.1
320.947	600
321.341	577.2
321.735	578
322.129	568.4
322.523	598.9
322.917	572.2
323.311	583
323.705	580.7
324.099	580.5
324.494	594.3
324.888	588
325.282	577.1
325.677	582.8
326.071	588.5
326.466	589.6
326.861	590.4
327.255	594
327.65	590.2
328.045	594.3
328.44	589.8
328.835	578
329.23	575.7
329.625	600.9
330.02	573.7
330.415	605.1
330.81	580
331.206	579.4
331.601	572.4
331.996	585.7
332.37	588.6
332.766	572.8
333.161	605.5
333.557	577.4
333.953	582.4
334.348	954.2
334.744	585.6
335.14	575.7
335.536	581.6
335.932	597.8
336.328	580.6
336.724	591.2
337.12	580.2
337.516	586.9
337.913	589.4
338.309	592.7
338.705	579.1
339.102	589.1
339.498	574.6
339.895	595.9
340.291	580
340.688	593.7
341.085	574.7
341.481	576.9
341.878	579.3
342.275	600.6
342.672	571.8
343.069	577.3
343.466	563.9
343.842	587.1
344.239	574.9
344.636	580.7
345.033	570.1
345.431	566.2
345.828	579.8
346.225	569.3
346.623	592
347.02	574.2
347.418	590.5
347.816	595.6
348.213	565.2
348.611	583.9
349.009	575.2
349.407	588.3
349.805	570.5
350.203	566.8
350.601	589.3
350.999	576.5
351.397	570.9
351.795	573.5
352.193	585.8
352.57	584.8
352.969	588.6
353.367	569.4
353.766	574.8
354.164	576.4
354.563	585.8
354.961	581.8
355.36	576.4
355.759	581.7
356.158	566
356.557	565.4
356.956	565.6
357.355	567.8
357.754	580.7
358.153	575.5
358.552	596.2
358.951	573.4
359.35	585.1
359.75	571.8
360.149	569.3
360.527	563.2
360.926	566.8
361.326	578.6
361.726	575.4
362.125	572.4
362.525	584.5
362.925	574.4
363.325	576.2
363.724	575.6
364.124	567.2
364.524	569.3
364.924	575.1
365.324	583.9
365.725	556.1
366.125	578.6
366.525	573.4
366.904	567.7
367.304	557.6
367.705	590.7
368.105	586.3
368.506	571.8
368.906	577
369.307	568.6
369.708	578.2
370.108	562.5
370.509	577.6
370.91	566
371.311	569.4
371.712	571.8
372.113	572.9
372.514	562.4
372.894	575.9
373.295	566.4
373.696	579.9
374.097	579.1
374.499	608.3
374.9	576.1
375.301	563.7
375.703	575.9
376.105	568.5
376.506	573.1
376.908	578.7
377.309	579
377.711	577.8
378.113	568.6
378.493	576.8
378.895	568.7
379.297	583.6
379.699	563.6
380.102	580.5
380.504	571.3
380.906	563.6
381.308	597.2
381.71	568.7
382.113	584.7
382.515	572.8
382.918	581.1
383.299	576.8
383.701	580
384.104	574.7
384.507	553.2
384.909	568
385.312	557.7
385.715	565.5
386.118	567.8
386.521	560.4
386.924	578.1
387.327	564
387.709	559.7
388.112	560
388.515	573.6
388.918	572.3
389.322	576.5
389.725	566.4
390.129	592
390.532	578.8
390.936	565.1
391.339	566.8
391.743	575.1
392.125	564.7
392.529	581.6
392.933	580.6
393.337	577.8
393.74	573.5
394.144	577.2
394.548	570.3
394.953	565.6
395.357	583.1
395.761	571.2
396.144	576.7
396.548	567.8
396.952	574.8
397.357	575.6
397.761	566.7
398.166	567.7
398.57	568.3
398.975	571
399.379	576
399.763	616.5
400.168	572
400.572	568.3
400.977	565.8
401.382	585.6
401.787	577
402.192	584.6
402.597	583.8
403.002	555.9
403.386	584.2
403.791	586.8
404.197	565.6
404.602	573.8
405.007	572.9
405.413	567.2
405.818	565.5
406.224	558.5
406.608	568.7
407.014	565.2
407.42	583.4
407.825	571.7
408.231	576.3
408.637	576.9
409.043	586.3
409.449	566.2
409.834	567.4
410.24	574
410.646	581.6
411.052	578.6
411.458	576
411.865	579
412.271	582.7
412.677	571.9
413.062	581
413.469	565.5
413.875	591.9
414.282	580
414.689	573.5
415.095	574.4
415.502	565.2
415.888	575.3
416.294	561.3
416.701	608.6
417.108	563.2
417.515	573.1
417.923	573.1
418.33	595.3
418.715	579.5
419.123	566.9
419.53	565.3
419.937	575.3
420.345	587.4
420.752	565.2
421.16	588.8
421.546	571.7
421.953	576.1
422.361	568.1
422.769	571
423.177	566.2
423.585	593.8
423.992	588.8
424.379	585.7
424.787	584.1
425.195	588.1
425.603	573
426.011	584.8
426.419	586.8
426.806	574.6
427.214	578.6
427.623	580.5
428.031	591
428.44	577.9
428.848	581.5
429.235	591.6
429.644	580.6
430.053	571.5
430.461	594.1
430.87	592.5
431.279	587.9
431.666	570
432.075	572.9
432.484	575.8
432.893	576.7
433.302	596.2
433.711	613
434.099	577.9
434.508	573.2
434.918	564.6
435.327	579.3
435.737	575
436.125	574
436.534	574.6
436.944	575.9
437.353	568.7
437.763	589.1
438.173	563.5
438.561	584.9
438.971	559.6
439.381	571.6
439.791	579.8
440.201	552.7
440.589	573
440.999	581.4
441.409	575.1
441.819	563
442.23	581.1
442.619	578.1
443.029	571.6
443.439	571.3
443.85	580.1
444.26	585.4
444.649	577.9
445.06	568.1
445.471	567.4
445.881	566.1
446.292	584.7
446.682	584.5
447.092	557.5
447.503	616
447.914	571
448.325	570.2
448.715	565.7
449.126	565.5
449.537	570.5
449.948	570.1
450.338	571
450.75	574.7
451.161	566.5
451.572	581.6
451.984	566.8
452.374	557
452.786	571.3
453.197	573.4
453.609	577.7
453.999	561.1
454.411	559.9
454.823	578.7
455.235	568.1
455.647	561.2
456.037	574.9
456.449	556.5
456.862	568.8
457.274	566.1
457.665	557.4
458.077	572.2
458.489	581.2
458.902	569.1
459.293	569.6
459.705	564.6
460.118	566.8
460.53	573.9
460.921	573.4
461.334	576
461.747	566.4
462.16	581.4
462.551	578.8
462.964	575
463.377	555.8
463.79	566.3
464.182	577.3
464.595	560.3
465.008	574.5
465.421	570.6
465.813	567.6
466.226	569.3
466.64	563.6
467.053	603.6
467.445	580.2
467.859	568.4
468.272	565.9
468.686	579.7
469.078	564.9
469.492	553
469.906	567.9
470.298	571.8
470.712	559.7
471.126	597.2
471.54	554.9
471.933	557.1
472.347	563.9
472.761	565.3
473.175	557.7
473.568	569.9
473.982	556.1
474.397	565.3
474.79	565.2
475.204	573.1
475.619	556.3
476.033	567.1
476.426	571.4
476.841	562.3
477.256	584.5
477.649	561.3
478.064	560.1
478.479	559.6
478.872	559.3
479.287	551.5
479.702	558.2
480.118	560.7
480.511	565
480.927	554.8
481.342	560.7
481.736	564.9
482.151	555.9
482.566	574.6
482.96	566.5
483.376	570.1
483.792	559
484.186	564.6
484.602	561.4
485.017	567.5
485.412	559.5
485.827	570.5
486.243	565.3
486.638	589.8
487.054	574.8
487.47	582
487.865	565.4
488.281	559.9
488.697	556.9
489.092	567.1
489.508	557.2
489.925	572
490.32	556.7
490.736	568.6
491.153	564.4
491.548	566.3
491.964	574.3
492.381	546.8
492.776	565.9
493.193	567
493.61	571.9
494.006	563.3
494.422	572.8
494.84	560.4
495.235	565.6
495.652	562.8
496.069	562.7
496.465	560.1
496.883	564.4
497.3	587.1
497.696	561.8
498.113	569.1
498.509	553.7
498.927	555.6
499.344	558.4
499.741	560.2
500.158	575
500.576	575.1
500.973	561.5
501.39	556.7
501.787	556.9
502.205	562.8
502.623	554
503.02	545.3
503.438	556.6
503.856	557.8
504.253	562.2
504.671	562.3
505.068	555.2
505.486	553.2
505.905	573.8
506.302	564.8
506.72	573.3
507.118	555.5
507.536	559.9
507.955	560.2
508.352	566.5
508.771	567
509.169	565.2
509.587	558.4
510.006	563.2
510.404	554.1
510.823	558.3
511.221	553.7
511.64	556
512.038	567.3
512.457	556
512.877	563.2
513.275	556.7
513.694	559.2
514.092	554.6
514.512	560.4
514.91	555.3
515.33	563.6
515.749	564.3
516.148	565.4
516.568	562.4
516.966	558.7
517.386	563.6
517.785	561.2
518.205	556.5
518.603	551.8
519.024	555.1
519.444	564.3
519.843	563.6
520.263	565
520.662	565.6
521.082	557.7
521.481	558.7
521.902	559.8
522.301	553
522.722	564.6
523.121	551.8
523.542	553.6
523.963	556.9
524.362	557.4
524.783	562
525.183	561.2
525.604	570.6
526.003	554.9
526.425	551.2
526.824	563.2
527.246	566.4
527.646	566.4
528.067	561.6
528.467	560.3
528.888	566.7
529.289	558.8
529.71	558.7
530.11	556.5
530.532	562.5
530.932	555.1
531.354	550.1
531.755	590.4
532.176	565.9
532.577	560.7
532.999	560.3
533.4	560.9
533.822	564.6
534.223	559.6
534.645	551.7
535.046	556.1
535.468	556.4
535.869	567.2
536.292	552.3
536.693	559
537.115	558.4
537.516	552.3
537.939	557.7
538.34	574.2
538.742	575.6
539.165	564
539.566	560.1
539.989	549.6
540.391	558
540.814	554.4
541.216	560.9
541.639	555.7
542.041	565.1
542.464	551.2
542.866	551.1
543.268	551.8
543.691	559.3
544.093	557.3
544.517	578.2
544.919	549.5
545.343	581.5
545.745	555.1
546.147	564.5
546.571	548.3
546.974	548.7
547.398	554
547.8	572.9
548.224	558.6
548.627	546.9
549.03	565
549.454	554.1
549.857	546.7
550.281	553.3
550.684	549.4
551.087	574.1
551.512	558.6
551.915	560.5
552.34	562.6
552.743	555.2
553.146	560.9
553.571	555
553.975	578.5
554.399	553
554.803	602.2
555.207	555.3
555.632	554.6
556.036	559.7
556.461	545
556.865	561.1
557.268	547.2
557.694	560.1
558.098	557.5
558.502	560.7
558.927	553.2
559.332	556.7
559.736	562.8
560.162	564.6
560.566	557
560.992	565.2
561.396	559
561.801	555.4
562.227	551
562.631	560.5
563.036	553.8
563.462	565
563.867	556.8
564.272	546.8
564.698	563
565.103	543.3
565.508	576.8
565.935	560.9
566.34	553
566.745	560.2
567.172	555.7
567.577	575.7
567.982	573.5
568.409	557.3
568.815	547.2
569.22	559.7
569.626	565.1
570.053	548.1
570.459	560.8
570.865	564.9
571.292	566.5
571.698	563.7
572.104	547.8
572.531	554.5
572.937	569.6
573.343	558.4
573.75	555.1
574.177	556.6
574.583	563.3
574.99	554.6
575.396	559.6
575.824	547.8
576.231	563.4
576.637	556.9
577.065	583
577.472	558.6
577.879	553.5
578.286	576.8
578.714	544.4
579.121	561.4
579.528	559
579.935	566.3
580.364	558.3
580.771	544.5
581.178	551.6
581.585	554.1
582.014	560
582.421	549.3
582.829	555.4
583.236	563
583.644	551.6
584.073	555.9
584.481	557.3
584.889	551.6
585.296	560.8
585.726	557.9
586.134	550.7
586.542	552.6
586.95	578.2
587.358	546.7
587.787	562.4
588.196	550.5
588.604	555.6
589.012	562.2
589.421	546.4
589.851	552.5
590.259	555.3
590.668	554.6
591.076	588.2
591.485	547.4
591.894	556.5
592.324	566.4
592.733	562.4
593.142	540.7
593.551	550.2
593.96	585.7
594.369	548.3
594.8	551.1
595.209	554.4
595.618	542.9
596.028	551.6
596.437	546.3
596.847	554.5
597.256	560.6
597.687	561.2
598.097	554.3
598.507	548.4
598.917	558.6
599.327	560.2
599.736	555.4
600.146	564.1
600.556	555.8
600.988	567.6
601.398	554
601.808	562.4
602.219	546.4
602.629	556
603.039	553.9
603.45	575.3
603.86	554.4
604.271	571.9
604.703	559.8
605.114	559.4
605.525	555.8
605.935	561.7
606.346	580
606.757	561.3
607.168	553.8
607.579	551.6
607.99	562.3
608.402	554.7
608.813	558.2
609.224	546.2
609.636	544.6
610.047	544.4
610.48	556.2
610.892	565.8
611.303	559.6
611.715	553.6
612.127	547.2
612.539	554.9
612.95	553
613.362	543.2
613.774	541
614.186	546.1
614.599	546.3
615.011	564.1
615.423	542
615.835	545.2
616.248	539.9
616.66	553
617.073	542.8
617.485	547.2
617.898	557.4
618.311	558.7
618.723	544.2
619.136	582.4
619.549	569.1
619.962	575.4
620.375	552.2
620.788	558.1
621.201	548.2
621.614	557.6
622.028	552.2
622.441	559.4
622.854	567.6
623.268	550.3
623.681	557.3
624.095	553.2
624.509	568.1
624.922	561.5
625.336	542
625.728	555.7
626.142	565.9
626.556	566.4
626.97	558.9
627.384	546.3
627.799	548.9
628.213	565.3
628.627	553.3
629.041	547.6
629.456	551.2
629.87	554.7
630.285	561.9
630.699	561
631.093	550.9
631.507	557.8
631.922	552.5
632.337	565.9
632.752	542.7
633.167	549.7
633.582	548.7
633.997	551.1
634.412	549.5
634.806	551.7
635.221	547.6
635.637	562.5
636.052	545
636.468	547.5
636.883	575.5
637.299	550.4
637.715	540.9
638.109	546.8
638.525	543.4
638.941	562.3
639.357	561.5
639.773	563.2
640.189	547.5
640.584	550.9
641	552.8
641.416	539.6
641.832	549.3
642.249	549.6
642.665	550.6
643.06	556.1
643.477	559.8
643.894	544.7
644.31	547.7
644.727	551
645.123	554.7
645.54	550
645.957	547.5
646.374	560.7
646.77	553.5
647.187	579.9
647.604	558.1
648.021	541.5
648.439	547
648.835	549.7
649.252	554.1
649.67	547.8
650.088	548.8
650.484	556.5
650.902	561.8
651.32	559.7
651.738	550.1
652.134	564
652.552	565
652.971	557.7
653.389	545.8
653.786	561.5
654.204	556
654.622	548.8
655.019	553.3
655.438	553.9
655.857	558.1
656.275	553.8
656.673	543.9
657.091	614.1
657.51	549.3
657.908	555.9
658.327	567.7
658.746	540.8
659.144	552
659.563	563.1
659.982	555.9
660.38	542.1
660.8	556.2
661.219	563.6
661.617	556.9
662.037	547.9
662.457	565.1
662.855	544
663.275	580.9
663.695	550.1
664.094	552.8
664.514	552.7
664.934	543.5
665.333	553.6
665.753	549.9
666.152	541.9
666.572	545.3
666.993	565
667.392	553.5
667.812	550.3
668.212	554.7
668.632	562.8
669.053	552.3
669.453	556.8
669.874	550.8
670.273	552.8
670.694	547
671.116	561.7
671.515	560.5
671.937	551.4
672.337	543.6
672.758	549.1
673.158	557.6
673.58	540.8
673.98	558.1
674.402	565.3
674.824	554.4
675.224	546.8
675.646	545.6
676.047	544.1
676.469	551.7
676.869	558
677.292	552
677.693	544
678.115	551.6
678.516	554.9
678.939	558.3
679.34	553.1
679.762	564.7
680.164	559.6
680.586	552.1
680.988	560.1
681.411	574.5
681.812	549.9
682.236	542.6
682.637	548.2
683.061	544.9
683.462	552.2
683.864	549.5
684.288	551.2
684.69	539.5
685.114	565.8
685.516	561.9
685.94	542.1
686.342	561.1
686.766	543.3
687.168	543.5
687.571	563.8
687.995	551.8
688.398	545.1
688.822	545.4
689.225	562
689.628	563.6
690.052	547.8
690.456	556.1
690.88	556.6
691.284	543.6
691.687	555.7
692.112	540.7
692.515	540.7
692.919	552.6
693.344	556.4
693.747	545.1
694.173	549.1
694.577	556.8
694.98	552.6
695.406	546.7
695.81	552.6
696.214	555.8
696.64	551
697.044	556.9
697.448	559.9
697.874	551.4
698.279	552.1
698.684	537.6
699.11	547.7
699.514	552
699.919	551.7
700.324	534.2
700.75	553.5
701.156	549.8
701.561	558.9
701.987	553.1
702.393	559.5
702.798	557.7
703.203	550
703.63	544.9
704.036	541.2
704.442	547.9
704.847	542.5
705.274	551.7
705.68	554.7
706.086	553.3
706.492	540.5
706.92	549.1
707.326	559
707.732	546.7
708.139	542.6
708.545	536
708.973	542.8
709.38	547.3
709.786	535
710.193	562.5
710.6	552.3
711.028	542.1
711.435	548.5
711.842	551.4
712.249	541.9
712.656	547.5
713.064	558.9
713.492	542.7
713.9	539.3
714.307	547.4
714.715	550.9
715.123	555.1
715.53	552
715.938	561.4
716.367	552.1
716.775	549
717.184	537.9
717.592	546
718	556.6
718.408	586.4
718.816	585.4
719.225	553
719.633	550.1
720.042	542
720.472	550.8
720.881	569.4
721.29	552.5
721.699	547.3
722.108	554.9
722.517	553.6
722.926	542.1
723.335	557.2
723.744	545.4
724.154	551.1
724.563	546.1
724.973	553.2
725.382	545.9
725.792	547.8
726.202	539.8
726.612	556.6
727.022	547.4
727.432	540
779.813	546.2
780.223	587.9
780.634	544.2
781.044	542.7
781.454	547.2
781.865	566.1
782.276	540.3
782.686	559.7
783.097	547.2
783.508	543.2
783.919	543.7
784.33	556.7
784.741	557.1
785.152	535.9
785.563	529.2
785.974	536.4
786.386	550.9
786.776	543
787.188	549.9
787.599	537.9
788.011	551.1
788.423	551.2
788.835	544.4
789.247	539.8
789.659	543.8
790.071	543.8
790.483	584.1
790.874	541.1
791.286	556.5
791.699	544.4
792.111	547.6
792.524	553.2
792.937	545.2
793.349	540.9
793.741	545.7
794.154	548
794.567	564.4
794.98	547.6
795.393	532.2
795.785	564
796.198	540.5
796.612	548.5
797.026	543.6
797.439	532.2
797.831	538.3
798.245	539.5
798.659	548.4
799.073	549.1
799.487	543.7
799.88	546.4
800.294	544.5
800.708	554.1
801.123	547.9
801.516	568.2
801.93	530.2
802.345	534.1
802.76	545.5
803.153	557.4
803.568	562.4
803.983	557.2
804.377	552.1
804.792	537.6
805.207	540.1
805.601	541.8
806.016	570.3
806.432	543.8
806.826	575.5
807.242	563.5
807.658	546.3
808.052	540.8
808.468	538.5
808.884	541.1
809.279	545.9
809.695	558.6
810.111	566.6
810.506	548.2
810.922	566.9
811.339	539.2
811.734	553.1
812.151	547.9
812.546	545.5
812.963	543.2
813.38	553.1
813.776	549.8
814.193	565.2
814.589	540.8
815.006	541.4
815.402	537.7
815.82	542.2
816.237	545.7
816.633	549
817.051	535
817.448	548.7
817.866	540.1
818.262	564.3
818.68	542.9
819.077	545.5
819.495	545.2
819.892	583.7
820.311	541.7
820.708	543.9
821.127	546.6
821.524	555.8
821.943	548.1
822.34	565.7
822.759	553.6
823.157	549.7
823.576	555.7
823.974	553.1
824.393	552.3
824.791	539.9
825.189	547.6
825.609	540.7
826.007	545.3
826.427	535.8
826.826	544.9
827.246	550.4
827.644	532.9
828.043	554.4
828.463	544.5
828.862	551.5
829.261	558.7
829.682	530.4
830.081	554.6
830.502	540
830.901	550.3
831.301	542.2
831.722	532
832.121	548.1
832.521	544.5
832.943	541
833.342	547.2
833.742	541
834.164	544.2
834.564	540.3
834.965	545.1
835.386	539.4
835.787	543.8
836.188	544.5
836.588	547.6
837.01	546.6
837.411	538.9
837.812	551.7
838.213	548
838.636	546.5
839.037	613
839.438	541.3
839.84	551.6
840.263	551.8
840.664	551
841.066	543.6
841.468	543.4
841.891	543.3
842.293	553.8
842.695	552.4
843.098	556.2
843.5	540.7
843.902	546.8
844.326	550.8
844.729	543.1
845.131	555.9
845.534	546.6
845.937	554.4
846.34	559
846.764	537.1
847.167	543.5
847.571	539.7
847.974	540.6
848.377	548.3
848.781	583
