#lambda/nm	C1
208.295	468
208.67	441.2
209.045	401.7
209.419	410.7
209.794	586.2
210.169	568.9
210.544	688.8
210.919	584.3
211.295	576.4
211.67	582.9
212.045	581.4
212.421	581.4
212.796	617.4
213.172	578.1
213.547	576.2
213.923	583
214.299	572.7
214.675	589.6
215.051	589.6
215.427	587.7
215.803	600.5
216.179	585
216.555	576.4
216.932	586.8
217.308	581.6
217.684	579.1
218.061	589.6
218.438	586.5
218.814	574.4
219.191	591.1
219.568	575
219.945	578.9
220.322	589.1
220.699	585
221.076	587.7
221.453	582.4
221.83	573.1
222.208	578.8
222.585	579.9
222.962	583.6
223.34	586.1
223.717	583.2
224.095	579.9
224.473	582.1
224.851	579.5
225.229	575.1
225.607	600
225.985	573.5
226.363	583.6
226.741	585.2
227.119	575.8
227.497	598.2
227.876	568.5
228.254	586.8
228.633	587.5
229.011	576.1
229.39	588
229.769	590.8
230.148	589.6
230.527	601
230.905	577.3
231.284	583.6
231.664	578.2
232.043	592.3
232.422	592.2
232.801	576.7
233.181	586.4
233.56	584.1
233.94	584
234.319	572.2
234.699	576.7
235.079	628.3
235.458	624.3
235.838	603
236.218	582.9
236.598	572.9
236.978	574.7
237.358	579.3
237.738	579.7
238.119	593.2
238.499	573.2
238.88	580.6
239.26	598.9
239.641	572.4
240.021	576.9
240.402	584.9
240.783	580.8
241.163	582.9
241.544	586.6
241.925	590.9
242.306	597.3
242.687	581.5
243.069	581.8
243.45	585.2
243.831	579.2
244.212	582.2
244.594	623
244.975	595.7
245.357	587.4
245.739	577
246.12	579.2
246.502	596.1
246.884	577.7
247.266	580.8
247.648	582.8
248.03	600.8
248.412	586.2
248.794	587.5
249.176	572.8
249.559	588.6
249.941	581.9
250.323	576.5
250.706	579.6
251.089	584.3
251.471	584.7
251.854	585.6
252.237	584.8
252.62	591.9
253.002	587.3
253.385	586.1
253.769	597.5
254.152	581.7
254.535	588.2
254.918	575
255.301	579.3
255.685	580.4
256.068	578
256.452	601.5
256.835	585.1
257.219	594
257.603	599.5
257.986	580.1
258.37	594.5
258.754	575.9
259.138	589.8
259.522	590.3
259.906	586.7
260.29	584.6
260.675	581.7
261.059	590.1
261.443	578.9
261.828	592.1
262.212	587.2
262.597	573.5
262.981	584.6
263.366	589.2
263.751	584.6
264.136	579.4
264.521	582.5
264.906	575.9
265.291	594.9
265.676	579.9
266.061	591.2
266.446	602
266.831	591.2
267.217	602.7
267.602	590.3
267.987	585.2
268.373	584.8
268.759	597.9
269.144	594.1
269.53	586.2
269.916	584
270.302	582.2
270.688	593.2
271.074	586.3
271.46	595
271.846	611.8
272.232	581.8
272.618	577.4
273.004	587.2
273.391	590.7
273.777	601.8
274.164	590.2
274.55	596.8
274.937	585.8
275.324	585.3
275.71	589.5
276.097	592
276.484	579.8
276.871	592.5
277.258	591.1
277.645	571.5
278.032	585.7
278.419	583.4
278.807	585.8
279.194	578.4
279.581	577.9
279.969	589.3
280.356	586.5
280.744	585.7
281.131	609
281.519	595
281.907	579.9
282.295	581.9
282.682	596
283.07	591.2
283.458	599.7
283.846	594.6
284.235	597.9
284.623	598
285.011	580.9
285.399	576.2
285.788	588.3
286.176	575.4
286.565	593.5
286.953	584
287.342	586.5
287.731	576.6
288.119	575.2
288.508	586.5
288.897	586
289.286	572.1
289.675	586.1
290.064	596.5
290.453	581.7
290.821	582.8
291.21	605.6
291.599	583.1
291.989	592.3
292.378	594.3
292.768	602.5
293.157	592.3
293.547	593.9
293.936	585.9
294.326	580.6
294.716	592.9
295.106	591.2
295.496	592.2
295.886	593.2
296.276	583.5
296.666	581
297.056	584.8
297.446	571.3
297.836	594.2
298.227	586
298.617	582.8
299.008	598
299.398	583.7
299.789	573.8
300.179	588.5
300.57	593.6
300.961	579.3
301.352	577.8
301.742	593.2
302.133	587
302.524	580.8
302.915	583.7
303.307	576.9
303.698	589.2
304.089	590.6
304.48	582
304.872	591.7
305.263	581.9
305.655	579.5
306.046	589.6
306.438	590
306.829	589.2
307.221	602.5
307.613	583.3
308.005	594.8
308.397	600.4
308.789	602.9
309.181	604.7
309.573	601.8
309.965	595.9
310.357	587.7
310.749	588.1
311.142	587
311.534	580.1
311.926	599.4
312.319	584.8
312.711	580
313.104	594.8
313.497	585.1
313.889	621.2
314.282	599.1
314.675	609.9
315.068	589.5
315.461	589.1
315.854	612.6
316.247	591.8
316.64	584.6
317.033	585.6
317.405	595.3
317.798	588
318.192	589.1
318.585	574.7
318.979	587.5
319.372	575.5
319.766	587.2
320.16	596.6
320.553	595.1
320.947	607.8
321.341	586.7
321.735	581.9
322.129	568.6
322.523	603.9
322.917	576.4
323.311	591.3
323.705	584.4
324.099	587.1
324.494	596.5
324.888	593.1
325.282	582.4
325.677	591.8
326.071	590.7
326.466	590.9
326.861	587.2
327.255	600.6
327.65	603.3
328.045	606
328.44	587.5
328.835	592.1
329.23	581.1
329.625	605
330.02	580.1
330.415	608
330.81	589.2
331.206	590.8
331.601	580.3
331.996	591.7
332.37	597.4
332.766	573.4
333.161	610.8
333.557	582
333.953	586.4
334.348	1006.2
334.744	588.5
335.14	585.5
335.536	583.3
335.932	597.7
336.328	585.9
336.724	594.8
337.12	584.7
337.516	591.1
337.913	581.8
338.309	597.1
338.705	590.7
339.102	595.4
339.498	581.4
339.895	601.7
340.291	580.5
340.688	593.1
341.085	578.9
341.481	581.1
341.878	584
342.275	603.3
342.672	581
343.069	578.9
343.466	572.9
343.842	591.9
344.239	575.4
344.636	576.9
345.033	573.6
345.431	575.3
345.828	580.7
346.225	574.6
346.623	595.9
347.02	582.4
347.418	591.4
347.816	599
348.213	573.3
348.611	591.6
349.009	579.5
349.407	596.2
349.805	571.9
350.203	572.7
350.601	595.4
350.999	582.8
351.397	573.6
351.795	580.7
352.193	594.5
352.57	594.9
352.969	596.5
353.367	578.5
353.766	577.5
354.164	581.8
354.563	599.6
354.961	583.2
355.36	577.4
355.759	584.8
356.158	578.9
356.557	574.7
356.956	574.6
357.355	575.5
357.754	591
358.153	588.2
358.552	602.5
358.951	578.5
359.35	590.3
359.75	582.3
360.149	571.4
360.527	568
360.926	573.6
361.326	582.7
361.726	585.9
362.125	572.2
362.525	581.6
362.925	576.3
363.325	582.6
363.724	577.3
364.124	581.8
364.524	576.1
364.924	579.2
365.324	591.1
365.725	567.3
366.125	587.7
366.525	576.6
366.904	572.1
367.304	564.7
367.705	597.5
368.105	594.1
368.506	579.9
368.906	588
369.307	585.5
369.708	586
370.108	572.6
370.509	588.3
370.91	572.1
371.311	585.3
371.712	583.2
372.113	579.6
372.514	571.9
372.894	578.1
373.295	575.9
373.696	588.1
374.097	585.7
374.499	603.9
374.9	581.1
375.301	570.1
375.703	578
376.105	573.5
376.506	585.3
376.908	583.5
377.309	580.7
377.711	580.5
378.113	577.4
378.493	575.6
378.895	573.8
379.297	582.4
379.699	563.9
380.102	582.9
380.504	577.3
380.906	577
381.308	601.5
381.71	579.8
382.113	584.6
382.515	572.7
382.918	581.2
383.299	577.9
383.701	588.3
384.104	581.6
384.507	560.3
384.909	575.1
385.312	565.9
385.715	567.3
386.118	572.1
386.521	569.3
386.924	589.2
387.327	575.4
387.709	558.2
388.112	564.3
388.515	572.9
388.918	571.5
389.322	577.8
389.725	570.4
390.129	600.8
390.532	581.4
390.936	574.2
391.339	565.9
391.743	574.5
392.125	570.7
392.529	584.8
392.933	589.6
393.337	573.5
393.74	575
394.144	573.7
394.548	564.7
394.953	573.5
395.357	579.1
395.761	571.4
396.144	577.8
396.548	573.4
396.952	573.2
397.357	579
397.761	575.2
398.166	573.6
398.57	577.7
398.975	569.2
399.379	576.5
399.763	623.7
400.168	574.3
400.572	575.2
400.977	578.4
401.382	597.1
401.787	584.9
402.192	594.1
402.597	594.9
403.002	566
403.386	588.1
403.791	594.3
404.197	567.3
404.602	581
405.007	579.7
405.413	572
405.818	565.5
406.224	573.3
406.608	574.4
407.014	567.4
407.42	587.4
407.825	568.1
408.231	585.3
408.637	581.4
409.043	594.3
409.449	575.5
409.834	570.6
410.24	572.8
410.646	581.4
411.052	586.5
411.458	579
411.865	579.2
412.271	586.7
412.677	578.8
413.062	578.8
413.469	566.3
413.875	602.1
414.282	591.8
414.689	579.9
415.095	580.8
415.502	570.5
415.888	574.6
416.294	562
416.701	616.3
417.108	572.1
417.515	586.3
417.923	573.1
418.33	598.5
418.715	582.6
419.123	571.5
419.53	571.8
419.937	577.4
420.345	589.4
420.752	571
421.16	594.2
421.546	577.3
421.953	584.2
422.361	569.5
422.769	574.7
423.177	564.8
423.585	598.8
423.992	598.6
424.379	587.8
424.787	585.7
425.195	601.8
425.603	575.8
426.011	589.7
426.419	595.8
426.806	579.1
427.214	581.7
427.623	591.2
428.031	596.2
428.44	579.1
428.848	596.9
429.235	596.6
429.644	579
430.053	582.4
430.461	595.1
430.87	606.2
431.279	594.3
431.666	578.2
432.075	581.1
432.484	586.1
432.893	579.2
433.302	599.6
433.711	622.3
434.099	585.2
434.508	576.6
434.918	570.5
435.327	585.8
435.737	577.9
436.125	579.2
436.534	581.2
436.944	582.4
437.353	582.3
437.763	597.4
438.173	573.6
438.561	584.6
438.971	555.7
439.381	574.9
439.791	579.3
440.201	559.1
440.589	572.9
440.999	576.5
441.409	579.7
441.819	564.5
442.23	590.2
442.619	584.4
443.029	574.1
443.439	576.4
443.85	586.7
444.26	586.7
444.649	588.1
445.06	579.4
445.471	567.4
445.881	571.1
446.292	588.5
446.682	595.1
447.092	562.7
447.503	625.1
447.914	573.3
448.325	570.9
448.715	576.8
449.126	571.7
449.537	574.9
449.948	569.3
450.338	572.7
450.75	586.1
451.161	578.8
451.572	581.4
451.984	572.4
452.374	557.8
452.786	570.3
453.197	579.7
453.609	581.6
453.999	564.1
454.411	568.3
454.823	579.2
455.235	584.3
455.647	572.3
456.037	575.4
456.449	561
456.862	569.6
457.274	578.2
457.665	570.5
458.077	584.3
458.489	584.5
458.902	573.4
459.293	576.7
459.705	576.9
460.118	569.2
460.53	575.4
460.921	574.7
461.334	584.5
461.747	572.9
462.16	586.9
462.551	584.2
462.964	574.5
463.377	560.9
463.79	570.5
464.182	578.7
464.595	565.8
465.008	578.4
465.421	580.7
465.813	575.7
466.226	577.1
466.64	569.1
467.053	616.2
467.445	584.5
467.859	574.4
468.272	572.3
468.686	584.2
469.078	569.7
469.492	564.3
469.906	578.7
470.298	579.7
470.712	571
471.126	601.3
471.54	557.9
471.933	569.6
472.347	569.8
472.761	565.8
473.175	558.3
473.568	573.5
473.982	564.5
474.397	570.8
474.79	570.4
475.204	580.4
475.619	569.1
476.033	574.1
476.426	572.9
476.841	568
477.256	588
477.649	565.7
478.064	559.7
478.479	561.3
478.872	564.9
479.287	559.1
479.702	559.6
480.118	568.4
480.511	566.1
480.927	558.1
481.342	566.7
481.736	573.7
482.151	564.4
482.566	580.1
482.96	570.9
483.376	584.6
483.792	562.6
484.186	572.6
484.602	566.4
485.017	568.1
485.412	575.9
485.827	570.7
486.243	564
486.638	583.7
487.054	579
487.47	584.9
487.865	565.7
488.281	571.2
488.697	563.2
489.092	570.1
489.508	563
489.925	570.7
490.32	558.1
490.736	571.3
491.153	565
491.548	570.3
491.964	575.2
492.381	557.6
492.776	573.5
493.193	565.6
493.61	579.8
494.006	569.7
494.422	575.5
494.84	564
495.235	578.1
495.652	570.4
496.069	570.9
496.465	558.5
496.883	566.1
497.3	585.9
497.696	563.1
498.113	574
498.509	558.5
498.927	559.6
499.344	565.9
499.741	561.5
500.158	580
500.576	577.5
500.973	567.1
501.39	566
501.787	555.2
502.205	569.2
502.623	563
503.02	558
503.438	559.4
503.856	561.5
504.253	564.9
504.671	569.9
505.068	561.6
505.486	566.8
505.905	587.4
506.302	563.2
506.72	572.9
507.118	556.3
507.536	561.9
507.955	561.1
508.352	564.3
508.771	573.5
509.169	578.1
509.587	557.3
510.006	562.2
510.404	555
510.823	560.6
511.221	566.6
511.64	559.8
512.038	572.4
512.457	563.3
512.877	564
513.275	560.6
513.694	557.6
514.092	561.2
514.512	568.5
514.91	560.1
515.33	565.6
515.749	567.6
516.148	567.5
516.568	568.3
516.966	561.2
517.386	561.7
517.785	563.3
518.205	566.5
518.603	558.9
519.024	556.8
519.444	562.6
519.843	578.7
520.263	570.8
520.662	572.6
521.082	566.1
521.481	568.7
521.902	568.3
522.301	563.2
522.722	565.7
523.121	567.2
523.542	564.8
523.963	565.3
524.362	568
524.783	562.6
525.183	568.1
525.604	570.4
526.003	562.2
526.425	559.4
526.824	572.4
527.246	574.4
527.646	575.9
528.067	561.7
528.467	570.4
528.888	575.7
529.289	561.3
529.71	564.5
530.11	562.4
530.532	567.3
530.932	560.7
531.354	555.5
531.755	598.1
532.176	572.4
532.577	562.8
532.999	562.7
533.4	560.9
533.822	569.1
534.223	560.9
534.645	559.7
535.046	558.7
535.468	567.3
535.869	573.6
536.292	556
536.693	565.8
537.115	568
537.516	564.4
537.939	563.5
538.34	584
538.742	580.4
539.165	563.6
539.566	566.1
539.989	554.8
540.391	561.5
540.814	556.8
541.216	565.9
541.639	556.5
542.041	568.5
542.464	560
542.866	556.1
543.268	555.5
543.691	569.3
544.093	571.9
544.517	583.7
544.919	563.7
545.343	588.8
545.745	556.7
546.147	563.6
546.571	571.5
546.974	555.7
547.398	562.2
547.8	574.9
548.224	559.3
548.627	558.4
549.03	578
549.454	554.2
549.857	553.4
550.281	559.4
550.684	562.5
551.087	572.7
551.512	568.9
551.915	571
552.34	555
552.743	566.6
553.146	567.5
553.571	566.2
553.975	586.1
554.399	550.6
554.803	606.4
555.207	563.3
555.632	557.3
556.036	571.4
556.461	553.2
556.865	562.9
557.268	556.5
557.694	562.4
558.098	560.9
558.502	567.5
558.927	559.3
559.332	558.9
559.736	564.6
560.162	567.9
560.566	561.9
560.992	568.8
561.396	566.6
561.801	556.3
562.227	565.1
562.631	561.7
563.036	562.1
563.462	567.2
563.867	562.4
564.272	552.7
564.698	566.1
565.103	552.2
565.508	582.4
565.935	562.3
566.34	558.7
566.745	571.7
567.172	560.1
567.577	580.9
567.982	570.9
568.409	562.6
568.815	553.3
569.22	565.2
569.626	567.1
570.053	552.5
570.459	567.5
570.865	563.1
571.292	563.8
571.698	571.1
572.104	551.5
572.531	553.9
572.937	566.7
573.343	559.9
573.75	558.2
574.177	564.4
574.583	572.2
574.99	559.9
575.396	570.8
575.824	559.5
576.231	563
576.637	563
577.065	590.2
577.472	551.5
577.879	562.4
578.286	577
578.714	554.7
579.121	557.8
579.528	561.2
579.935	566.1
580.364	559.9
580.771	548.6
581.178	549.8
581.585	564.7
582.014	567.5
582.421	557.1
582.829	560
583.236	570.7
583.644	554.4
584.073	560.7
584.481	563.7
584.889	554.6
585.296	565.7
585.726	568
586.134	551.2
586.542	549.1
586.95	574.6
587.358	544.6
587.787	558.6
588.196	549.3
588.604	556.6
589.012	557.5
589.421	551.3
589.851	553.3
590.259	563.6
590.668	551.4
591.076	594.2
591.485	558.6
591.894	559
592.324	573
592.733	570.4
593.142	548.7
593.551	557.5
593.96	564.6
594.369	550.5
594.8	550.8
595.209	556.6
595.618	541.1
596.028	555.5
596.437	554.1
596.847	557.5
597.256	563.8
597.687	561.5
598.097	559.6
598.507	550.6
598.917	564.7
599.327	564.2
599.736	558.4
600.146	567.7
600.556	559.4
600.988	571.5
601.398	557.2
601.808	574.1
602.219	545
602.629	562.5
603.039	557.6
603.45	577.1
603.86	561.6
604.271	576.3
604.703	563.2
605.114	558.3
605.525	564.8
605.935	562.3
606.346	581.6
606.757	565
607.168	556.8
607.579	553.8
607.99	569.7
608.402	560.6
608.813	563.3
609.224	554.2
609.636	546.1
610.047	550.7
610.48	554.1
610.892	569
611.303	567.6
611.715	552.3
612.127	548.7
612.539	554
612.95	554.4
613.362	542.1
613.774	546.2
614.186	554.2
614.599	554.7
615.011	570
615.423	549.7
615.835	554.9
616.248	549.7
616.66	560.2
617.073	551
617.485	556.5
617.898	569.2
618.311	554.7
618.723	556
619.136	586
619.549	571.4
619.962	582.4
620.375	555.7
620.788	557.2
621.201	553.1
621.614	572.1
622.028	561
622.441	560.8
622.854	569.7
623.268	550.9
623.681	563.9
624.095	562.7
624.509	565.2
624.922	561.1
625.336	550.8
625.728	561.3
626.142	571.3
626.556	573.9
626.97	563.7
627.384	557.4
627.799	558.6
628.213	567.5
628.627	554.4
629.041	550.2
629.456	555.1
629.87	552.6
630.285	563.5
630.699	563.7
631.093	556.2
631.507	560.3
631.922	560.1
632.337	569.5
632.752	545.5
633.167	558.5
633.582	555
633.997	561
634.412	553.8
634.806	554.9
635.221	546.3
635.637	566.4
636.052	544.5
636.468	555.2
636.883	573.6
637.299	558.9
637.715	542.5
638.109	557.9
638.525	545.3
638.941	571.1
639.357	563.8
639.773	567.1
640.189	556.4
640.584	558
641	557.1
641.416	547
641.832	559.6
642.249	563.3
642.665	558.4
643.06	567.2
643.477	566.8
643.894	548.6
644.31	549.3
644.727	557.9
645.123	556.5
645.54	553.5
645.957	561.5
646.374	559.2
646.77	554.8
647.187	591.6
647.604	554.8
648.021	543.3
648.439	549.8
648.835	555.9
649.252	560.8
649.67	561.2
650.088	555.6
650.484	562.6
650.902	561
651.32	565.9
651.738	551
652.134	556.6
652.552	572.9
652.971	566.8
653.389	553.7
653.786	570.3
654.204	556
654.622	554.1
655.019	559.9
655.438	563
655.857	558.8
656.275	559.9
656.673	549.6
657.091	622
657.51	550.6
657.908	563.5
658.327	571.7
658.746	547
659.144	559.3
659.563	571.6
659.982	556
660.38	547.7
660.8	557
661.219	568.2
661.617	562.4
662.037	556.6
662.457	567.4
662.855	546.2
663.275	584.4
663.695	557.9
664.094	561.1
664.514	554.8
664.934	552.5
665.333	567.8
665.753	554
666.152	545.9
666.572	555.3
666.993	566.9
667.392	551.9
667.812	558.2
668.212	556.6
668.632	567.9
669.053	553.3
669.453	563
669.874	558.2
670.273	556.3
670.694	544.3
671.116	573.1
671.515	563.2
671.937	554.7
672.337	549.4
672.758	557
673.158	560.1
673.58	549.2
673.98	560
674.402	562.3
674.824	556.2
675.224	553.3
675.646	551.1
676.047	549.9
676.469	556.5
676.869	564.7
677.292	557.5
677.693	553
678.115	549.4
678.516	562.2
678.939	563.9
679.34	553
679.762	561.3
680.164	557.9
680.586	555.6
680.988	557.1
681.411	578.5
681.812	549.7
682.236	546.4
682.637	542.1
683.061	543.2
683.462	553.5
683.864	550.3
684.288	555.9
684.69	551
685.114	561.1
685.516	563.7
685.94	547.9
686.342	562.7
686.766	549.2
687.168	549
687.571	573.3
687.995	551.5
688.398	545.2
688.822	550.9
689.225	577.3
689.628	574.9
690.052	551.9
690.456	564.2
690.88	553.3
691.284	545.1
691.687	557.8
692.112	548.6
692.515	543.5
692.919	553.1
693.344	561.9
693.747	546.9
694.173	553.4
694.577	556.2
694.98	559.9
695.406	553.7
695.81	557.3
696.214	555.7
696.64	563.1
697.044	557.4
697.448	566.4
697.874	556.8
698.279	555.5
698.684	543.8
699.11	548.6
699.514	552.7
699.919	552.8
700.324	544.1
700.75	558.1
701.156	554.6
701.561	558.7
701.987	561.4
702.393	565.8
702.798	564.2
703.203	553.5
703.63	545
704.036	551.2
704.442	553.4
704.847	553.6
705.274	553.2
705.68	557.8
706.086	567.8
706.492	547
706.92	556
707.326	560.7
707.732	556.3
708.139	550.3
708.545	547
708.973	550.7
709.38	556.4
709.786	543.8
710.193	568.4
710.6	553.8
711.028	545.9
711.435	557.1
711.842	554.9
712.249	549.9
712.656	560.6
713.064	568
713.492	545.5
713.9	552.4
714.307	555.8
714.715	552.6
715.123	558.5
715.53	562.7
715.938	562.3
716.367	557
716.775	556.9
717.184	544.2
717.592	552.6
718	560.8
718.408	586.3
718.816	596
719.225	556.9
719.633	557.4
720.042	549.4
720.472	554.6
720.881	572.2
721.29	557.2
721.699	540
722.108	551.1
722.517	553.5
722.926	556.2
723.335	562.6
723.744	544.5
724.154	554.6
724.563	554.4
724.973	554.6
725.382	548.4
725.792	549.8
726.202	542.2
726.612	560.7
727.022	547.4
727.432	547.9
779.813	549.7
780.223	594.5
780.634	555.2
781.044	549.3
781.454	553.7
781.865	562.8
782.276	542.5
782.686	565.1
783.097	549.3
783.508	549.5
783.919	556.4
784.33	564.2
784.741	563.5
785.152	549
785.563	540.5
785.974	550.3
786.386	567.4
786.776	552.4
787.188	551.5
787.599	545.5
788.011	559.9
788.423	555.2
788.835	541.5
789.247	548.1
789.659	549
790.071	554.9
790.483	591.4
790.874	546.1
791.286	561.7
791.699	549.4
792.111	553.6
792.524	559.5
792.937	550.5
793.349	544.3
793.741	544.9
794.154	550.6
794.567	568
794.98	545.8
795.393	539.9
795.785	569.2
796.198	541.3
796.612	553.9
797.026	549.7
797.439	537.9
797.831	549
798.245	546.2
798.659	544.5
799.073	547
799.487	550.2
799.88	555.8
800.294	553.8
800.708	560.6
801.123	549.3
801.516	571.3
801.93	544.3
802.345	544.3
802.76	548.2
803.153	563.7
803.568	568.9
803.983	561.3
804.377	551.3
804.792	542.6
805.207	540.1
805.601	554.8
806.016	582
806.432	543.3
806.826	580.5
807.242	564.1
807.658	550
808.052	550.7
808.468	546.6
808.884	547.3
809.279	553.5
809.695	563.7
810.111	574.9
810.506	555
810.922	567.8
811.339	547.1
811.734	562.6
812.151	554.3
812.546	544.3
812.963	546.4
813.38	554.5
813.776	550.7
814.193	568.4
814.589	544.4
815.006	548.2
815.402	547.9
815.82	544.2
816.237	554.2
816.633	554.8
817.051	547.1
817.448	557.7
817.866	544
818.262	570.9
818.68	546.2
819.077	548.4
819.495	552.1
819.892	588.4
820.311	547
820.708	549.1
821.127	541.1
821.524	560.9
821.943	555.5
822.34	557.6
822.759	555.6
823.157	548.8
823.576	560.6
823.974	555.5
824.393	562.8
824.791	545.8
825.189	547.7
825.609	540.9
826.007	553.8
826.427	546.4
826.826	547.8
827.246	548.6
827.644	530.7
828.043	556.8
828.463	547.1
828.862	557.9
829.261	556.9
829.682	537.2
830.081	553.7
830.502	552.9
830.901	550.2
831.301	542.5
831.722	545.1
832.121	549.2
832.521	542.9
832.943	548.4
833.342	550.1
833.742	538.2
834.164	543
834.564	540
834.965	554.1
835.386	543.4
835.787	545.2
836.188	544.1
836.588	550.4
837.01	546.1
837.411	547
837.812	551.6
838.213	549.3
838.636	541.1
839.037	615.8
839.438	551.4
839.84	548.3
840.263	556.4
840.664	554.4
841.066	548.7
841.468	548.8
841.891	545.2
842.293	558.8
842.695	551.2
843.098	556.3
843.5	551.9
843.902	550.8
844.326	554.9
844.729	547.6
845.131	555.8
845.534	554.4
845.937	560
846.34	563.9
846.764	540.9
847.167	556.9
847.571	539.8
