#lambda/nm	C1
208.295	469.4
208.67	435.5
209.045	400.8
209.419	407.8
209.794	586.9
210.169	567.5
210.544	679.3
210.919	586.8
211.295	574.4
211.67	582.8
212.045	580.7
212.421	580.4
212.796	618.3
213.172	570.5
213.547	577.6
213.923	581.6
214.299	575.2
214.675	587
215.051	582.8
215.427	586.3
215.803	604.1
216.179	582.4
216.555	573.3
216.932	590.2
217.308	585.6
217.684	578
218.061	583.7
218.438	586.2
218.814	574.6
219.191	590.1
219.568	571.5
219.945	577.9
220.322	584.5
220.699	583.2
221.076	589.7
221.453	580
221.83	570.2
222.208	574.6
222.585	574.4
222.962	580
223.34	581.3
223.717	577.3
224.095	582.4
224.473	584.3
224.851	575.1
225.229	569.5
225.607	594.9
225.985	575.1
226.363	585.3
226.741	580.1
227.119	581.8
227.497	592
227.876	569
228.254	588.8
228.633	589.1
229.011	579.8
229.39	583.7
229.769	587.1
230.148	586.9
230.527	604.5
230.905	580.5
231.284	584.6
231.664	573.8
232.043	595.1
232.422	586.6
232.801	574.9
233.181	586.9
233.56	575.6
233.94	585.6
234.319	573.1
234.699	583.7
235.079	621.2
235.458	615.5
235.838	594.8
236.218	579.8
236.598	568.8
236.978	575.4
237.358	584.5
237.738	576.2
238.119	588.5
238.499	568.8
238.88	581.2
239.26	596.5
239.641	573.3
240.021	580
240.402	588.6
240.783	580.2
241.163	578.3
241.544	590.5
241.925	581.8
242.306	594.5
242.687	577.9
243.069	585.4
243.45	590.1
243.831	579.3
244.212	579.2
244.594	613.7
244.975	590.1
245.357	584.6
245.739	576.6
246.12	586
246.502	594.5
246.884	582
247.266	579.8
247.648	585.1
248.03	597.5
248.412	584.2
248.794	585.4
249.176	579.3
249.559	585.6
249.941	579.4
250.323	576.4
250.706	571.8
251.089	582.7
251.471	584.8
251.854	583.5
252.237	582.5
252.62	592.7
253.002	583.8
253.385	588.9
253.769	592.5
254.152	582.1
254.535	586.7
254.918	573.8
255.301	586.3
255.685	586.3
256.068	576.1
256.452	611.2
256.835	594.2
257.219	591.3
257.603	593.7
257.986	575.2
258.37	588.8
258.754	570.9
259.138	589.1
259.522	590.6
259.906	583.5
260.29	584
260.675	582.7
261.059	585.1
261.443	581
261.828	591.6
262.212	587
262.597	568.6
262.981	583.7
263.366	587.3
263.751	581
264.136	583.5
264.521	581.7
264.906	582.2
265.291	589.7
265.676	574.4
266.061	589.5
266.446	601
266.831	586.9
267.217	600
267.602	587.3
267.987	583
268.373	581
268.759	587.5
269.144	589.4
269.53	578.2
269.916	577.1
270.302	579.7
270.688	586.2
271.074	585.9
271.46	589.5
271.846	613.9
272.232	582.6
272.618	574.7
273.004	582.7
273.391	590.5
273.777	600.2
274.164	585.5
274.55	597.1
274.937	580.6
275.324	585.2
275.71	590.7
276.097	587.8
276.484	572.7
276.871	590.1
277.258	588.7
277.645	572.2
278.032	588.5
278.419	581.8
278.807	586.1
279.194	581.2
279.581	581.9
279.969	587.5
280.356	586.2
280.744	585.1
281.131	607.9
281.519	593.9
281.907	578.8
282.295	579.2
282.682	592.6
283.07	587.1
283.458	587.8
283.846	596.5
284.235	595
284.623	591.6
285.011	576.9
285.399	579.5
285.788	586.1
286.176	569.6
286.565	592.5
286.953	581.1
287.342	577.7
287.731	576.6
288.119	575.7
288.508	576.6
288.897	582
289.286	570.3
289.675	582.8
290.064	594.1
290.453	579.4
290.821	581.1
291.21	595.6
291.599	572.9
291.989	583
292.378	596
292.768	600.1
293.157	587.1
293.547	591.3
293.936	582
294.326	577.1
294.716	583.9
295.106	574.8
295.496	590.8
295.886	588
296.276	586.9
296.666	582.1
297.056	579.6
297.446	574
297.836	595.3
298.227	581.8
298.617	585.5
299.008	594.4
299.398	581.5
299.789	579.7
300.179	586.7
300.57	598.4
300.961	581.1
301.352	577.1
301.742	587.8
302.133	580.7
302.524	587.8
302.915	584.7
303.307	571.5
303.698	590.8
304.089	593.4
304.48	582.2
304.872	591
305.263	584.8
305.655	573.5
306.046	587.3
306.438	586.8
306.829	580.2
307.221	590.4
307.613	589.8
308.005	591.8
308.397	599
308.789	602.6
309.181	605.1
309.573	603
309.965	593.3
310.357	583.1
310.749	589.9
311.142	573
311.534	581.4
311.926	592.8
312.319	584.2
312.711	575.5
313.104	593.5
313.497	586.5
313.889	618.9
314.282	597.4
314.675	606
315.068	588.6
315.461	589.8
315.854	609.3
316.247	588.8
316.64	577.3
317.033	586.1
317.405	590.1
317.798	580.3
318.192	587.9
318.585	578.9
318.979	588.9
319.372	579.5
319.766	579.1
320.16	593.6
320.553	597.2
320.947	602.5
321.341	579.1
321.735	590.5
322.129	571.4
322.523	605.2
322.917	575.5
323.311	596.3
323.705	579.3
324.099	587.7
324.494	601.6
324.888	593.4
325.282	588.3
325.677	584.8
326.071	589.1
326.466	595.7
326.861	589.4
327.255	594.4
327.65	602.5
328.045	606.7
328.44	591.3
328.835	585.2
329.23	582.4
329.625	609.4
330.02	576.9
330.415	610.1
330.81	582.7
331.206	590.4
331.601	582.3
331.996	590.5
332.37	598.9
332.766	571.2
333.161	605.5
333.557	580.8
333.953	587.7
334.348	1015.5
334.744	586.7
335.14	581.3
335.536	578.1
335.932	600.7
336.328	589.6
336.724	593.4
337.12	585.3
337.516	584.7
337.913	585
338.309	595.9
338.705	586.2
339.102	597.7
339.498	577.7
339.895	600.6
340.291	580.2
340.688	587.5
341.085	578.3
341.481	583.1
341.878	584.1
342.275	600.1
342.672	578.5
343.069	582
343.466	571.4
343.842	589.4
344.239	575.9
344.636	584.2
345.033	573.9
345.431	574.4
345.828	581.5
346.225	580.8
346.623	586.9
347.02	584.9
347.418	588.5
347.816	594.5
348.213	571
348.611	586.3
349.009	571.2
349.407	593.8
349.805	571.4
350.203	566.5
350.601	595
350.999	582.2
351.397	570.7
351.795	583
352.193	592.1
352.57	596.1
352.969	589.3
353.367	575
353.766	572.9
354.164	578.8
354.563	593.5
354.961	586.1
355.36	576.1
355.759	578.7
356.158	575.2
356.557	571.8
356.956	572.2
357.355	570.1
357.754	586.4
358.153	578.3
358.552	604.7
358.951	576.3
359.35	590.6
359.75	579.9
360.149	576.9
360.527	564.8
360.926	569.3
361.326	577.5
361.726	578.7
362.125	567.8
362.525	580.9
362.925	580.1
363.325	577.9
363.724	575.6
364.124	577.8
364.524	567.6
364.924	580.2
365.324	591.2
365.725	563
366.125	584
366.525	577.8
366.904	564
367.304	559.8
367.705	593.4
368.105	591.4
368.506	577.8
368.906	577.7
369.307	574.2
369.708	585.3
370.108	563.7
370.509	579.6
370.91	573
371.311	578.3
371.712	579.9
372.113	575.7
372.514	565.1
372.894	571.5
373.295	573.8
373.696	598
374.097	586.1
374.499	605.1
374.9	575.9
375.301	566.8
375.703	570.5
376.105	568.5
376.506	582.7
376.908	580.1
377.309	576
377.711	577.2
378.113	563.3
378.493	576.4
378.895	569.3
379.297	581.5
379.699	563.9
380.102	581.5
380.504	579.4
380.906	569.6
381.308	599.4
381.71	576.6
382.113	583.1
382.515	575.3
382.918	577.6
383.299	572.9
383.701	589.4
384.104	581.2
384.507	554.8
384.909	574.9
385.312	564.4
385.715	567.6
386.118	571.7
386.521	560.1
386.924	581.2
387.327	567.2
387.709	564.1
388.112	558.2
388.515	572.3
388.918	568.1
389.322	574.7
389.725	570.8
390.129	595.5
390.532	583.8
390.936	575.1
391.339	568.8
391.743	579.5
392.125	569.7
392.529	577.4
392.933	589.9
393.337	570
393.74	574.9
394.144	570.7
394.548	568.4
394.953	572
395.357	577.7
395.761	567.4
396.144	571.1
396.548	574.3
396.952	570.8
397.357	571.2
397.761	572.6
398.166	565
398.57	573.8
398.975	568.5
399.379	574.3
399.763	618.7
400.168	578.7
400.572	568.1
400.977	568.2
401.382	589.2
401.787	585.7
402.192	590.7
402.597	588.9
403.002	564.5
403.386	584.6
403.791	587.7
404.197	570.8
404.602	576.1
405.007	572.2
405.413	571.3
405.818	570.6
406.224	571.4
406.608	572
407.014	567.9
407.42	592.5
407.825	574.5
408.231	578.8
408.637	582
409.043	589.1
409.449	575.9
409.834	575.3
410.24	573.4
410.646	578.9
411.052	580.6
411.458	574.7
411.865	582.9
412.271	582.5
412.677	575.6
413.062	582.2
413.469	565.7
413.875	599.4
414.282	590.8
414.689	576.5
415.095	579.7
415.502	567.6
415.888	574.6
416.294	556.9
416.701	615.4
417.108	569.8
417.515	582.3
417.923	569.8
418.33	589.5
418.715	582.5
419.123	576.7
419.53	573.6
419.937	577.5
420.345	588.1
420.752	574.8
421.16	586.9
421.546	571.7
421.953	587.8
422.361	569.9
422.769	572.9
423.177	571.9
423.585	603.2
423.992	597.4
424.379	589.7
424.787	586.5
425.195	599.4
425.603	580.5
426.011	593.7
426.419	592.5
426.806	580.2
427.214	576.1
427.623	588.7
428.031	593.9
428.44	585.5
428.848	589.1
429.235	598.7
429.644	574.1
430.053	575.9
430.461	594
430.87	600.8
431.279	588.4
431.666	572.6
432.075	573.5
432.484	591.1
432.893	572.3
433.302	601.8
433.711	620.3
434.099	579.8
434.508	571.8
434.918	568.1
435.327	590.7
435.737	580
436.125	581.4
436.534	578.9
436.944	582.5
437.353	584.4
437.763	594.4
438.173	569
438.561	590.4
438.971	564.1
439.381	578.4
439.791	572.9
440.201	558.9
440.589	579.9
440.999	580.8
441.409	581.7
441.819	563.5
442.23	581.3
442.619	580.3
443.029	579.6
443.439	573.5
443.85	582.5
444.26	592.9
444.649	586.1
445.06	573.7
445.471	572.6
445.881	578.2
446.292	592.1
446.682	599.2
447.092	560.6
447.503	620.8
447.914	576.4
448.325	579.2
448.715	574.1
449.126	570.2
449.537	573.4
449.948	572.9
450.338	574.9
450.75	587.7
451.161	575.4
451.572	581.2
451.984	570.6
452.374	557.7
452.786	573.8
453.197	572.5
453.609	578.7
453.999	566.9
454.411	570.3
454.823	584
455.235	572.8
455.647	570.1
456.037	572.1
456.449	558.7
456.862	568
457.274	574
457.665	564
458.077	574.5
458.489	584.6
458.902	576.2
459.293	573.2
459.705	573.4
460.118	567.3
460.53	575.5
460.921	574.2
461.334	573.4
461.747	571.9
462.16	583.7
462.551	581.3
462.964	577.2
463.377	558.2
463.79	566.2
464.182	582.3
464.595	562.4
465.008	578.1
465.421	575.3
465.813	565.6
466.226	582.3
466.64	564.4
467.053	615.2
467.445	577.8
467.859	574.9
468.272	573.1
468.686	583.8
469.078	566
469.492	559.3
469.906	568.3
470.298	574.7
470.712	565.8
471.126	602.5
471.54	557
471.933	561.6
472.347	569.5
472.761	563.7
473.175	557
473.568	564.8
473.982	561.9
474.397	572.1
474.79	569.5
475.204	572.1
475.619	564.1
476.033	569.5
476.426	568.7
476.841	561.9
477.256	590.6
477.649	558.8
478.064	556.8
478.479	562.9
478.872	559.8
479.287	548.6
479.702	562.1
480.118	564.2
480.511	564
480.927	556.5
481.342	569.3
481.736	572.2
482.151	561.6
482.566	569.5
482.96	562.8
483.376	574
483.792	559.1
484.186	571.3
484.602	562.3
485.017	573
485.412	564.7
485.827	575.9
486.243	565.7
486.638	594.5
487.054	576.5
487.47	580.6
487.865	563.4
488.281	561.8
488.697	563.7
489.092	564.6
489.508	557.1
489.925	579.4
490.32	555.6
490.736	568.2
491.153	573
491.548	567.6
491.964	574.8
492.381	551.8
492.776	567.1
493.193	568.8
493.61	573.8
494.006	567.1
494.422	571.7
494.84	557.2
495.235	577.1
495.652	563.8
496.069	564
496.465	562.3
496.883	565.1
497.3	591.2
497.696	555.8
498.113	573.9
498.509	551
498.927	554.8
499.344	557.9
499.741	561.3
500.158	566.6
500.576	575.6
500.973	567.2
501.39	562.6
501.787	552.9
502.205	567.5
502.623	559.4
503.02	556.7
503.438	558.2
503.856	563.8
504.253	564.6
504.671	566.4
505.068	560.7
505.486	559
505.905	581
506.302	568.5
506.72	569.5
507.118	557.2
507.536	566.3
507.955	556.8
508.352	564.4
508.771	570.5
509.169	566.1
509.587	558.7
510.006	561.1
510.404	553.6
510.823	556.7
511.221	559.4
511.64	561
512.038	575
512.457	565.1
512.877	562.5
513.275	564.5
513.694	560
514.092	556.4
514.512	566.3
514.91	560.4
515.33	562.6
515.749	560.2
516.148	569.2
516.568	569.7
516.966	563.1
517.386	557.7
517.785	562.8
518.205	567.4
518.603	556.3
519.024	558.5
519.444	567.6
519.843	573.9
520.263	564.4
520.662	567.9
521.082	563.1
521.481	567.9
521.902	563.7
522.301	565.4
522.722	571.6
523.121	568.7
523.542	566.8
523.963	560
524.362	567.6
524.783	569
525.183	558.6
525.604	573.5
526.003	556.6
526.425	553.1
526.824	563
527.246	568.6
527.646	574.5
528.067	563.6
528.467	569.2
528.888	564.6
529.289	563.4
529.71	569.1
530.11	564.4
530.532	563.9
530.932	552.2
531.354	551.4
531.755	601.7
532.176	572.2
532.577	563.2
532.999	567.9
533.4	563.7
533.822	572.6
534.223	559.9
534.645	561.1
535.046	561.3
535.468	566.4
535.869	570.6
536.292	560.8
536.693	561.8
537.115	562.3
537.516	561.4
537.939	561.6
538.34	581.2
538.742	576
539.165	567.8
539.566	562
539.989	556.2
540.391	559.1
540.814	560.4
541.216	565.2
541.639	566.2
542.041	573.2
542.464	556.4
542.866	559.2
543.268	549
543.691	563.8
544.093	559.8
544.517	580.6
544.919	552.5
545.343	582.6
545.745	555.2
546.147	563.3
546.571	561.7
546.974	551.3
547.398	563.3
547.8	576.8
548.224	563.2
548.627	559.6
549.03	568.5
549.454	556.9
549.857	552.4
550.281	562.2
550.684	554.4
551.087	574.6
551.512	560.3
551.915	565.7
552.34	561.7
552.743	559.4
553.146	562.8
553.571	558.7
553.975	575.9
554.399	557.1
554.803	607.9
555.207	559.1
555.632	555.2
556.036	566.2
556.461	554
556.865	559.4
557.268	549.3
557.694	564.6
558.098	562.5
558.502	563.7
558.927	552.3
559.332	555.8
559.736	559.4
560.162	562.1
560.566	561.8
560.992	566.4
561.396	565.6
561.801	556.9
562.227	559.3
562.631	558.7
563.036	558.7
563.462	565.4
563.867	559.7
564.272	555.2
564.698	565.2
565.103	549.6
565.508	578.7
565.935	558.9
566.34	558.1
566.745	568.9
567.172	561.2
567.577	576
567.982	572.3
568.409	568.9
568.815	548.1
569.22	563.5
569.626	567.2
570.053	549.6
570.459	564.8
570.865	561.8
571.292	564.1
571.698	564.3
572.104	546.9
572.531	554.4
572.937	569.3
573.343	558.1
573.75	551.5
574.177	561.9
574.583	561.8
574.99	557.1
575.396	561
575.824	553.5
576.231	563.3
576.637	556.1
577.065	580.5
577.472	549.1
577.879	552.2
578.286	573.1
578.714	551.8
579.121	555.9
579.528	559.2
579.935	566.6
580.364	553.5
580.771	544.5
581.178	551.8
581.585	565.4
582.014	563.2
582.421	557.1
582.829	561.9
583.236	564.1
583.644	550.3
584.073	554.6
584.481	562.3
584.889	547.1
585.296	562.6
585.726	558.5
586.134	553.4
586.542	550.5
586.95	574.7
587.358	548.9
587.787	563.3
588.196	547.6
588.604	550
589.012	557.4
589.421	545.2
589.851	555
590.259	562
590.668	555
591.076	589.5
591.485	550.4
591.894	553.5
592.324	575
592.733	571
593.142	543
593.551	556.1
593.96	588.6
594.369	554.4
594.8	553.2
595.209	551.9
595.618	547.6
596.028	548.6
596.437	548.2
596.847	557.8
597.256	558.6
597.687	559.8
598.097	561.5
598.507	550.2
598.917	559.4
599.327	561.6
599.736	556.7
600.146	569.4
600.556	560.1
600.988	569.4
601.398	552.2
601.808	566.7
602.219	544.8
602.629	554.2
603.039	558.1
603.45	579.8
603.86	562
604.271	565.3
604.703	559.8
605.114	560.1
605.525	562.4
605.935	559.4
606.346	577.5
606.757	558.2
607.168	559.1
607.579	554.9
607.99	570.1
608.402	568
608.813	561.6
609.224	552.5
609.636	555.4
610.047	549
610.48	557.6
610.892	564.2
611.303	569.1
611.715	558.3
612.127	549.2
612.539	548.5
612.95	560.3
613.362	541.6
613.774	551.9
614.186	552.2
614.599	551.5
615.011	557.8
615.423	547.8
615.835	545.4
616.248	550.9
616.66	562.6
617.073	547.3
617.485	549
617.898	568.3
618.311	556.8
618.723	559.1
619.136	580.9
619.549	573
619.962	578.5
620.375	554.2
620.788	560.8
621.201	544.2
621.614	558.3
622.028	558.9
622.441	556.1
622.854	573.5
623.268	551.4
623.681	565.3
624.095	555.7
624.509	564.7
624.922	564.8
625.336	549.3
625.728	556.9
626.142	562.7
626.556	573.7
626.97	561.1
627.384	557.5
627.799	555.2
628.213	566.4
628.627	556.6
629.041	553.9
629.456	555.9
629.87	557.8
630.285	566
630.699	566.6
631.093	561.3
631.507	556.6
631.922	557.2
632.337	567.7
632.752	550.2
633.167	557.7
633.582	553.7
633.997	551.4
634.412	551.1
634.806	558.2
635.221	550.9
635.637	566.7
636.052	547.7
636.468	566.1
636.883	574.6
637.299	553.9
637.715	545.6
638.109	558
638.525	545.1
638.941	564
639.357	560.7
639.773	566
640.189	552.8
640.584	557.7
641	559.9
641.416	541.2
641.832	556.9
642.249	554.4
642.665	550.7
643.06	561.5
643.477	566.9
643.894	542.1
644.31	559.2
644.727	555
645.123	555.3
645.54	548.5
645.957	558.1
646.374	562.1
646.77	557.4
647.187	584.1
647.604	555.7
648.021	541.7
648.439	547.8
648.835	553.3
649.252	560
649.67	556.1
650.088	560.7
650.484	560.3
650.902	561.4
651.32	560.7
651.738	551
652.134	557.1
652.552	574.4
652.971	561.9
653.389	557.1
653.786	572.3
654.204	553.5
654.622	552.1
655.019	554.8
655.438	556.3
655.857	552.4
656.275	561.9
656.673	549.2
657.091	622.8
657.51	556.6
657.908	567.9
658.327	568.1
658.746	545.5
659.144	558.5
659.563	564.2
659.982	561.2
660.38	550.5
660.8	558
661.219	564.3
661.617	560.4
662.037	560.1
662.457	566.5
662.855	542.2
663.275	586.1
663.695	559.6
664.094	552.3
664.514	551.4
664.934	547.2
665.333	562.2
665.753	551.3
666.152	547
666.572	547.7
666.993	563.2
667.392	553.1
667.812	550.2
668.212	553.4
668.632	561.3
669.053	549.4
669.453	558.4
669.874	557.1
670.273	546.6
670.694	551.2
671.116	564.4
671.515	560.9
671.937	551.1
672.337	548.9
672.758	549.3
673.158	562.4
673.58	544.5
673.98	553.5
674.402	561
674.824	548.5
675.224	552.7
675.646	546.8
676.047	552.6
676.469	555.7
676.869	562
677.292	555.3
677.693	544.2
678.115	552.8
678.516	555.8
678.939	556.7
679.34	559
679.762	569
680.164	556.9
680.586	542
680.988	555.9
681.411	583.1
681.812	549
682.236	550.3
682.637	544
683.061	543.5
683.462	558.1
683.864	546.2
684.288	553.4
684.69	544.1
685.114	561.7
685.516	558.8
685.94	550.2
686.342	558.2
686.766	547.4
687.168	553.1
687.571	567.7
687.995	553.3
688.398	541.7
688.822	549.2
689.225	572.9
689.628	568.5
690.052	552.5
690.456	558.8
690.88	555.1
691.284	541.6
691.687	561.7
692.112	541.7
692.515	547
692.919	549.9
693.344	556.8
693.747	551.8
694.173	545.2
694.577	561.7
694.98	550.8
695.406	554
695.81	554.9
696.214	554.8
696.64	552.4
697.044	549.6
697.448	560.9
697.874	553.7
698.279	556.7
698.684	541.9
699.11	545.6
699.514	543.2
699.919	552.9
700.324	543.3
700.75	557.6
701.156	550.8
701.561	559.5
701.987	560
702.393	561.8
702.798	570.4
703.203	555.5
703.63	557.1
704.036	549.1
704.442	552.8
704.847	550.8
705.274	548
705.68	557
706.086	566.9
706.492	548.1
706.92	551.2
707.326	565
707.732	550.2
708.139	545.5
708.545	553.1
708.973	548.9
709.38	553.5
709.786	541.2
710.193	569.2
710.6	556.2
711.028	549.8
711.435	544.7
711.842	553.7
712.249	542.7
712.656	552.1
713.064	560.8
713.492	548
713.9	549.2
714.307	554.1
714.715	548.7
715.123	559.8
715.53	556.2
715.938	564.1
716.367	552.1
716.775	549.4
717.184	546.1
717.592	551.9
718	560.8
718.408	589.8
718.816	595.4
719.225	557.9
719.633	553.6
720.042	547.6
720.472	547.2
720.881	573.4
721.29	553.6
721.699	546.6
722.108	554
722.517	554.2
722.926	552.3
723.335	558.5
723.744	550.4
724.154	550.4
724.563	558.1
724.973	552.5
725.382	552.1
725.792	547.1
726.202	550.6
726.612	564.4
727.022	549.8
727.432	552.6
779.813	550.8
780.223	596.3
780.634	546.8
781.044	549.7
781.454	552.8
781.865	563.7
782.276	548.3
782.686	566.3
783.097	549.5
783.508	549.7
783.919	557.8
784.33	562.8
784.741	560.4
785.152	552.9
785.563	543.5
785.974	544.7
786.386	559.4
786.776	548.4
787.188	553.6
787.599	546.4
788.011	559.7
788.423	550.3
788.835	554.3
789.247	542.4
789.659	547.3
790.071	550.5
790.483	593.6
790.874	546.3
791.286	558.2
791.699	547.2
792.111	552.7
792.524	550.9
792.937	555.4
793.349	538.3
793.741	548.6
794.154	549.1
794.567	569.3
794.98	549.2
795.393	536.1
795.785	563.3
796.198	543.3
796.612	553.8
797.026	543.3
797.439	533.9
797.831	547.5
798.245	541.4
798.659	547.1
799.073	542.9
799.487	541.5
799.88	545
800.294	547.3
800.708	557.1
801.123	552.2
801.516	568.4
801.93	545.2
802.345	531.2
802.76	554.1
803.153	558.3
803.568	554.8
803.983	556.5
804.377	555.1
804.792	540.8
805.207	538.1
805.601	553.7
806.016	582.8
806.432	545.1
806.826	580.8
807.242	558.7
807.658	555.8
808.052	551
808.468	538.8
808.884	543.5
809.279	546.6
809.695	559.6
810.111	567.1
810.506	548.8
810.922	567.7
811.339	548.1
811.734	555.8
812.151	545
812.546	538.6
812.963	542
813.38	552.3
813.776	546.1
814.193	562.4
814.589	543.1
815.006	543.3
815.402	541.5
815.82	546.9
816.237	548.1
816.633	547
817.051	542.3
817.448	543.8
817.866	541.6
818.262	564.9
818.68	539.4
819.077	540.7
819.495	545.6
819.892	585.1
820.311	542.3
820.708	542.3
821.127	542.5
821.524	556.4
821.943	551.9
822.34	569.1
822.759	548.3
823.157	553.4
823.576	562.6
823.974	554.3
824.393	555.8
824.791	545
825.189	544.8
825.609	549.9
826.007	547.9
826.427	542.8
826.826	545.3
827.246	550.6
827.644	537
828.043	554
828.463	548
828.862	552.8
829.261	547.4
829.682	539.9
830.081	553.9
830.502	538.4
830.901	549.2
831.301	540.6
831.722	536.5
832.121	544
832.521	539.4
832.943	548.1
833.342	548.6
833.742	535.4
834.164	545.2
834.564	535.7
834.965	546.3
835.386	544.6
835.787	545.5
836.188	547.1
836.588	547.6
837.01	550.2
837.411	544.5
837.812	555.1
838.213	552.3
838.636	542.9
839.037	611.9
839.438	544.8
839.84	549
840.263	556.7
840.664	557.1
841.066	543.3
841.468	548.4
841.891	543.2
842.293	558.1
842.695	553.2
843.098	558.6
843.5	545.3
843.902	548.9
844.326	545.4
844.729	541.1
845.131	554.7
845.534	543.2
845.937	553.1
846.34	562.5
846.764	539.6
