#lambda/nm	C1
208.295	470.8
208.67	439.3
209.045	404
209.419	408.1
209.794	594.3
210.169	572.7
210.544	690.2
210.919	581.3
211.295	572.9
211.67	582.7
212.045	581.9
212.421	584.8
212.796	614.2
213.172	581.9
213.547	575.7
213.923	582.4
214.299	579.1
214.675	593
215.051	588
215.427	590.8
215.803	606.3
216.179	590.8
216.555	574.7
216.932	595.1
217.308	586.1
217.684	582.9
218.061	589.9
218.438	595
218.814	574.4
219.191	598.2
219.568	570.2
219.945	580.9
220.322	590.2
220.699	583.4
221.076	592.8
221.453	586.1
221.83	583.7
222.208	573.1
222.585	577.6
222.962	578.7
223.34	585.6
223.717	580.9
224.095	579.6
224.473	586.2
224.851	578
225.229	568.6
225.607	598
225.985	577.6
226.363	590.4
226.741	582.1
227.119	582.9
227.497	594.6
227.876	569.3
228.254	586.1
228.633	591.4
229.011	585.7
229.39	585.4
229.769	585.1
230.148	591.6
230.527	604.2
230.905	583.6
231.284	585.2
231.664	578.2
232.043	596.6
232.422	590.6
232.801	581.4
233.181	587.2
233.56	579.6
233.94	585.9
234.319	572.7
234.699	589.2
235.079	621.7
235.458	626
235.838	602.4
236.218	578.8
236.598	571.2
236.978	580.5
237.358	577.5
237.738	581.3
238.119	588.6
238.499	574.7
238.88	586.4
239.26	604.4
239.641	577.1
240.021	582.1
240.402	585.9
240.783	584.8
241.163	582.2
241.544	583.5
241.925	585.8
242.306	596
242.687	579.2
243.069	587.4
243.45	589
243.831	575.4
244.212	583
244.594	623.4
244.975	595.7
245.357	581.6
245.739	576.1
246.12	587.8
246.502	597.4
246.884	580.1
247.266	581.7
247.648	585.1
248.03	609.5
248.412	581.1
248.794	584.9
249.176	576.8
249.559	585
249.941	576.4
250.323	573.8
250.706	575.2
251.089	573.5
251.471	586.2
251.854	588.6
252.237	582.7
252.62	592
253.002	583
253.385	583.2
253.769	599
254.152	584.2
254.535	588.9
254.918	577.8
255.301	582.7
255.685	577.9
256.068	573.5
256.452	608.1
256.835	590.6
257.219	586
257.603	590.5
257.986	574.6
258.37	594.1
258.754	573.7
259.138	594.4
259.522	594.3
259.906	582.5
260.29	587.3
260.675	582.8
261.059	586.7
261.443	580.9
261.828	588.1
262.212	586.4
262.597	575
262.981	580.9
263.366	592.1
263.751	586.4
264.136	580.3
264.521	584.8
264.906	576.3
265.291	596
265.676	578.5
266.061	591.9
266.446	600.4
266.831	586.1
267.217	600.8
267.602	591.2
267.987	583.8
268.373	582
268.759	594.7
269.144	591.6
269.53	582.6
269.916	583.5
270.302	580.5
270.688	590.4
271.074	593.2
271.46	599.3
271.846	617.4
272.232	584.8
272.618	576.1
273.004	591.1
273.391	590.7
273.777	596.7
274.164	589.5
274.55	597
274.937	585.4
275.324	580.1
275.71	590.1
276.097	595.9
276.484	577.4
276.871	593.9
277.258	588.2
277.645	574
278.032	588.6
278.419	586
278.807	587
279.194	575.3
279.581	582.8
279.969	591.4
280.356	591.7
280.744	584.4
281.131	613.2
281.519	596.3
281.907	583.5
282.295	579.8
282.682	596.2
283.07	589.2
283.458	592.8
283.846	596.7
284.235	600.1
284.623	594
285.011	581.5
285.399	587.2
285.788	588
286.176	574.3
286.565	598.2
286.953	583.9
287.342	585.2
287.731	573.9
288.119	576.7
288.508	579.5
288.897	582.7
289.286	571.1
289.675	587.2
290.064	594.1
290.453	582
290.821	583.5
291.21	597.9
291.599	582.6
291.989	590
292.378	595
292.768	603
293.157	586.6
293.547	595.3
293.936	588.3
294.326	580
294.716	588.5
295.106	583.6
295.496	594.8
295.886	590.1
296.276	587.3
296.666	579.5
297.056	579.7
297.446	574.9
297.836	607.1
298.227	586.4
298.617	584
299.008	604.2
299.398	586.6
299.789	577
300.179	588.2
300.57	597.5
300.961	580
301.352	579
301.742	596.7
302.133	587.5
302.524	592.1
302.915	585.8
303.307	579
303.698	595.8
304.089	588.7
304.48	590.3
304.872	594.9
305.263	587
305.655	583.3
306.046	593.6
306.438	601.8
306.829	584.3
307.221	595.3
307.613	587.8
308.005	594.5
308.397	601
308.789	609.3
309.181	614.1
309.573	602.7
309.965	594.5
310.357	585.6
310.749	583.3
311.142	586.6
311.534	585.4
311.926	594.2
312.319	591.7
312.711	583
313.104	598.6
313.497	585.8
313.889	624.3
314.282	599.2
314.675	611.4
315.068	588.5
315.461	593.1
315.854	620.3
316.247	593.5
316.64	587.5
317.033	585.6
317.405	590
317.798	586.1
318.192	587.6
318.585	577.2
318.979	588.1
319.372	579.1
319.766	575.7
320.16	596.6
320.553	597.7
320.947	603.5
321.341	586.4
321.735	586.6
322.129	570.5
322.523	613.1
322.917	576.6
323.311	596.7
323.705	588.4
324.099	590
324.494	594.6
324.888	594.1
325.282	581.7
325.677	590.7
326.071	592.1
326.466	597.1
326.861	591.7
327.255	599.2
327.65	598.8
328.045	599.8
328.44	591
328.835	590.9
329.23	580.8
329.625	611.8
330.02	584
330.415	609.4
330.81	587.8
331.206	590.4
331.601	583.6
331.996	592.8
332.37	598.4
332.766	576.5
333.161	613.6
333.557	583.4
333.953	590.2
334.348	1012.4
334.744	593.9
335.14	585.4
335.536	583.6
335.932	598.2
336.328	578.3
336.724	597.7
337.12	590.8
337.516	586.3
337.913	589.1
338.309	601.9
338.705	589.8
339.102	597.6
339.498	583.3
339.895	596.4
340.291	584.7
340.688	593.3
341.085	575
341.481	586.1
341.878	583.1
342.275	607.8
342.672	579.5
343.069	581.1
343.466	577.5
343.842	593.2
344.239	580.2
344.636	582.7
345.033	575.3
345.431	573.4
345.828	584.2
346.225	569.5
346.623	593.5
347.02	583.5
347.418	589.2
347.816	589.9
348.213	570.3
348.611	585
349.009	579.7
349.407	598.2
349.805	577.8
350.203	571.2
350.601	598.4
350.999	582
351.397	574.3
351.795	580.3
352.193	594.4
352.57	589
352.969	595.8
353.367	573.3
353.766	571.7
354.164	585.1
354.563	593.8
354.961	581.9
355.36	576.9
355.759	583.2
356.158	572.6
356.557	577.4
356.956	573.3
357.355	575
357.754	583.6
358.153	588.8
358.552	607.8
358.951	587.1
359.35	595.3
359.75	580.1
360.149	573.3
360.527	571.4
360.926	571
361.326	582.1
361.726	584.4
362.125	573.8
362.525	586.6
362.925	577.5
363.325	586.8
363.724	580.9
364.124	576.1
364.524	577.5
364.924	578.4
365.324	593.7
365.725	572.6
366.125	589.8
366.525	580.7
366.904	571.9
367.304	559.8
367.705	595.2
368.105	585
368.506	576.9
368.906	580.3
369.307	580.3
369.708	581.9
370.108	567.8
370.509	593.7
370.91	575.5
371.311	590
371.712	581.3
372.113	579.7
372.514	568
372.894	578.9
373.295	572.1
373.696	589.5
374.097	585.6
374.499	612.5
374.9	582.2
375.301	570.9
375.703	580.7
376.105	568.2
376.506	579.5
376.908	584.3
377.309	578.1
377.711	583.2
378.113	574.6
378.493	577.7
378.895	578.5
379.297	587.8
379.699	563.9
380.102	581.1
380.504	577.9
380.906	575.3
381.308	601.1
381.71	570.1
382.113	586.8
382.515	579.1
382.918	582.2
383.299	575.5
383.701	587.5
384.104	576.8
384.507	558.1
384.909	572.8
385.312	571.6
385.715	564.7
386.118	572.6
386.521	564.2
386.924	585.4
387.327	570.1
387.709	561.8
388.112	555.4
388.515	570.6
388.918	572.8
389.322	579.4
389.725	579.4
390.129	595.4
390.532	579.8
390.936	571.8
391.339	571.5
391.743	586.7
392.125	569.9
392.529	584.4
392.933	588.8
393.337	577.7
393.74	577.1
394.144	580.7
394.548	569.7
394.953	570.3
395.357	588.2
395.761	575.2
396.144	578
396.548	574.4
396.952	574.9
397.357	575.1
397.761	571.7
398.166	576.3
398.57	571.5
398.975	570.8
399.379	583.4
399.763	622.1
400.168	584.2
400.572	580.1
400.977	576.4
401.382	595.1
401.787	583.1
402.192	595.5
402.597	594.9
403.002	561.3
403.386	590.4
403.791	590.4
404.197	576.5
404.602	582.8
405.007	582.3
405.413	571
405.818	575.5
406.224	569.8
406.608	574.8
407.014	571.6
407.42	595.4
407.825	567.9
408.231	586.5
408.637	583.7
409.043	597.3
409.449	578.5
409.834	570.7
410.24	576.7
410.646	584.7
411.052	587.7
411.458	581.1
411.865	584.1
412.271	584.8
412.677	580.2
413.062	581.1
413.469	574.4
413.875	594
414.282	587.2
414.689	580.1
415.095	580.3
415.502	568.7
415.888	573.3
416.294	563
416.701	610.9
417.108	574.8
417.515	586.2
417.923	569.8
418.33	593.7
418.715	586
419.123	572.2
419.53	575.5
419.937	578.3
420.345	590.8
420.752	572.9
421.16	587.5
421.546	582.5
421.953	589.2
422.361	574.7
422.769	576.6
423.177	564.3
423.585	602.6
423.992	597.5
424.379	594.9
424.787	586.7
425.195	605.8
425.603	578.4
426.011	590.7
426.419	596.4
426.806	592.1
427.214	588.4
427.623	592.3
428.031	597.1
428.44	582.3
428.848	591.2
429.235	593.6
429.644	582.7
430.053	584.7
430.461	598.2
430.87	602.5
431.279	591.9
431.666	575.4
432.075	578.1
432.484	588.4
432.893	575.1
433.302	601.4
433.711	623.4
434.099	587.7
434.508	573.7
434.918	566
435.327	585.4
435.737	576.9
436.125	577.7
436.534	581.4
436.944	586.3
437.353	579.5
437.763	598.2
438.173	574.7
438.561	594.2
438.971	566.1
439.381	575.1
439.791	580.1
440.201	553.6
440.589	577.4
440.999	583.4
441.409	575.7
441.819	567.3
442.23	581.4
442.619	579.2
443.029	573.6
443.439	577.3
443.85	581.5
444.26	591.3
444.649	584.5
445.06	577.2
445.471	565.7
445.881	574.4
446.292	593.7
446.682	594.5
447.092	564.6
447.503	621.8
447.914	576
448.325	577.4
448.715	573.5
449.126	570
449.537	573.1
449.948	579.9
450.338	580.4
450.75	584
451.161	583
451.572	582.1
451.984	572.4
452.374	559.7
452.786	577.4
453.197	578.6
453.609	582.3
453.999	565.3
454.411	566.8
454.823	580.7
455.235	574.9
455.647	567.1
456.037	581.6
456.449	559.8
456.862	577.7
457.274	579.1
457.665	569.1
458.077	588.8
458.489	589.6
458.902	577.8
459.293	576.7
459.705	571.9
460.118	567.4
460.53	577
460.921	572
461.334	582.1
461.747	573
462.16	583.7
462.551	585.4
462.964	576.1
463.377	559.4
463.79	573.6
464.182	581.2
464.595	569.7
465.008	579.6
465.421	579
465.813	571.6
466.226	582.8
466.64	573.4
467.053	614.8
467.445	580.1
467.859	576.8
468.272	570.7
468.686	585.1
469.078	572.1
469.492	556.8
469.906	573.2
470.298	579.9
470.712	567.4
471.126	607.2
471.54	552.2
471.933	559.7
472.347	566.9
472.761	563.3
473.175	557.7
473.568	569.8
473.982	558.9
474.397	568.3
474.79	564.4
475.204	580.6
475.619	568.5
476.033	573.1
476.426	575.8
476.841	564.8
477.256	591.7
477.649	564.9
478.064	560.5
478.479	562.9
478.872	567.3
479.287	548.8
479.702	567.3
480.118	569.5
480.511	573.9
480.927	561.6
481.342	563.1
481.736	580.2
482.151	560.6
482.566	574.4
482.96	570.9
483.376	579.4
483.792	560.6
484.186	573.2
484.602	568.7
485.017	573.7
485.412	568.6
485.827	580.9
486.243	571.1
486.638	592.5
487.054	580
487.47	580.9
487.865	570.1
488.281	569
488.697	561.8
489.092	562.1
489.508	563.1
489.925	576.3
490.32	559.3
490.736	567
491.153	574.8
491.548	581.6
491.964	580.8
492.381	560.3
492.776	570.1
493.193	573.8
493.61	577.2
494.006	564
494.422	578.8
494.84	566.3
495.235	580.4
495.652	572.4
496.069	568.8
496.465	563.6
496.883	570.1
497.3	587.7
497.696	566.8
498.113	575.4
498.509	558.8
498.927	562.1
499.344	563.4
499.741	562.5
500.158	575.8
500.576	576.8
500.973	574.6
501.39	559.8
501.787	559.1
502.205	570.5
502.623	565.8
503.02	555.2
503.438	566
503.856	567.8
504.253	569.9
504.671	568.4
505.068	564.6
505.486	562.2
505.905	587
506.302	567.9
506.72	579.1
507.118	565.9
507.536	564.2
507.955	563.9
508.352	567.1
508.771	578.7
509.169	573.8
509.587	565
510.006	568.8
510.404	549.2
510.823	557
511.221	563.2
511.64	560.4
512.038	577
512.457	561.8
512.877	567.5
513.275	558.9
513.694	562.9
514.092	564.9
514.512	571.2
514.91	564.7
515.33	566
515.749	565.8
516.148	572.5
516.568	566
516.966	565.9
517.386	564
517.785	570.2
518.205	566.2
518.603	559.1
519.024	558.5
519.444	570
519.843	574.7
520.263	570.8
520.662	568.4
521.082	562.7
521.481	565.2
521.902	567.1
522.301	569.2
522.722	570.3
523.121	569.4
523.542	560.4
523.963	566.7
524.362	563.4
524.783	574.7
525.183	566
525.604	569.3
526.003	562.8
526.425	560.4
526.824	568.2
527.246	577.2
527.646	575.1
528.067	568.7
528.467	565.7
528.888	565.8
529.289	563.3
529.71	565.3
530.11	563.3
530.532	565.3
530.932	554.4
531.354	555.6
531.755	599.2
532.176	575.2
532.577	560.3
532.999	565.5
533.4	562.1
533.822	576.6
534.223	562.8
534.645	559.1
535.046	559.3
535.468	566.1
535.869	576.8
536.292	557.7
536.693	560.3
537.115	563.4
537.516	560.4
537.939	560.5
538.34	579.2
538.742	574.8
539.165	558.4
539.566	564.4
539.989	558
540.391	563.3
540.814	567.1
541.216	566.1
541.639	566.3
542.041	565.6
542.464	561.9
542.866	559.4
543.268	554.2
543.691	567.4
544.093	568.8
544.517	581.8
544.919	553.9
545.343	588.3
545.745	554.9
546.147	565.9
546.571	561.2
546.974	554.5
547.398	565.6
547.8	577.3
548.224	559
548.627	557.9
549.03	571.7
549.454	560.9
549.857	553.1
550.281	562.5
550.684	557.5
551.087	574.7
551.512	567.8
551.915	566
552.34	562.5
552.743	557.7
553.146	568.8
553.571	565.2
553.975	588.4
554.399	556.9
554.803	608.2
555.207	561.1
555.632	557.4
556.036	569.8
556.461	554.9
556.865	562.8
557.268	553.6
557.694	559.8
558.098	563.4
558.502	565.2
558.927	557.2
559.332	560.5
559.736	563
560.162	567
560.566	563.5
560.992	571.6
561.396	566.5
561.801	559.4
562.227	564.4
562.631	559.7
563.036	559.6
563.462	570.5
563.867	567.5
564.272	548.5
564.698	562.3
565.103	552.2
565.508	580.7
565.935	565.7
566.34	561.3
566.745	576.8
567.172	558.8
567.577	581.2
567.982	576.8
568.409	565.3
568.815	556.1
569.22	566.7
569.626	571.5
570.053	545.1
570.459	568.2
570.865	568.4
571.292	571.4
571.698	562.8
572.104	549
572.531	561.3
572.937	569.4
573.343	563.3
573.75	560.5
574.177	564.9
574.583	566
574.99	559.4
575.396	567.8
575.824	555.6
576.231	564.6
576.637	553.1
577.065	585.5
577.472	558.1
577.879	561.3
578.286	577.6
578.714	559
579.121	557.8
579.528	564.2
579.935	570.2
580.364	557.2
580.771	546.5
581.178	556.2
581.585	565.1
582.014	565.7
582.421	557.5
582.829	562.5
583.236	570.5
583.644	554.9
584.073	559.9
584.481	561.7
584.889	561.4
585.296	565.4
585.726	562
586.134	552.4
586.542	558.1
586.95	582.8
587.358	550.4
587.787	566
588.196	551.4
588.604	558.6
589.012	562.1
589.421	555
589.851	553.8
590.259	566.6
590.668	558
591.076	595
591.485	557.5
591.894	557.5
592.324	572.4
592.733	572.3
593.142	545.3
593.551	557.5
593.96	569.1
594.369	548.2
594.8	555.5
595.209	559.3
595.618	550
596.028	558.6
596.437	552.8
596.847	563
597.256	567.6
597.687	559
598.097	565.5
598.507	550.5
598.917	567.5
599.327	560
599.736	561.2
600.146	570.2
600.556	562.6
600.988	572
601.398	558.6
601.808	566.9
602.219	545.7
602.629	559.4
603.039	558.4
603.45	575.8
603.86	557.7
604.271	572.5
604.703	561
605.114	562
605.525	561.2
605.935	560
606.346	579
606.757	562.2
607.168	560.4
607.579	552.4
607.99	572.4
608.402	558.8
608.813	568.1
609.224	551.4
609.636	553.9
610.047	551.1
610.48	558.3
610.892	572.2
611.303	572.7
611.715	558.9
612.127	551.3
612.539	557.1
612.95	559.7
613.362	550.8
613.774	548.4
614.186	552.7
614.599	556.4
615.011	562.1
615.423	546.4
615.835	554.7
616.248	548.1
616.66	566.2
617.073	554.5
617.485	558.2
617.898	562.4
618.311	560
618.723	557.2
619.136	586
619.549	572.9
619.962	577.8
620.375	551.6
620.788	561
621.201	553.5
621.614	561.4
622.028	561
622.441	568.7
622.854	573.1
623.268	547.9
623.681	559.4
624.095	560.5
624.509	566.7
624.922	562.4
625.336	554.5
625.728	558.2
626.142	567.3
626.556	575.6
626.97	565
627.384	554.1
627.799	556.7
628.213	563.8
628.627	551.3
629.041	558.3
629.456	552.2
629.87	555.8
630.285	564.8
630.699	560.8
631.093	554
631.507	562.7
631.922	559.6
632.337	569
632.752	550.9
633.167	560.7
633.582	550.6
633.997	557.9
634.412	550.3
634.806	558.8
635.221	552.8
635.637	561.6
636.052	547.6
636.468	558.7
636.883	573.6
637.299	557.4
637.715	549.2
638.109	563.9
638.525	545.2
638.941	566.1
639.357	566.3
639.773	570.8
640.189	555.3
640.584	562.1
641	558.3
641.416	550.8
641.832	554.3
642.249	552.9
642.665	556.6
643.06	562.2
643.477	570
643.894	549.3
644.31	554.3
644.727	556.1
645.123	558.6
645.54	553.5
645.957	559.8
646.374	562
646.77	562.1
647.187	589.9
647.604	553.7
648.021	546.9
648.439	554.6
648.835	559.8
649.252	562.3
649.67	556.7
650.088	555.3
650.484	557.5
650.902	560.7
651.32	567.4
651.738	560.9
652.134	563.4
652.552	579.8
652.971	564.2
653.389	557.1
653.786	572.1
654.204	562.1
654.622	548.6
655.019	554.6
655.438	563.4
655.857	560
656.275	559.6
656.673	551.3
657.091	628.6
657.51	555
657.908	566.6
658.327	575
658.746	549.4
659.144	560
659.563	571.9
659.982	564.6
660.38	549.1
660.8	555.7
661.219	567.2
661.617	559.6
662.037	558.5
662.457	572.6
662.855	541.9
663.275	585.1
663.695	559.2
664.094	558.4
664.514	560.2
664.934	547.7
665.333	568.5
665.753	551.6
666.152	551
666.572	552.9
666.993	565.8
667.392	553.5
667.812	549.6
668.212	552
668.632	571.7
669.053	553.9
669.453	556.5
669.874	551.1
670.273	557.5
670.694	546.5
671.116	564.4
671.515	565.4
671.937	558.5
672.337	547.2
672.758	550.4
673.158	561.3
673.58	552.9
673.98	560.9
674.402	565.6
674.824	552.1
675.224	550.3
675.646	548
676.047	554.4
676.469	553.2
676.869	562.9
677.292	559.1
677.693	547.7
678.115	546.4
678.516	560.8
678.939	561.3
679.34	553
679.762	570.5
680.164	562
680.586	546.5
680.988	557.7
681.411	578.2
681.812	550.8
682.236	550.6
682.637	546.1
683.061	542.8
683.462	560.3
683.864	550.9
684.288	554.3
684.69	548.5
685.114	566.1
685.516	566.1
685.94	555
686.342	564.6
686.766	550.6
687.168	556.8
687.571	579.7
687.995	558.4
688.398	549.9
688.822	551.4
689.225	573.9
689.628	570.7
690.052	559.2
690.456	563.2
690.88	557.1
691.284	555.3
691.687	565
692.112	549.8
692.515	545.4
692.919	560.1
693.344	561.7
693.747	551.6
694.173	549.1
694.577	565.9
694.98	555.2
695.406	555.9
695.81	560.2
696.214	557.1
696.64	558.8
697.044	555.5
697.448	561.2
697.874	553.1
698.279	550.4
698.684	545.6
699.11	550.4
699.514	554.8
699.919	549.9
700.324	545.6
700.75	548.2
701.156	555.4
701.561	558.5
701.987	558.7
702.393	565.7
702.798	559.4
703.203	561.7
703.63	551
704.036	555
704.442	557.7
704.847	546.7
705.274	550.8
705.68	561.6
706.086	564.7
706.492	545.5
706.92	556.2
707.326	562.2
707.732	551.8
708.139	553.3
708.545	549.3
708.973	550.3
709.38	557.3
709.786	542.7
710.193	568.7
710.6	563
711.028	546.4
711.435	556.9
711.842	551.5
712.249	554
712.656	556.5
713.064	561.3
713.492	548.1
713.9	556.5
714.307	556.1
714.715	554.4
715.123	557.7
715.53	559.6
715.938	559.2
716.367	556.8
716.775	550.1
717.184	546.7
717.592	547.8
718	566.5
718.408	585.7
718.816	596.2
719.225	558.7
719.633	548.7
720.042	542.2
720.472	557.2
720.881	571.9
721.29	555.6
721.699	544.9
722.108	563.7
722.517	554.1
722.926	551
723.335	562.6
723.744	558.2
724.154	554.6
724.563	556.3
724.973	558.4
725.382	553
725.792	550.4
726.202	541.8
726.612	561.1
727.022	547.8
727.432	544.5
779.813	548.2
780.223	600.9
780.634	552.6
781.044	543.4
781.454	552.6
781.865	567.1
782.276	541.5
782.686	565.5
783.097	556.4
783.508	554.2
783.919	558
784.33	562.7
784.741	564
785.152	544.5
785.563	540.7
785.974	547.7
786.386	559.9
786.776	551.9
787.188	554.2
787.599	543.3
788.011	559.9
788.423	556
788.835	552.2
789.247	541.4
789.659	550.4
790.071	549.9
790.483	598.2
790.874	553.8
791.286	560.3
791.699	552
792.111	551.1
792.524	559.4
792.937	549.5
793.349	541.2
793.741	549.5
794.154	548.1
794.567	576.7
794.98	550.4
795.393	546.5
795.785	565.4
796.198	548.1
796.612	554.9
797.026	546.4
797.439	537.8
797.831	550
798.245	543.5
798.659	549.8
799.073	552.4
799.487	544.1
799.88	555.6
800.294	557.1
800.708	550
801.123	553.2
801.516	563.4
801.93	544.2
802.345	540.2
802.76	552.1
803.153	566.8
803.568	563.5
803.983	561.3
804.377	553.1
804.792	543.7
805.207	536.6
805.601	547.7
806.016	583.8
806.432	543.2
806.826	579.2
807.242	560.1
807.658	556.2
808.052	550
808.468	553.5
808.884	545.8
809.279	549.5
809.695	561.7
810.111	573.8
810.506	555.7
810.922	570.5
811.339	546.2
811.734	558.6
812.151	550.4
812.546	549
812.963	552.3
813.38	557.9
813.776	554.7
814.193	571.9
814.589	547.2
815.006	547.2
815.402	549
815.82	548.6
816.237	548.8
816.633	553.9
817.051	541.3
817.448	552.1
817.866	539.5
818.262	570.1
818.68	550.3
819.077	546.7
819.495	553
819.892	589.9
820.311	548.8
820.708	549
821.127	547.5
821.524	561.5
821.943	555.2
822.34	564
822.759	551.9
823.157	551.1
823.576	561
823.974	557
824.393	559.9
824.791	544.6
825.189	539.4
825.609	543.5
826.007	552.8
826.427	540.1
826.826	551.5
827.246	555.8
827.644	533.2
828.043	564
828.463	546.6
828.862	563.5
829.261	556.3
829.682	540.6
830.081	560.8
830.502	550.3
830.901	557.3
831.301	545.8
831.722	534.6
832.121	554
832.521	546.4
832.943	551.9
833.342	551.3
833.742	544.8
834.164	554.8
834.564	539.9
834.965	550.2
835.386	551.5
835.787	549.3
836.188	551.8
836.588	553.9
837.01	551
837.411	542.3
837.812	560.2
838.213	556.7
838.636	544.1
839.037	616.9
839.438	558.1
839.84	554.3
840.263	558.6
840.664	554.9
841.066	550
841.468	551.4
841.891	546
842.293	556.8
842.695	549.2
843.098	555
843.5	545.5
843.902	555.4
844.326	550.1
844.729	549.7
845.131	557.9
845.534	554.4
845.937	562
846.34	562.5
846.764	549
847.167	552.3
847.571	542.8
847.974	546.9
